Criado como novo conjunto de dados;"e2410_daniel_v2.spp","42484.3 Secs"
cm-1;Abs
10000.000000;0.621425
9999.000000;0.620759
9998.000000;0.620093
9997.000000;0.619429
9996.000000;0.618765
9995.000000;0.618103
9994.000000;0.617440
9993.000000;0.616783
9992.000000;0.616118
9991.000000;0.615469
9990.000000;0.614792
9989.000000;0.614240
9988.000000;0.613823
9987.000000;0.613300
9986.000000;0.612672
9985.000000;0.612144
9984.000000;0.611851
9983.000000;0.611659
9982.000000;0.611373
9981.000000;0.610967
9980.000000;0.610531
9979.000000;0.610134
9978.000000;0.609768
9977.000000;0.609370
9976.000000;0.608867
9975.000000;0.608266
9974.000000;0.607685
9973.000000;0.607203
9972.000000;0.606723
9971.000000;0.606088
9970.000000;0.605285
9969.000000;0.604452
9968.000000;0.603752
9967.000000;0.603304
9966.000000;0.603147
9965.000000;0.603153
9964.000000;0.603041
9963.000000;0.602624
9962.000000;0.601976
9961.000000;0.601304
9960.000000;0.600736
9959.000000;0.600313
9958.000000;0.599985
9957.000000;0.599518
9956.000000;0.598631
9955.000000;0.597403
9954.000000;0.596341
9953.000000;0.595828
9952.000000;0.595689
9951.000000;0.595508
9950.000000;0.595166
9949.000000;0.594813
9948.000000;0.594471
9947.000000;0.594020
9946.000000;0.593454
9945.000000;0.592861
9944.000000;0.592227
9943.000000;0.591565
9942.000000;0.591095
9941.000000;0.590967
9940.000000;0.590911
9939.000000;0.590527
9938.000000;0.589865
9937.000000;0.589350
9936.000000;0.589142
9935.000000;0.588943
9934.000000;0.588466
9933.000000;0.587761
9932.000000;0.587038
9931.000000;0.586444
9930.000000;0.586068
9929.000000;0.585847
9928.000000;0.585468
9927.000000;0.584651
9926.000000;0.583589
9925.000000;0.582795
9924.000000;0.582459
9923.000000;0.582225
9922.000000;0.581709
9921.000000;0.580949
9920.000000;0.580212
9919.000000;0.579635
9918.000000;0.579177
9917.000000;0.578753
9916.000000;0.578276
9915.000000;0.577710
9914.000000;0.577183
9913.000000;0.576891
9912.000000;0.576852
9911.000000;0.576878
9910.000000;0.576785
9909.000000;0.576490
9908.000000;0.575920
9907.000000;0.575074
9906.000000;0.574169
9905.000000;0.573498
9904.000000;0.573091
9903.000000;0.572707
9902.000000;0.572195
9901.000000;0.571647
9900.000000;0.571162
9899.000000;0.570681
9898.000000;0.570134
9897.000000;0.569556
9896.000000;0.568976
9895.000000;0.568357
9894.000000;0.567705
9893.000000;0.567099
9892.000000;0.566550
9891.000000;0.565997
9890.000000;0.565461
9889.000000;0.565076
9888.000000;0.564906
9887.000000;0.564867
9886.000000;0.564839
9885.000000;0.564711
9884.000000;0.564347
9883.000000;0.563691
9882.000000;0.562899
9881.000000;0.562212
9880.000000;0.561654
9879.000000;0.561046
9878.000000;0.560302
9877.000000;0.559543
9876.000000;0.558889
9875.000000;0.558308
9874.000000;0.557721
9873.000000;0.557104
9872.000000;0.556476
9871.000000;0.555906
9870.000000;0.555512
9869.000000;0.555315
9868.000000;0.555135
9867.000000;0.554789
9866.000000;0.554351
9865.000000;0.554010
9864.000000;0.553725
9863.000000;0.553264
9862.000000;0.552573
9861.000000;0.551885
9860.000000;0.551417
9859.000000;0.551161
9858.000000;0.550994
9857.000000;0.550800
9856.000000;0.550438
9855.000000;0.549788
9854.000000;0.548912
9853.000000;0.548012
9852.000000;0.547218
9851.000000;0.546539
9850.000000;0.546004
9849.000000;0.545678
9848.000000;0.545521
9847.000000;0.545385
9846.000000;0.545167
9845.000000;0.544838
9844.000000;0.544338
9843.000000;0.543628
9842.000000;0.542825
9841.000000;0.542114
9840.000000;0.541519
9839.000000;0.540932
9838.000000;0.540325
9837.000000;0.539773
9836.000000;0.539296
9835.000000;0.538850
9834.000000;0.538464
9833.000000;0.538173
9832.000000;0.537859
9831.000000;0.537351
9830.000000;0.536674
9829.000000;0.536002
9828.000000;0.535387
9827.000000;0.534758
9826.000000;0.534157
9825.000000;0.533739
9824.000000;0.533496
9823.000000;0.533234
9822.000000;0.532841
9821.000000;0.532385
9820.000000;0.531901
9819.000000;0.531311
9818.000000;0.530596
9817.000000;0.529859
9816.000000;0.529174
9815.000000;0.528548
9814.000000;0.528054
9813.000000;0.527780
9812.000000;0.527633
9811.000000;0.527379
9810.000000;0.526947
9809.000000;0.526491
9808.000000;0.526121
9807.000000;0.525750
9806.000000;0.525258
9805.000000;0.524654
9804.000000;0.524022
9803.000000;0.523455
9802.000000;0.523046
9801.000000;0.522791
9800.000000;0.522515
9799.000000;0.522070
9798.000000;0.521577
9797.000000;0.521258
9796.000000;0.521059
9795.000000;0.520690
9794.000000;0.520069
9793.000000;0.519457
9792.000000;0.519072
9791.000000;0.518806
9790.000000;0.518418
9789.000000;0.517815
9788.000000;0.517033
9787.000000;0.516138
9786.000000;0.515261
9785.000000;0.514586
9784.000000;0.514173
9783.000000;0.513903
9782.000000;0.513638
9781.000000;0.513334
9780.000000;0.512963
9779.000000;0.512483
9778.000000;0.511949
9777.000000;0.511508
9776.000000;0.511237
9775.000000;0.511056
9774.000000;0.510836
9773.000000;0.510484
9772.000000;0.509941
9771.000000;0.509247
9770.000000;0.508609
9769.000000;0.508222
9768.000000;0.508002
9767.000000;0.507666
9766.000000;0.507084
9765.000000;0.506398
9764.000000;0.505777
9763.000000;0.505239
9762.000000;0.504748
9761.000000;0.504300
9760.000000;0.503857
9759.000000;0.503338
9758.000000;0.502756
9757.000000;0.502232
9756.000000;0.501840
9755.000000;0.501559
9754.000000;0.501358
9753.000000;0.501189
9752.000000;0.500892
9751.000000;0.500289
9750.000000;0.499438
9749.000000;0.498629
9748.000000;0.498074
9747.000000;0.497712
9746.000000;0.497364
9745.000000;0.496962
9744.000000;0.496573
9743.000000;0.496294
9742.000000;0.496145
9741.000000;0.495995
9740.000000;0.495610
9739.000000;0.494882
9738.000000;0.493979
9737.000000;0.493186
9736.000000;0.492608
9735.000000;0.492155
9734.000000;0.491731
9733.000000;0.491293
9732.000000;0.490784
9731.000000;0.490203
9730.000000;0.489692
9729.000000;0.489395
9728.000000;0.489232
9727.000000;0.488984
9726.000000;0.488564
9725.000000;0.488052
9724.000000;0.487518
9723.000000;0.486985
9722.000000;0.486508
9721.000000;0.486098
9720.000000;0.485612
9719.000000;0.484932
9718.000000;0.484199
9717.000000;0.483636
9716.000000;0.483205
9715.000000;0.482691
9714.000000;0.482096
9713.000000;0.481650
9712.000000;0.481430
9711.000000;0.481262
9710.000000;0.481038
9709.000000;0.480841
9708.000000;0.480685
9707.000000;0.480387
9706.000000;0.479838
9705.000000;0.479178
9704.000000;0.478587
9703.000000;0.478100
9702.000000;0.477693
9701.000000;0.477380
9700.000000;0.477123
9699.000000;0.476819
9698.000000;0.476447
9697.000000;0.476080
9696.000000;0.475687
9695.000000;0.475112
9694.000000;0.474304
9693.000000;0.473411
9692.000000;0.472576
9691.000000;0.471826
9690.000000;0.471193
9689.000000;0.470763
9688.000000;0.470503
9687.000000;0.470247
9686.000000;0.469919
9685.000000;0.469605
9684.000000;0.469314
9683.000000;0.468875
9682.000000;0.468209
9681.000000;0.467534
9680.000000;0.467151
9679.000000;0.467113
9678.000000;0.467202
9677.000000;0.467135
9676.000000;0.466728
9675.000000;0.465976
9674.000000;0.465080
9673.000000;0.464325
9672.000000;0.463854
9671.000000;0.463598
9670.000000;0.463400
9669.000000;0.463121
9668.000000;0.462637
9667.000000;0.461916
9666.000000;0.461146
9665.000000;0.460619
9664.000000;0.460429
9663.000000;0.460370
9662.000000;0.460178
9661.000000;0.459756
9660.000000;0.459149
9659.000000;0.458442
9658.000000;0.457741
9657.000000;0.457142
9656.000000;0.456629
9655.000000;0.456108
9654.000000;0.455564
9653.000000;0.455095
9652.000000;0.454757
9651.000000;0.454506
9650.000000;0.454294
9649.000000;0.454136
9648.000000;0.454030
9647.000000;0.453929
9646.000000;0.453792
9645.000000;0.453575
9644.000000;0.453189
9643.000000;0.452575
9642.000000;0.451829
9641.000000;0.451122
9640.000000;0.450494
9639.000000;0.449855
9638.000000;0.449199
9637.000000;0.448649
9636.000000;0.448264
9635.000000;0.447971
9634.000000;0.447680
9633.000000;0.447353
9632.000000;0.446908
9631.000000;0.446245
9630.000000;0.445412
9629.000000;0.444649
9628.000000;0.444160
9627.000000;0.443919
9626.000000;0.443724
9625.000000;0.443378
9624.000000;0.442841
9623.000000;0.442279
9622.000000;0.441927
9621.000000;0.441812
9620.000000;0.441679
9619.000000;0.441306
9618.000000;0.440815
9617.000000;0.440507
9616.000000;0.440432
9615.000000;0.440313
9614.000000;0.439910
9613.000000;0.439256
9612.000000;0.438527
9611.000000;0.437848
9610.000000;0.437275
9609.000000;0.436812
9608.000000;0.436402
9607.000000;0.435987
9606.000000;0.435599
9605.000000;0.435283
9604.000000;0.434994
9603.000000;0.434698
9602.000000;0.434478
9601.000000;0.434381
9600.000000;0.434210
9599.000000;0.433733
9598.000000;0.433026
9597.000000;0.432384
9596.000000;0.431904
9595.000000;0.431427
9594.000000;0.430904
9593.000000;0.430489
9592.000000;0.430190
9591.000000;0.429739
9590.000000;0.428985
9589.000000;0.428192
9588.000000;0.427750
9587.000000;0.427707
9586.000000;0.427763
9585.000000;0.427600
9584.000000;0.427110
9583.000000;0.426402
9582.000000;0.425717
9581.000000;0.425276
9580.000000;0.425123
9579.000000;0.425129
9578.000000;0.425149
9577.000000;0.425075
9576.000000;0.424780
9575.000000;0.424172
9574.000000;0.423385
9573.000000;0.422744
9572.000000;0.422432
9571.000000;0.422276
9570.000000;0.421943
9569.000000;0.421281
9568.000000;0.420416
9567.000000;0.419595
9566.000000;0.418989
9565.000000;0.418593
9564.000000;0.418276
9563.000000;0.417967
9562.000000;0.417730
9561.000000;0.417610
9560.000000;0.417485
9559.000000;0.417204
9558.000000;0.416818
9557.000000;0.416499
9556.000000;0.416255
9555.000000;0.415913
9554.000000;0.415404
9553.000000;0.414873
9552.000000;0.414475
9551.000000;0.414209
9550.000000;0.413997
9549.000000;0.413776
9548.000000;0.413464
9547.000000;0.412979
9546.000000;0.412328
9545.000000;0.411608
9544.000000;0.410890
9543.000000;0.410225
9542.000000;0.409712
9541.000000;0.409425
9540.000000;0.409257
9539.000000;0.408997
9538.000000;0.408544
9537.000000;0.407936
9536.000000;0.407216
9535.000000;0.406453
9534.000000;0.405858
9533.000000;0.405643
9532.000000;0.405725
9531.000000;0.405784
9530.000000;0.405622
9529.000000;0.405304
9528.000000;0.404917
9527.000000;0.404448
9526.000000;0.403951
9525.000000;0.403590
9524.000000;0.403403
9523.000000;0.403224
9522.000000;0.402931
9521.000000;0.402601
9520.000000;0.402318
9519.000000;0.402010
9518.000000;0.401576
9517.000000;0.401020
9516.000000;0.400350
9515.000000;0.399520
9514.000000;0.398606
9513.000000;0.397866
9512.000000;0.397485
9511.000000;0.397368
9510.000000;0.397298
9509.000000;0.397187
9508.000000;0.397040
9507.000000;0.396797
9506.000000;0.396362
9505.000000;0.395742
9504.000000;0.395056
9503.000000;0.394422
9502.000000;0.393916
9501.000000;0.393556
9500.000000;0.393300
9499.000000;0.393107
9498.000000;0.393020
9497.000000;0.393058
9496.000000;0.393035
9495.000000;0.392642
9494.000000;0.391818
9493.000000;0.390894
9492.000000;0.390258
9491.000000;0.389994
9490.000000;0.389925
9489.000000;0.389881
9488.000000;0.389792
9487.000000;0.389605
9486.000000;0.389258
9485.000000;0.388737
9484.000000;0.388090
9483.000000;0.387380
9482.000000;0.386676
9481.000000;0.386042
9480.000000;0.385494
9479.000000;0.385023
9478.000000;0.384660
9477.000000;0.384449
9476.000000;0.384350
9475.000000;0.384238
9474.000000;0.384026
9473.000000;0.383715
9472.000000;0.383317
9471.000000;0.382850
9470.000000;0.382397
9469.000000;0.382062
9468.000000;0.381815
9467.000000;0.381515
9466.000000;0.381143
9465.000000;0.380872
9464.000000;0.380817
9463.000000;0.380841
9462.000000;0.380695
9461.000000;0.380285
9460.000000;0.379704
9459.000000;0.379097
9458.000000;0.378564
9457.000000;0.378139
9456.000000;0.377777
9455.000000;0.377382
9454.000000;0.376920
9453.000000;0.376444
9452.000000;0.375993
9451.000000;0.375529
9450.000000;0.375039
9449.000000;0.374609
9448.000000;0.374319
9447.000000;0.374111
9446.000000;0.373846
9445.000000;0.373468
9444.000000;0.373063
9443.000000;0.372769
9442.000000;0.372656
9441.000000;0.372645
9440.000000;0.372549
9439.000000;0.372229
9438.000000;0.371744
9437.000000;0.371296
9436.000000;0.371003
9435.000000;0.370790
9434.000000;0.370512
9433.000000;0.370106
9432.000000;0.369581
9431.000000;0.368956
9430.000000;0.368268
9429.000000;0.367626
9428.000000;0.367150
9427.000000;0.366874
9426.000000;0.366720
9425.000000;0.366575
9424.000000;0.366370
9423.000000;0.366093
9422.000000;0.365760
9421.000000;0.365375
9420.000000;0.364944
9419.000000;0.364515
9418.000000;0.364173
9417.000000;0.363977
9416.000000;0.363905
9415.000000;0.363866
9414.000000;0.363736
9413.000000;0.363390
9412.000000;0.362799
9411.000000;0.362105
9410.000000;0.361537
9409.000000;0.361163
9408.000000;0.360827
9407.000000;0.360367
9406.000000;0.359825
9405.000000;0.359336
9404.000000;0.358919
9403.000000;0.358513
9402.000000;0.358178
9401.000000;0.358060
9400.000000;0.358133
9399.000000;0.358122
9398.000000;0.357750
9397.000000;0.357025
9396.000000;0.356240
9395.000000;0.355717
9394.000000;0.355560
9393.000000;0.355584
9392.000000;0.355484
9391.000000;0.355105
9390.000000;0.354537
9389.000000;0.353972
9388.000000;0.353549
9387.000000;0.353339
9386.000000;0.353345
9385.000000;0.353419
9384.000000;0.353284
9383.000000;0.352792
9382.000000;0.352106
9381.000000;0.351502
9380.000000;0.351074
9379.000000;0.350750
9378.000000;0.350504
9377.000000;0.350372
9376.000000;0.350267
9375.000000;0.349981
9374.000000;0.349420
9373.000000;0.348720
9372.000000;0.348096
9371.000000;0.347671
9370.000000;0.347463
9369.000000;0.347424
9368.000000;0.347445
9367.000000;0.347418
9366.000000;0.347294
9365.000000;0.347061
9364.000000;0.346698
9363.000000;0.346226
9362.000000;0.345776
9361.000000;0.345479
9360.000000;0.345304
9359.000000;0.345096
9358.000000;0.344776
9357.000000;0.344409
9356.000000;0.344087
9355.000000;0.343823
9354.000000;0.343560
9353.000000;0.343226
9352.000000;0.342797
9351.000000;0.342344
9350.000000;0.341980
9349.000000;0.341705
9348.000000;0.341396
9347.000000;0.341023
9346.000000;0.340757
9345.000000;0.340709
9344.000000;0.340673
9343.000000;0.340309
9342.000000;0.339547
9341.000000;0.338652
9340.000000;0.337913
9339.000000;0.337427
9338.000000;0.337150
9337.000000;0.336985
9336.000000;0.336803
9335.000000;0.336557
9334.000000;0.336380
9333.000000;0.336428
9332.000000;0.336615
9331.000000;0.336658
9330.000000;0.336410
9329.000000;0.335999
9328.000000;0.335609
9327.000000;0.335276
9326.000000;0.334942
9325.000000;0.334563
9324.000000;0.334095
9323.000000;0.333493
9322.000000;0.332790
9321.000000;0.332104
9320.000000;0.331547
9319.000000;0.331169
9318.000000;0.331004
9317.000000;0.331039
9316.000000;0.331130
9315.000000;0.331063
9314.000000;0.330747
9313.000000;0.330285
9312.000000;0.329833
9311.000000;0.329479
9310.000000;0.329251
9309.000000;0.329139
9308.000000;0.329061
9307.000000;0.328892
9306.000000;0.328563
9305.000000;0.328086
9304.000000;0.327507
9303.000000;0.326905
9302.000000;0.326408
9301.000000;0.326107
9300.000000;0.325944
9299.000000;0.325783
9298.000000;0.325581
9297.000000;0.325393
9296.000000;0.325215
9295.000000;0.324956
9294.000000;0.324586
9293.000000;0.324215
9292.000000;0.323962
9291.000000;0.323816
9290.000000;0.323659
9289.000000;0.323395
9288.000000;0.323037
9287.000000;0.322699
9286.000000;0.322486
9285.000000;0.322361
9284.000000;0.322170
9283.000000;0.321817
9282.000000;0.321368
9281.000000;0.320945
9280.000000;0.320584
9279.000000;0.320270
9278.000000;0.320002
9277.000000;0.319740
9276.000000;0.319393
9275.000000;0.318961
9274.000000;0.318599
9273.000000;0.318402
9272.000000;0.318230
9271.000000;0.317893
9270.000000;0.317437
9269.000000;0.317067
9268.000000;0.316864
9267.000000;0.316753
9266.000000;0.316690
9265.000000;0.316679
9264.000000;0.316633
9263.000000;0.316423
9262.000000;0.316087
9261.000000;0.315791
9260.000000;0.315558
9259.000000;0.315222
9258.000000;0.314682
9257.000000;0.314043
9256.000000;0.313474
9255.000000;0.313065
9254.000000;0.312858
9253.000000;0.312839
9252.000000;0.312860
9251.000000;0.312718
9250.000000;0.312374
9249.000000;0.311991
9248.000000;0.311714
9247.000000;0.311522
9246.000000;0.311327
9245.000000;0.311095
9244.000000;0.310831
9243.000000;0.310556
9242.000000;0.310329
9241.000000;0.310190
9240.000000;0.310054
9239.000000;0.309789
9238.000000;0.309404
9237.000000;0.309051
9236.000000;0.308809
9235.000000;0.308598
9234.000000;0.308325
9233.000000;0.308013
9232.000000;0.307725
9231.000000;0.307476
9230.000000;0.307253
9229.000000;0.307027
9228.000000;0.306723
9227.000000;0.306281
9226.000000;0.305774
9225.000000;0.305362
9224.000000;0.305111
9223.000000;0.304932
9222.000000;0.304720
9221.000000;0.304468
9220.000000;0.304215
9219.000000;0.303993
9218.000000;0.303822
9217.000000;0.303690
9216.000000;0.303515
9215.000000;0.303228
9214.000000;0.302884
9213.000000;0.302596
9212.000000;0.302374
9211.000000;0.302138
9210.000000;0.301871
9209.000000;0.301639
9208.000000;0.301463
9207.000000;0.301294
9206.000000;0.301122
9205.000000;0.300976
9204.000000;0.300820
9203.000000;0.300587
9202.000000;0.300311
9201.000000;0.300087
9200.000000;0.299880
9199.000000;0.299540
9198.000000;0.299042
9197.000000;0.298562
9196.000000;0.298240
9195.000000;0.298027
9194.000000;0.297810
9193.000000;0.297566
9192.000000;0.297316
9191.000000;0.297050
9190.000000;0.296774
9189.000000;0.296545
9188.000000;0.296391
9187.000000;0.296266
9186.000000;0.296132
9185.000000;0.295999
9184.000000;0.295844
9183.000000;0.295592
9182.000000;0.295237
9181.000000;0.294880
9180.000000;0.294588
9179.000000;0.294306
9178.000000;0.293966
9177.000000;0.293604
9176.000000;0.293281
9175.000000;0.292979
9174.000000;0.292649
9173.000000;0.292326
9172.000000;0.292119
9171.000000;0.292076
9170.000000;0.292118
9169.000000;0.292096
9168.000000;0.291912
9167.000000;0.291612
9166.000000;0.291337
9165.000000;0.291150
9164.000000;0.290935
9163.000000;0.290545
9162.000000;0.290006
9161.000000;0.289491
9160.000000;0.289113
9159.000000;0.288838
9158.000000;0.288613
9157.000000;0.288445
9156.000000;0.288350
9155.000000;0.288303
9154.000000;0.288269
9153.000000;0.288203
9152.000000;0.288025
9151.000000;0.287683
9150.000000;0.287266
9149.000000;0.286958
9148.000000;0.286845
9147.000000;0.286849
9146.000000;0.286856
9145.000000;0.286824
9144.000000;0.286730
9143.000000;0.286537
9142.000000;0.286240
9141.000000;0.285894
9140.000000;0.285545
9139.000000;0.285211
9138.000000;0.284921
9137.000000;0.284715
9136.000000;0.284575
9135.000000;0.284428
9134.000000;0.284241
9133.000000;0.284032
9132.000000;0.283780
9131.000000;0.283418
9130.000000;0.282947
9129.000000;0.282469
9128.000000;0.282067
9127.000000;0.281725
9126.000000;0.281404
9125.000000;0.281131
9124.000000;0.280962
9123.000000;0.280890
9122.000000;0.280834
9121.000000;0.280699
9120.000000;0.280464
9119.000000;0.280201
9118.000000;0.280009
9117.000000;0.279875
9116.000000;0.279665
9115.000000;0.279292
9114.000000;0.278863
9113.000000;0.278561
9112.000000;0.278438
9111.000000;0.278391
9110.000000;0.278319
9109.000000;0.278194
9108.000000;0.278016
9107.000000;0.277801
9106.000000;0.277596
9105.000000;0.277423
9104.000000;0.277214
9103.000000;0.276923
9102.000000;0.276644
9101.000000;0.276511
9100.000000;0.276476
9099.000000;0.276344
9098.000000;0.276044
9097.000000;0.275725
9096.000000;0.275549
9095.000000;0.275497
9094.000000;0.275428
9093.000000;0.275238
9092.000000;0.274904
9091.000000;0.274459
9090.000000;0.273986
9089.000000;0.273579
9088.000000;0.273261
9087.000000;0.272999
9086.000000;0.272800
9085.000000;0.272723
9084.000000;0.272769
9083.000000;0.272832
9082.000000;0.272795
9081.000000;0.272632
9080.000000;0.272399
9079.000000;0.272156
9078.000000;0.271918
9077.000000;0.271639
9076.000000;0.271265
9075.000000;0.270833
9074.000000;0.270492
9073.000000;0.270358
9072.000000;0.270382
9071.000000;0.270415
9070.000000;0.270364
9069.000000;0.270209
9068.000000;0.269933
9067.000000;0.269554
9066.000000;0.269195
9065.000000;0.268996
9064.000000;0.268936
9063.000000;0.268853
9062.000000;0.268641
9061.000000;0.268356
9060.000000;0.268099
9059.000000;0.267913
9058.000000;0.267793
9057.000000;0.267719
9056.000000;0.267637
9055.000000;0.267481
9054.000000;0.267236
9053.000000;0.266931
9052.000000;0.266584
9051.000000;0.266215
9050.000000;0.265892
9049.000000;0.265682
9048.000000;0.265552
9047.000000;0.265405
9046.000000;0.265191
9045.000000;0.264926
9044.000000;0.264623
9043.000000;0.264311
9042.000000;0.264084
9041.000000;0.264020
9040.000000;0.264055
9039.000000;0.264045
9038.000000;0.263946
9037.000000;0.263847
9036.000000;0.263802
9035.000000;0.263739
9034.000000;0.263555
9033.000000;0.263213
9032.000000;0.262755
9031.000000;0.262293
9030.000000;0.261982
9029.000000;0.261906
9028.000000;0.261962
9027.000000;0.261947
9026.000000;0.261760
9025.000000;0.261465
9024.000000;0.261163
9023.000000;0.260899
9022.000000;0.260679
9021.000000;0.260482
9020.000000;0.260269
9019.000000;0.260028
9018.000000;0.259821
9017.000000;0.259691
9016.000000;0.259568
9015.000000;0.259376
9014.000000;0.259169
9013.000000;0.259056
9012.000000;0.259000
9011.000000;0.258851
9010.000000;0.258582
9009.000000;0.258322
9008.000000;0.258153
9007.000000;0.258000
9006.000000;0.257773
9005.000000;0.257496
9004.000000;0.257245
9003.000000;0.257070
9002.000000;0.257005
9001.000000;0.257054
9000.000000;0.257113
8999.000000;0.257022
8998.000000;0.256750
8997.000000;0.256437
8996.000000;0.256198
8995.000000;0.255988
8994.000000;0.255716
8993.000000;0.255395
8992.000000;0.255107
8991.000000;0.254898
8990.000000;0.254761
8989.000000;0.254677
8988.000000;0.254612
8987.000000;0.254517
8986.000000;0.254375
8985.000000;0.254228
8984.000000;0.254123
8983.000000;0.254068
8982.000000;0.254037
8981.000000;0.253978
8980.000000;0.253823
8979.000000;0.253548
8978.000000;0.253218
8977.000000;0.252914
8976.000000;0.252641
8975.000000;0.252381
8974.000000;0.252193
8973.000000;0.252146
8972.000000;0.252158
8971.000000;0.252040
8970.000000;0.251746
8969.000000;0.251464
8968.000000;0.251381
8967.000000;0.251445
8966.000000;0.251444
8965.000000;0.251243
8964.000000;0.250882
8963.000000;0.250475
8962.000000;0.250102
8961.000000;0.249796
8960.000000;0.249589
8959.000000;0.249520
8958.000000;0.249586
8957.000000;0.249689
8956.000000;0.249673
8955.000000;0.249469
8954.000000;0.249161
8953.000000;0.248881
8952.000000;0.248669
8951.000000;0.248480
8950.000000;0.248295
8949.000000;0.248131
8948.000000;0.247969
8947.000000;0.247758
8946.000000;0.247501
8945.000000;0.247273
8944.000000;0.247133
8943.000000;0.247062
8942.000000;0.246988
8941.000000;0.246826
8940.000000;0.246550
8939.000000;0.246252
8938.000000;0.246080
8937.000000;0.246063
8936.000000;0.246049
8935.000000;0.245902
8934.000000;0.245686
8933.000000;0.245544
8932.000000;0.245451
8931.000000;0.245246
8930.000000;0.244905
8929.000000;0.244623
8928.000000;0.244579
8927.000000;0.244723
8926.000000;0.244851
8925.000000;0.244797
8924.000000;0.244536
8923.000000;0.244177
8922.000000;0.243883
8921.000000;0.243752
8920.000000;0.243741
8919.000000;0.243739
8918.000000;0.243693
8917.000000;0.243616
8916.000000;0.243500
8915.000000;0.243311
8914.000000;0.243063
8913.000000;0.242808
8912.000000;0.242584
8911.000000;0.242415
8910.000000;0.242348
8909.000000;0.242377
8908.000000;0.242380
8907.000000;0.242224
8906.000000;0.241926
8905.000000;0.241607
8904.000000;0.241315
8903.000000;0.241013
8902.000000;0.240732
8901.000000;0.240591
8900.000000;0.240622
8899.000000;0.240716
8898.000000;0.240764
8897.000000;0.240745
8896.000000;0.240663
8895.000000;0.240501
8894.000000;0.240300
8893.000000;0.240151
8892.000000;0.240074
8891.000000;0.239970
8890.000000;0.239779
8889.000000;0.239589
8888.000000;0.239538
8887.000000;0.239658
8886.000000;0.239855
8885.000000;0.239982
8884.000000;0.239902
8883.000000;0.239559
8882.000000;0.239051
8881.000000;0.238582
8880.000000;0.238296
8879.000000;0.238168
8878.000000;0.238084
8877.000000;0.237981
8876.000000;0.237875
8875.000000;0.237806
8874.000000;0.237785
8873.000000;0.237782
8872.000000;0.237749
8871.000000;0.237675
8870.000000;0.237603
8869.000000;0.237581
8868.000000;0.237587
8867.000000;0.237554
8866.000000;0.237440
8865.000000;0.237248
8864.000000;0.236991
8863.000000;0.236715
8862.000000;0.236513
8861.000000;0.236451
8860.000000;0.236485
8859.000000;0.236501
8858.000000;0.236433
8857.000000;0.236285
8856.000000;0.236094
8855.000000;0.235927
8854.000000;0.235884
8853.000000;0.235993
8852.000000;0.236129
8851.000000;0.236129
8850.000000;0.235983
8849.000000;0.235810
8848.000000;0.235666
8847.000000;0.235491
8846.000000;0.235281
8845.000000;0.235163
8844.000000;0.235236
8843.000000;0.235418
8842.000000;0.235518
8841.000000;0.235423
8840.000000;0.235172
8839.000000;0.234893
8838.000000;0.234706
8837.000000;0.234652
8836.000000;0.234688
8835.000000;0.234740
8834.000000;0.234762
8833.000000;0.234729
8832.000000;0.234609
8831.000000;0.234409
8830.000000;0.234224
8829.000000;0.234163
8828.000000;0.234244
8827.000000;0.234403
8826.000000;0.234597
8825.000000;0.234809
8824.000000;0.234975
8823.000000;0.235010
8822.000000;0.234919
8821.000000;0.234816
8820.000000;0.234803
8819.000000;0.234888
8818.000000;0.235018
8817.000000;0.235141
8816.000000;0.235240
8815.000000;0.235348
8814.000000;0.235542
8813.000000;0.235843
8812.000000;0.236123
8811.000000;0.236193
8810.000000;0.235989
8809.000000;0.235626
8808.000000;0.235269
8807.000000;0.235021
8806.000000;0.234938
8805.000000;0.235050
8804.000000;0.235314
8803.000000;0.235594
8802.000000;0.235733
8801.000000;0.235650
8800.000000;0.235389
8799.000000;0.235094
8798.000000;0.234928
8797.000000;0.234954
8796.000000;0.235108
8795.000000;0.235294
8794.000000;0.235480
8793.000000;0.235647
8792.000000;0.235725
8791.000000;0.235665
8790.000000;0.235540
8789.000000;0.235472
8788.000000;0.235481
8787.000000;0.235498
8786.000000;0.235514
8785.000000;0.235589
8784.000000;0.235725
8783.000000;0.235831
8782.000000;0.235845
8781.000000;0.235802
8780.000000;0.235748
8779.000000;0.235677
8778.000000;0.235607
8777.000000;0.235628
8776.000000;0.235815
8775.000000;0.236129
8774.000000;0.236442
8773.000000;0.236649
8772.000000;0.236745
8771.000000;0.236817
8770.000000;0.236961
8769.000000;0.237177
8768.000000;0.237361
8767.000000;0.237443
8766.000000;0.237475
8765.000000;0.237564
8764.000000;0.237727
8763.000000;0.237903
8762.000000;0.238054
8761.000000;0.238182
8760.000000;0.238275
8759.000000;0.238319
8758.000000;0.238356
8757.000000;0.238442
8756.000000;0.238542
8755.000000;0.238575
8754.000000;0.238552
8753.000000;0.238568
8752.000000;0.238665
8751.000000;0.238775
8750.000000;0.238838
8749.000000;0.238876
8748.000000;0.238930
8747.000000;0.239002
8746.000000;0.239098
8745.000000;0.239256
8744.000000;0.239486
8743.000000;0.239726
8742.000000;0.239918
8741.000000;0.240067
8740.000000;0.240210
8739.000000;0.240363
8738.000000;0.240519
8737.000000;0.240678
8736.000000;0.240833
8735.000000;0.240947
8734.000000;0.240987
8733.000000;0.240948
8732.000000;0.240866
8731.000000;0.240804
8730.000000;0.240818
8729.000000;0.240917
8728.000000;0.241057
8727.000000;0.241193
8726.000000;0.241328
8725.000000;0.241486
8724.000000;0.241676
8723.000000;0.241904
8722.000000;0.242179
8721.000000;0.242471
8720.000000;0.242708
8719.000000;0.242855
8718.000000;0.242959
8717.000000;0.243070
8716.000000;0.243160
8715.000000;0.243198
8714.000000;0.243228
8713.000000;0.243296
8712.000000;0.243341
8711.000000;0.243268
8710.000000;0.243117
8709.000000;0.243052
8708.000000;0.243174
8707.000000;0.243414
8706.000000;0.243633
8705.000000;0.243746
8704.000000;0.243746
8703.000000;0.243678
8702.000000;0.243624
8701.000000;0.243665
8700.000000;0.243824
8699.000000;0.244057
8698.000000;0.244288
8697.000000;0.244432
8696.000000;0.244438
8695.000000;0.244340
8694.000000;0.244242
8693.000000;0.244208
8692.000000;0.244195
8691.000000;0.244138
8690.000000;0.244046
8689.000000;0.243984
8688.000000;0.243990
8687.000000;0.244074
8686.000000;0.244234
8685.000000;0.244411
8684.000000;0.244508
8683.000000;0.244502
8682.000000;0.244494
8681.000000;0.244554
8680.000000;0.244607
8679.000000;0.244559
8678.000000;0.244467
8677.000000;0.244452
8676.000000;0.244512
8675.000000;0.244544
8674.000000;0.244531
8673.000000;0.244552
8672.000000;0.244619
8671.000000;0.244650
8670.000000;0.244618
8669.000000;0.244586
8668.000000;0.244592
8667.000000;0.244595
8666.000000;0.244566
8665.000000;0.244518
8664.000000;0.244425
8663.000000;0.244237
8662.000000;0.244002
8661.000000;0.243856
8660.000000;0.243856
8659.000000;0.243912
8658.000000;0.243929
8657.000000;0.243912
8656.000000;0.243881
8655.000000;0.243790
8654.000000;0.243603
8653.000000;0.243385
8652.000000;0.243235
8651.000000;0.243175
8650.000000;0.243157
8649.000000;0.243139
8648.000000;0.243106
8647.000000;0.243043
8646.000000;0.242953
8645.000000;0.242874
8644.000000;0.242830
8643.000000;0.242799
8642.000000;0.242742
8641.000000;0.242667
8640.000000;0.242611
8639.000000;0.242573
8638.000000;0.242503
8637.000000;0.242359
8636.000000;0.242178
8635.000000;0.242051
8634.000000;0.242008
8633.000000;0.241947
8632.000000;0.241739
8631.000000;0.241403
8630.000000;0.241108
8629.000000;0.240978
8628.000000;0.240938
8627.000000;0.240819
8626.000000;0.240569
8625.000000;0.240304
8624.000000;0.240161
8623.000000;0.240175
8622.000000;0.240266
8621.000000;0.240303
8620.000000;0.240202
8619.000000;0.240005
8618.000000;0.239834
8617.000000;0.239744
8616.000000;0.239657
8615.000000;0.239494
8614.000000;0.239297
8613.000000;0.239167
8612.000000;0.239119
8611.000000;0.239087
8610.000000;0.239039
8609.000000;0.238985
8608.000000;0.238904
8607.000000;0.238751
8606.000000;0.238532
8605.000000;0.238309
8604.000000;0.238122
8603.000000;0.237969
8602.000000;0.237839
8601.000000;0.237728
8600.000000;0.237611
8599.000000;0.237479
8598.000000;0.237361
8597.000000;0.237273
8596.000000;0.237152
8595.000000;0.236918
8594.000000;0.236587
8593.000000;0.236260
8592.000000;0.236019
8591.000000;0.235882
8590.000000;0.235835
8589.000000;0.235851
8588.000000;0.235875
8587.000000;0.235850
8586.000000;0.235751
8585.000000;0.235585
8584.000000;0.235372
8583.000000;0.235155
8582.000000;0.234978
8581.000000;0.234820
8580.000000;0.234612
8579.000000;0.234355
8578.000000;0.234158
8577.000000;0.234088
8576.000000;0.234056
8575.000000;0.233937
8574.000000;0.233730
8573.000000;0.233511
8572.000000;0.233283
8571.000000;0.232992
8570.000000;0.232660
8569.000000;0.232382
8568.000000;0.232193
8567.000000;0.232047
8566.000000;0.231921
8565.000000;0.231855
8564.000000;0.231865
8563.000000;0.231914
8562.000000;0.231949
8561.000000;0.231923
8560.000000;0.231777
8559.000000;0.231495
8558.000000;0.231166
8557.000000;0.230918
8556.000000;0.230786
8555.000000;0.230696
8554.000000;0.230562
8553.000000;0.230350
8552.000000;0.230082
8551.000000;0.229824
8550.000000;0.229666
8549.000000;0.229613
8548.000000;0.229545
8547.000000;0.229341
8546.000000;0.229049
8545.000000;0.228840
8544.000000;0.228808
8543.000000;0.228879
8542.000000;0.228908
8541.000000;0.228796
8540.000000;0.228529
8539.000000;0.228178
8538.000000;0.227856
8537.000000;0.227620
8536.000000;0.227421
8535.000000;0.227191
8534.000000;0.226945
8533.000000;0.226749
8532.000000;0.226627
8531.000000;0.226556
8530.000000;0.226522
8529.000000;0.226502
8528.000000;0.226444
8527.000000;0.226330
8526.000000;0.226211
8525.000000;0.226112
8524.000000;0.225971
8523.000000;0.225742
8522.000000;0.225509
8521.000000;0.225383
8520.000000;0.225328
8519.000000;0.225213
8518.000000;0.224998
8517.000000;0.224769
8516.000000;0.224589
8515.000000;0.224436
8514.000000;0.224280
8513.000000;0.224119
8512.000000;0.223934
8511.000000;0.223699
8510.000000;0.223444
8509.000000;0.223239
8508.000000;0.223103
8507.000000;0.223001
8506.000000;0.222905
8505.000000;0.222788
8504.000000;0.222597
8503.000000;0.222311
8502.000000;0.222010
8501.000000;0.221791
8500.000000;0.221648
8499.000000;0.221518
8498.000000;0.221417
8497.000000;0.221413
8496.000000;0.221467
8495.000000;0.221444
8494.000000;0.221286
8493.000000;0.221081
8492.000000;0.220921
8491.000000;0.220810
8490.000000;0.220710
8489.000000;0.220605
8488.000000;0.220471
8487.000000;0.220268
8486.000000;0.220008
8485.000000;0.219760
8484.000000;0.219562
8483.000000;0.219389
8482.000000;0.219206
8481.000000;0.219018
8480.000000;0.218842
8479.000000;0.218681
8478.000000;0.218550
8477.000000;0.218457
8476.000000;0.218369
8475.000000;0.218235
8474.000000;0.218046
8473.000000;0.217832
8472.000000;0.217609
8471.000000;0.217401
8470.000000;0.217261
8469.000000;0.217211
8468.000000;0.217167
8467.000000;0.217008
8466.000000;0.216726
8465.000000;0.216444
8464.000000;0.216283
8463.000000;0.216262
8462.000000;0.216307
8461.000000;0.216307
8460.000000;0.216173
8459.000000;0.215910
8458.000000;0.215621
8457.000000;0.215405
8456.000000;0.215246
8455.000000;0.215080
8454.000000;0.214912
8453.000000;0.214808
8452.000000;0.214772
8451.000000;0.214735
8450.000000;0.214650
8449.000000;0.214529
8448.000000;0.214392
8447.000000;0.214242
8446.000000;0.214092
8445.000000;0.213940
8444.000000;0.213756
8443.000000;0.213540
8442.000000;0.213371
8441.000000;0.213313
8440.000000;0.213291
8439.000000;0.213155
8438.000000;0.212873
8437.000000;0.212562
8436.000000;0.212346
8435.000000;0.212237
8434.000000;0.212178
8433.000000;0.212107
8432.000000;0.211997
8431.000000;0.211879
8430.000000;0.211820
8429.000000;0.211816
8428.000000;0.211747
8427.000000;0.211516
8426.000000;0.211216
8425.000000;0.211039
8424.000000;0.211028
8423.000000;0.211031
8422.000000;0.210907
8421.000000;0.210674
8420.000000;0.210422
8419.000000;0.210196
8418.000000;0.210004
8417.000000;0.209857
8416.000000;0.209746
8415.000000;0.209631
8414.000000;0.209500
8413.000000;0.209382
8412.000000;0.209295
8411.000000;0.209213
8410.000000;0.209105
8409.000000;0.208969
8408.000000;0.208813
8407.000000;0.208637
8406.000000;0.208447
8405.000000;0.208252
8404.000000;0.208057
8403.000000;0.207881
8402.000000;0.207761
8401.000000;0.207704
8400.000000;0.207642
8399.000000;0.207511
8398.000000;0.207340
8397.000000;0.207204
8396.000000;0.207101
8395.000000;0.206961
8394.000000;0.206763
8393.000000;0.206572
8392.000000;0.206449
8391.000000;0.206376
8390.000000;0.206297
8389.000000;0.206165
8388.000000;0.205961
8387.000000;0.205712
8386.000000;0.205491
8385.000000;0.205349
8384.000000;0.205246
8383.000000;0.205108
8382.000000;0.204935
8381.000000;0.204788
8380.000000;0.204673
8379.000000;0.204519
8378.000000;0.204276
8377.000000;0.203985
8376.000000;0.203736
8375.000000;0.203580
8374.000000;0.203502
8373.000000;0.203436
8372.000000;0.203322
8371.000000;0.203160
8370.000000;0.203009
8369.000000;0.202898
8368.000000;0.202776
8367.000000;0.202593
8366.000000;0.202381
8365.000000;0.202211
8364.000000;0.202093
8363.000000;0.201987
8362.000000;0.201870
8361.000000;0.201743
8360.000000;0.201596
8359.000000;0.201431
8358.000000;0.201289
8357.000000;0.201174
8356.000000;0.201001
8355.000000;0.200707
8354.000000;0.200371
8353.000000;0.200138
8352.000000;0.200044
8351.000000;0.199987
8350.000000;0.199862
8349.000000;0.199636
8348.000000;0.199326
8347.000000;0.198990
8346.000000;0.198733
8345.000000;0.198622
8344.000000;0.198585
8343.000000;0.198496
8342.000000;0.198348
8341.000000;0.198245
8340.000000;0.198225
8339.000000;0.198182
8338.000000;0.198016
8337.000000;0.197763
8336.000000;0.197532
8335.000000;0.197384
8334.000000;0.197292
8333.000000;0.197186
8332.000000;0.197015
8331.000000;0.196779
8330.000000;0.196529
8329.000000;0.196302
8328.000000;0.196083
8327.000000;0.195861
8326.000000;0.195675
8325.000000;0.195547
8324.000000;0.195424
8323.000000;0.195245
8322.000000;0.195052
8321.000000;0.194925
8320.000000;0.194843
8319.000000;0.194709
8318.000000;0.194501
8317.000000;0.194300
8316.000000;0.194151
8315.000000;0.194009
8314.000000;0.193829
8313.000000;0.193635
8312.000000;0.193445
8311.000000;0.193233
8310.000000;0.192976
8309.000000;0.192701
8308.000000;0.192437
8307.000000;0.192196
8306.000000;0.191992
8305.000000;0.191850
8304.000000;0.191746
8303.000000;0.191619
8302.000000;0.191450
8301.000000;0.191271
8300.000000;0.191098
8299.000000;0.190896
8298.000000;0.190647
8297.000000;0.190401
8296.000000;0.190211
8295.000000;0.190085
8294.000000;0.189990
8293.000000;0.189889
8292.000000;0.189740
8291.000000;0.189525
8290.000000;0.189280
8289.000000;0.189074
8288.000000;0.188926
8287.000000;0.188780
8286.000000;0.188584
8285.000000;0.188345
8284.000000;0.188107
8283.000000;0.187896
8282.000000;0.187705
8281.000000;0.187514
8280.000000;0.187313
8279.000000;0.187126
8278.000000;0.186980
8277.000000;0.186845
8276.000000;0.186653
8275.000000;0.186395
8274.000000;0.186161
8273.000000;0.186039
8272.000000;0.186002
8271.000000;0.185950
8270.000000;0.185837
8269.000000;0.185690
8268.000000;0.185532
8267.000000;0.185351
8266.000000;0.185137
8265.000000;0.184886
8264.000000;0.184594
8263.000000;0.184289
8262.000000;0.184048
8261.000000;0.183925
8260.000000;0.183876
8259.000000;0.183814
8258.000000;0.183714
8257.000000;0.183601
8256.000000;0.183460
8255.000000;0.183253
8254.000000;0.182993
8253.000000;0.182737
8252.000000;0.182504
8251.000000;0.182279
8250.000000;0.182083
8249.000000;0.181948
8248.000000;0.181826
8247.000000;0.181630
8246.000000;0.181360
8245.000000;0.181106
8244.000000;0.180903
8243.000000;0.180696
8242.000000;0.180464
8241.000000;0.180273
8240.000000;0.180165
8239.000000;0.180066
8238.000000;0.179894
8237.000000;0.179678
8236.000000;0.179513
8235.000000;0.179428
8234.000000;0.179357
8233.000000;0.179229
8232.000000;0.179031
8231.000000;0.178797
8230.000000;0.178565
8229.000000;0.178343
8228.000000;0.178115
8227.000000;0.177874
8226.000000;0.177646
8225.000000;0.177462
8224.000000;0.177310
8223.000000;0.177156
8222.000000;0.176986
8221.000000;0.176803
8220.000000;0.176592
8219.000000;0.176341
8218.000000;0.176080
8217.000000;0.175866
8216.000000;0.175713
8215.000000;0.175586
8214.000000;0.175448
8213.000000;0.175280
8212.000000;0.175062
8211.000000;0.174783
8210.000000;0.174486
8209.000000;0.174262
8208.000000;0.174167
8207.000000;0.174173
8206.000000;0.174197
8205.000000;0.174148
8204.000000;0.173962
8203.000000;0.173636
8202.000000;0.173247
8201.000000;0.172909
8200.000000;0.172686
8199.000000;0.172556
8198.000000;0.172458
8197.000000;0.172351
8196.000000;0.172228
8195.000000;0.172112
8194.000000;0.172012
8193.000000;0.171900
8192.000000;0.171728
8191.000000;0.171485
8190.000000;0.171208
8189.000000;0.170928
8188.000000;0.170642
8187.000000;0.170362
8186.000000;0.170137
8185.000000;0.169994
8184.000000;0.169892
8183.000000;0.169775
8182.000000;0.169644
8181.000000;0.169520
8180.000000;0.169377
8179.000000;0.169172
8178.000000;0.168935
8177.000000;0.168742
8176.000000;0.168609
8175.000000;0.168465
8174.000000;0.168251
8173.000000;0.167993
8172.000000;0.167759
8171.000000;0.167599
8170.000000;0.167500
8169.000000;0.167400
8168.000000;0.167237
8167.000000;0.167013
8166.000000;0.166798
8165.000000;0.166634
8164.000000;0.166484
8163.000000;0.166284
8162.000000;0.166035
8161.000000;0.165792
8160.000000;0.165587
8159.000000;0.165424
8158.000000;0.165312
8157.000000;0.165251
8156.000000;0.165197
8155.000000;0.165086
8154.000000;0.164907
8153.000000;0.164693
8152.000000;0.164465
8151.000000;0.164215
8150.000000;0.163945
8149.000000;0.163675
8148.000000;0.163416
8147.000000;0.163170
8146.000000;0.162964
8145.000000;0.162824
8144.000000;0.162733
8143.000000;0.162633
8142.000000;0.162478
8141.000000;0.162259
8140.000000;0.161996
8139.000000;0.161723
8138.000000;0.161482
8137.000000;0.161290
8136.000000;0.161131
8135.000000;0.160988
8134.000000;0.160854
8133.000000;0.160701
8132.000000;0.160474
8131.000000;0.160150
8130.000000;0.159790
8129.000000;0.159479
8128.000000;0.159254
8127.000000;0.159112
8126.000000;0.159035
8125.000000;0.158981
8124.000000;0.158880
8123.000000;0.158698
8122.000000;0.158483
8121.000000;0.158301
8120.000000;0.158160
8119.000000;0.158026
8118.000000;0.157869
8117.000000;0.157655
8116.000000;0.157341
8115.000000;0.156944
8114.000000;0.156571
8113.000000;0.156315
8112.000000;0.156156
8111.000000;0.156006
8110.000000;0.155819
8109.000000;0.155610
8108.000000;0.155405
8107.000000;0.155237
8106.000000;0.155156
8105.000000;0.155164
8104.000000;0.155148
8103.000000;0.154981
8102.000000;0.154675
8101.000000;0.154369
8100.000000;0.154178
8099.000000;0.154090
8098.000000;0.154029
8097.000000;0.153923
8096.000000;0.153729
8095.000000;0.153451
8094.000000;0.153149
8093.000000;0.152895
8092.000000;0.152703
8091.000000;0.152528
8090.000000;0.152329
8089.000000;0.152098
8088.000000;0.151861
8087.000000;0.151659
8086.000000;0.151519
8085.000000;0.151409
8084.000000;0.151257
8083.000000;0.151058
8082.000000;0.150899
8081.000000;0.150826
8080.000000;0.150750
8079.000000;0.150546
8078.000000;0.150221
8077.000000;0.149887
8076.000000;0.149611
8075.000000;0.149379
8074.000000;0.149172
8073.000000;0.148992
8072.000000;0.148811
8071.000000;0.148589
8070.000000;0.148352
8069.000000;0.148167
8068.000000;0.148038
8067.000000;0.147875
8066.000000;0.147613
8065.000000;0.147283
8064.000000;0.146965
8063.000000;0.146724
8062.000000;0.146591
8061.000000;0.146560
8060.000000;0.146564
8059.000000;0.146508
8058.000000;0.146337
8057.000000;0.146066
8056.000000;0.145750
8055.000000;0.145455
8054.000000;0.145246
8053.000000;0.145131
8052.000000;0.145030
8051.000000;0.144851
8050.000000;0.144592
8049.000000;0.144337
8048.000000;0.144146
8047.000000;0.143990
8046.000000;0.143817
8045.000000;0.143612
8044.000000;0.143405
8043.000000;0.143226
8042.000000;0.143076
8041.000000;0.142922
8040.000000;0.142715
8039.000000;0.142442
8038.000000;0.142141
8037.000000;0.141856
8036.000000;0.141597
8035.000000;0.141374
8034.000000;0.141217
8033.000000;0.141130
8032.000000;0.141043
8031.000000;0.140886
8030.000000;0.140670
8029.000000;0.140460
8028.000000;0.140270
8027.000000;0.140061
8026.000000;0.139814
8025.000000;0.139551
8024.000000;0.139290
8023.000000;0.139032
8022.000000;0.138801
8021.000000;0.138650
8020.000000;0.138591
8019.000000;0.138566
8018.000000;0.138482
8017.000000;0.138282
8016.000000;0.137981
8015.000000;0.137655
8014.000000;0.137378
8013.000000;0.137150
8012.000000;0.136919
8011.000000;0.136676
8010.000000;0.136480
8009.000000;0.136370
8008.000000;0.136287
8007.000000;0.136152
8006.000000;0.135966
8005.000000;0.135772
8004.000000;0.135566
8003.000000;0.135304
8002.000000;0.134978
8001.000000;0.134635
8000.000000;0.134326
7999.000000;0.134092
7998.000000;0.133965
7997.000000;0.133929
7996.000000;0.133887
7995.000000;0.133740
7994.000000;0.133479
7993.000000;0.133177
7992.000000;0.132903
7991.000000;0.132686
7990.000000;0.132540
7989.000000;0.132451
7988.000000;0.132353
7987.000000;0.132191
7986.000000;0.131982
7985.000000;0.131784
7984.000000;0.131604
7983.000000;0.131395
7982.000000;0.131135
7981.000000;0.130840
7980.000000;0.130530
7979.000000;0.130227
7978.000000;0.129997
7977.000000;0.129884
7976.000000;0.129829
7975.000000;0.129698
7974.000000;0.129428
7973.000000;0.129100
7972.000000;0.128843
7971.000000;0.128709
7970.000000;0.128635
7969.000000;0.128508
7968.000000;0.128266
7967.000000;0.127956
7966.000000;0.127680
7965.000000;0.127486
7964.000000;0.127329
7963.000000;0.127158
7962.000000;0.126992
7961.000000;0.126863
7960.000000;0.126738
7959.000000;0.126569
7958.000000;0.126369
7957.000000;0.126179
7956.000000;0.125976
7955.000000;0.125713
7954.000000;0.125416
7953.000000;0.125171
7952.000000;0.125023
7951.000000;0.124928
7950.000000;0.124829
7949.000000;0.124700
7948.000000;0.124532
7947.000000;0.124339
7946.000000;0.124152
7945.000000;0.123979
7944.000000;0.123760
7943.000000;0.123445
7942.000000;0.123092
7941.000000;0.122818
7940.000000;0.122654
7939.000000;0.122513
7938.000000;0.122309
7937.000000;0.122044
7936.000000;0.121767
7935.000000;0.121505
7934.000000;0.121276
7933.000000;0.121101
7932.000000;0.120983
7931.000000;0.120889
7930.000000;0.120790
7929.000000;0.120678
7928.000000;0.120550
7927.000000;0.120396
7926.000000;0.120205
7925.000000;0.119977
7924.000000;0.119719
7923.000000;0.119450
7922.000000;0.119208
7921.000000;0.119016
7920.000000;0.118852
7919.000000;0.118684
7918.000000;0.118516
7917.000000;0.118369
7916.000000;0.118226
7915.000000;0.118050
7914.000000;0.117833
7913.000000;0.117607
7912.000000;0.117396
7911.000000;0.117211
7910.000000;0.117064
7909.000000;0.116963
7908.000000;0.116868
7907.000000;0.116716
7906.000000;0.116478
7905.000000;0.116179
7904.000000;0.115868
7903.000000;0.115596
7902.000000;0.115402
7901.000000;0.115291
7900.000000;0.115214
7899.000000;0.115122
7898.000000;0.115022
7897.000000;0.114945
7896.000000;0.114862
7895.000000;0.114691
7894.000000;0.114386
7893.000000;0.114001
7892.000000;0.113651
7891.000000;0.113422
7890.000000;0.113314
7889.000000;0.113245
7888.000000;0.113117
7887.000000;0.112895
7886.000000;0.112623
7885.000000;0.112367
7884.000000;0.112151
7883.000000;0.111978
7882.000000;0.111864
7881.000000;0.111806
7880.000000;0.111740
7879.000000;0.111583
7878.000000;0.111314
7877.000000;0.110997
7876.000000;0.110728
7875.000000;0.110578
7874.000000;0.110535
7873.000000;0.110503
7872.000000;0.110369
7871.000000;0.110121
7870.000000;0.109854
7869.000000;0.109650
7868.000000;0.109478
7867.000000;0.109264
7866.000000;0.109010
7865.000000;0.108789
7864.000000;0.108640
7863.000000;0.108526
7862.000000;0.108399
7861.000000;0.108238
7860.000000;0.108045
7859.000000;0.107834
7858.000000;0.107640
7857.000000;0.107486
7856.000000;0.107355
7855.000000;0.107211
7854.000000;0.107037
7853.000000;0.106843
7852.000000;0.106640
7851.000000;0.106450
7850.000000;0.106304
7849.000000;0.106201
7848.000000;0.106098
7847.000000;0.105953
7846.000000;0.105768
7845.000000;0.105564
7844.000000;0.105341
7843.000000;0.105111
7842.000000;0.104918
7841.000000;0.104789
7840.000000;0.104682
7839.000000;0.104541
7838.000000;0.104365
7837.000000;0.104205
7836.000000;0.104087
7835.000000;0.104002
7834.000000;0.103931
7833.000000;0.103847
7832.000000;0.103697
7831.000000;0.103456
7830.000000;0.103175
7829.000000;0.102928
7828.000000;0.102730
7827.000000;0.102549
7826.000000;0.102383
7825.000000;0.102268
7824.000000;0.102206
7823.000000;0.102142
7822.000000;0.102015
7821.000000;0.101820
7820.000000;0.101596
7819.000000;0.101397
7818.000000;0.101250
7817.000000;0.101124
7816.000000;0.100962
7815.000000;0.100746
7814.000000;0.100525
7813.000000;0.100348
7812.000000;0.100205
7811.000000;0.100058
7810.000000;0.099896
7809.000000;0.099733
7808.000000;0.099572
7807.000000;0.099421
7806.000000;0.099311
7805.000000;0.099263
7804.000000;0.099243
7803.000000;0.099197
7802.000000;0.099107
7801.000000;0.098996
7800.000000;0.098870
7799.000000;0.098711
7798.000000;0.098497
7797.000000;0.098225
7796.000000;0.097923
7795.000000;0.097653
7794.000000;0.097489
7793.000000;0.097434
7792.000000;0.097411
7791.000000;0.097346
7790.000000;0.097232
7789.000000;0.097090
7788.000000;0.096923
7787.000000;0.096747
7786.000000;0.096605
7785.000000;0.096497
7784.000000;0.096359
7783.000000;0.096150
7782.000000;0.095936
7781.000000;0.095811
7780.000000;0.095767
7779.000000;0.095725
7778.000000;0.095646
7777.000000;0.095544
7776.000000;0.095418
7775.000000;0.095248
7774.000000;0.095051
7773.000000;0.094881
7772.000000;0.094757
7771.000000;0.094653
7770.000000;0.094552
7769.000000;0.094456
7768.000000;0.094355
7767.000000;0.094242
7766.000000;0.094140
7765.000000;0.094069
7764.000000;0.093988
7763.000000;0.093827
7762.000000;0.093591
7761.000000;0.093367
7760.000000;0.093220
7759.000000;0.093139
7758.000000;0.093070
7757.000000;0.092984
7756.000000;0.092879
7755.000000;0.092772
7754.000000;0.092678
7753.000000;0.092588
7752.000000;0.092467
7751.000000;0.092304
7750.000000;0.092142
7749.000000;0.092031
7748.000000;0.091964
7747.000000;0.091893
7746.000000;0.091802
7745.000000;0.091711
7744.000000;0.091628
7743.000000;0.091530
7742.000000;0.091401
7741.000000;0.091247
7740.000000;0.091078
7739.000000;0.090907
7738.000000;0.090764
7737.000000;0.090683
7736.000000;0.090656
7735.000000;0.090645
7734.000000;0.090608
7733.000000;0.090521
7732.000000;0.090381
7731.000000;0.090213
7730.000000;0.090062
7729.000000;0.089953
7728.000000;0.089863
7727.000000;0.089766
7726.000000;0.089666
7725.000000;0.089586
7724.000000;0.089528
7723.000000;0.089471
7722.000000;0.089400
7721.000000;0.089307
7720.000000;0.089190
7719.000000;0.089072
7718.000000;0.088988
7717.000000;0.088937
7716.000000;0.088874
7715.000000;0.088761
7714.000000;0.088607
7713.000000;0.088439
7712.000000;0.088286
7711.000000;0.088178
7710.000000;0.088132
7709.000000;0.088098
7708.000000;0.087993
7707.000000;0.087813
7706.000000;0.087656
7705.000000;0.087591
7704.000000;0.087578
7703.000000;0.087556
7702.000000;0.087536
7701.000000;0.087554
7700.000000;0.087568
7699.000000;0.087504
7698.000000;0.087371
7697.000000;0.087243
7696.000000;0.087156
7695.000000;0.087091
7694.000000;0.087033
7693.000000;0.086978
7692.000000;0.086892
7691.000000;0.086738
7690.000000;0.086551
7689.000000;0.086420
7688.000000;0.086386
7687.000000;0.086419
7686.000000;0.086483
7685.000000;0.086562
7684.000000;0.086627
7683.000000;0.086631
7682.000000;0.086554
7681.000000;0.086417
7680.000000;0.086249
7679.000000;0.086071
7678.000000;0.085924
7677.000000;0.085850
7676.000000;0.085858
7675.000000;0.085908
7674.000000;0.085951
7673.000000;0.085944
7672.000000;0.085873
7671.000000;0.085766
7670.000000;0.085694
7669.000000;0.085699
7668.000000;0.085741
7667.000000;0.085741
7666.000000;0.085665
7665.000000;0.085552
7664.000000;0.085468
7663.000000;0.085452
7662.000000;0.085494
7661.000000;0.085536
7660.000000;0.085528
7659.000000;0.085486
7658.000000;0.085479
7657.000000;0.085534
7656.000000;0.085595
7655.000000;0.085596
7654.000000;0.085538
7653.000000;0.085465
7652.000000;0.085406
7651.000000;0.085369
7650.000000;0.085360
7649.000000;0.085365
7648.000000;0.085340
7647.000000;0.085273
7646.000000;0.085218
7645.000000;0.085229
7644.000000;0.085280
7643.000000;0.085308
7642.000000;0.085295
7641.000000;0.085273
7640.000000;0.085272
7639.000000;0.085304
7638.000000;0.085372
7637.000000;0.085449
7636.000000;0.085475
7635.000000;0.085419
7634.000000;0.085321
7633.000000;0.085253
7632.000000;0.085243
7631.000000;0.085285
7630.000000;0.085373
7629.000000;0.085487
7628.000000;0.085577
7627.000000;0.085609
7626.000000;0.085600
7625.000000;0.085581
7624.000000;0.085550
7623.000000;0.085507
7622.000000;0.085503
7621.000000;0.085577
7620.000000;0.085691
7619.000000;0.085771
7618.000000;0.085795
7617.000000;0.085788
7616.000000;0.085767
7615.000000;0.085729
7614.000000;0.085695
7613.000000;0.085688
7612.000000;0.085707
7611.000000;0.085739
7610.000000;0.085803
7609.000000;0.085916
7608.000000;0.086053
7607.000000;0.086168
7606.000000;0.086245
7605.000000;0.086296
7604.000000;0.086327
7603.000000;0.086345
7602.000000;0.086375
7601.000000;0.086434
7600.000000;0.086501
7599.000000;0.086559
7598.000000;0.086633
7597.000000;0.086748
7596.000000;0.086879
7595.000000;0.086983
7594.000000;0.087065
7593.000000;0.087147
7592.000000;0.087212
7591.000000;0.087218
7590.000000;0.087171
7589.000000;0.087129
7588.000000;0.087143
7587.000000;0.087236
7586.000000;0.087397
7585.000000;0.087582
7584.000000;0.087730
7583.000000;0.087822
7582.000000;0.087902
7581.000000;0.088009
7580.000000;0.088115
7579.000000;0.088178
7578.000000;0.088216
7577.000000;0.088295
7576.000000;0.088443
7575.000000;0.088634
7574.000000;0.088830
7573.000000;0.089002
7572.000000;0.089134
7571.000000;0.089230
7570.000000;0.089316
7569.000000;0.089418
7568.000000;0.089543
7567.000000;0.089694
7566.000000;0.089854
7565.000000;0.089964
7564.000000;0.089965
7563.000000;0.089890
7562.000000;0.089861
7561.000000;0.089951
7560.000000;0.090111
7559.000000;0.090262
7558.000000;0.090395
7557.000000;0.090547
7556.000000;0.090720
7555.000000;0.090897
7554.000000;0.091084
7553.000000;0.091278
7552.000000;0.091437
7551.000000;0.091535
7550.000000;0.091615
7549.000000;0.091738
7548.000000;0.091917
7547.000000;0.092132
7546.000000;0.092371
7545.000000;0.092598
7544.000000;0.092752
7543.000000;0.092817
7542.000000;0.092876
7541.000000;0.093020
7540.000000;0.093245
7539.000000;0.093482
7538.000000;0.093690
7537.000000;0.093872
7536.000000;0.094029
7535.000000;0.094168
7534.000000;0.094316
7533.000000;0.094489
7532.000000;0.094675
7531.000000;0.094877
7530.000000;0.095129
7529.000000;0.095429
7528.000000;0.095700
7527.000000;0.095875
7526.000000;0.095973
7525.000000;0.096051
7524.000000;0.096129
7523.000000;0.096218
7522.000000;0.096356
7521.000000;0.096555
7520.000000;0.096764
7519.000000;0.096941
7518.000000;0.097122
7517.000000;0.097346
7516.000000;0.097576
7515.000000;0.097762
7514.000000;0.097933
7513.000000;0.098152
7512.000000;0.098415
7511.000000;0.098666
7510.000000;0.098887
7509.000000;0.099094
7508.000000;0.099284
7507.000000;0.099447
7506.000000;0.099611
7505.000000;0.099805
7504.000000;0.100019
7503.000000;0.100235
7502.000000;0.100477
7501.000000;0.100756
7500.000000;0.101023
7499.000000;0.101235
7498.000000;0.101432
7497.000000;0.101676
7496.000000;0.101956
7495.000000;0.102218
7494.000000;0.102453
7493.000000;0.102677
7492.000000;0.102885
7491.000000;0.103055
7490.000000;0.103376
7489.000000;0.103642
7488.000000;0.103964
7487.000000;0.104288
7486.000000;0.104559
7485.000000;0.104761
7484.000000;0.104895
7483.000000;0.105018
7482.000000;0.105222
7481.000000;0.105527
7480.000000;0.105828
7479.000000;0.106022
7478.000000;0.106139
7477.000000;0.106289
7476.000000;0.106521
7475.000000;0.106805
7474.000000;0.107098
7473.000000;0.107365
7472.000000;0.107577
7471.000000;0.107765
7470.000000;0.108031
7469.000000;0.108415
7468.000000;0.108808
7467.000000;0.109067
7466.000000;0.109190
7465.000000;0.109284
7464.000000;0.109423
7463.000000;0.109611
7462.000000;0.109839
7461.000000;0.110101
7460.000000;0.110363
7459.000000;0.110589
7458.000000;0.110800
7457.000000;0.111033
7456.000000;0.111281
7455.000000;0.111524
7454.000000;0.111774
7453.000000;0.112047
7452.000000;0.112312
7451.000000;0.112545
7450.000000;0.112763
7449.000000;0.112982
7448.000000;0.113166
7447.000000;0.113304
7446.000000;0.113469
7445.000000;0.113729
7444.000000;0.114046
7443.000000;0.114337
7442.000000;0.114589
7441.000000;0.114838
7440.000000;0.115098
7439.000000;0.115383
7438.000000;0.115740
7437.000000;0.116171
7436.000000;0.116567
7435.000000;0.116835
7434.000000;0.117028
7433.000000;0.117255
7432.000000;0.117515
7431.000000;0.117713
7430.000000;0.117822
7429.000000;0.117928
7428.000000;0.118127
7427.000000;0.118427
7426.000000;0.118762
7425.000000;0.119053
7424.000000;0.119286
7423.000000;0.119562
7422.000000;0.120018
7421.000000;0.120645
7420.000000;0.121237
7419.000000;0.121618
7418.000000;0.121881
7417.000000;0.122276
7416.000000;0.122878
7415.000000;0.123514
7414.000000;0.123972
7413.000000;0.124207
7412.000000;0.124319
7411.000000;0.124441
7410.000000;0.124648
7409.000000;0.124940
7408.000000;0.125293
7407.000000;0.125687
7406.000000;0.126042
7405.000000;0.126214
7404.000000;0.126177
7403.000000;0.126187
7402.000000;0.126573
7401.000000;0.127357
7400.000000;0.128183
7399.000000;0.128706
7398.000000;0.128921
7397.000000;0.129083
7396.000000;0.129451
7395.000000;0.130114
7394.000000;0.130856
7393.000000;0.131300
7392.000000;0.131374
7391.000000;0.131453
7390.000000;0.131888
7389.000000;0.132605
7388.000000;0.133346
7387.000000;0.134131
7386.000000;0.135138
7385.000000;0.136246
7384.000000;0.137134
7383.000000;0.137804
7382.000000;0.138540
7381.000000;0.139322
7380.000000;0.139821
7379.000000;0.140167
7378.000000;0.141171
7377.000000;0.143209
7376.000000;0.145288
7375.000000;0.145980
7374.000000;0.145216
7373.000000;0.144487
7372.000000;0.145127
7371.000000;0.146850
7370.000000;0.148155
7369.000000;0.147840
7368.000000;0.146064
7367.000000;0.144243
7366.000000;0.143864
7365.000000;0.145094
7364.000000;0.146651
7363.000000;0.147192
7362.000000;0.146540
7361.000000;0.145506
7360.000000;0.144982
7359.000000;0.145494
7358.000000;0.147261
7357.000000;0.149842
7356.000000;0.151774
7355.000000;0.151652
7354.000000;0.149947
7353.000000;0.148880
7352.000000;0.150030
7351.000000;0.152784
7350.000000;0.155232
7349.000000;0.155988
7348.000000;0.155160
7347.000000;0.154225
7346.000000;0.155042
7345.000000;0.158142
7344.000000;0.161998
7343.000000;0.164726
7342.000000;0.166467
7341.000000;0.168871
7340.000000;0.172271
7339.000000;0.174921
7338.000000;0.175552
7337.000000;0.175159
7336.000000;0.175205
7335.000000;0.175315
7334.000000;0.173943
7333.000000;0.170767
7332.000000;0.167204
7331.000000;0.164851
7330.000000;0.164367
7329.000000;0.165264
7328.000000;0.165984
7327.000000;0.165169
7326.000000;0.163737
7325.000000;0.164414
7324.000000;0.168159
7323.000000;0.172341
7322.000000;0.173815
7321.000000;0.172748
7320.000000;0.171896
7319.000000;0.172801
7318.000000;0.174158
7317.000000;0.173858
7316.000000;0.171378
7315.000000;0.167992
7314.000000;0.165455
7313.000000;0.164738
7312.000000;0.165406
7311.000000;0.166077
7310.000000;0.166208
7309.000000;0.167152
7308.000000;0.170218
7307.000000;0.174218
7306.000000;0.176555
7305.000000;0.176710
7304.000000;0.176994
7303.000000;0.179345
7302.000000;0.182814
7301.000000;0.184881
7300.000000;0.184254
7299.000000;0.181862
7298.000000;0.179827
7297.000000;0.180011
7296.000000;0.182809
7295.000000;0.186347
7294.000000;0.187674
7293.000000;0.185894
7292.000000;0.183687
7291.000000;0.184525
7290.000000;0.188607
7289.000000;0.192699
7288.000000;0.193759
7287.000000;0.191805
7286.000000;0.189254
7285.000000;0.188226
7284.000000;0.188824
7283.000000;0.189579
7282.000000;0.189168
7281.000000;0.187663
7280.000000;0.186219
7279.000000;0.185846
7278.000000;0.186595
7277.000000;0.187777
7276.000000;0.188890
7275.000000;0.189969
7274.000000;0.191180
7273.000000;0.192495
7272.000000;0.193802
7271.000000;0.195120
7270.000000;0.196617
7269.000000;0.198384
7268.000000;0.200179
7267.000000;0.201633
7266.000000;0.202784
7265.000000;0.204230
7264.000000;0.206482
7263.000000;0.209216
7262.000000;0.211448
7261.000000;0.212628
7260.000000;0.213318
7259.000000;0.214512
7258.000000;0.216524
7257.000000;0.218854
7256.000000;0.221033
7255.000000;0.223202
7254.000000;0.225660
7253.000000;0.228176
7252.000000;0.230219
7251.000000;0.231731
7250.000000;0.233278
7249.000000;0.235316
7248.000000;0.237726
7247.000000;0.240250
7246.000000;0.243221
7245.000000;0.247556
7244.000000;0.253454
7243.000000;0.259401
7242.000000;0.263514
7241.000000;0.265907
7240.000000;0.268706
7239.000000;0.273331
7238.000000;0.278590
7237.000000;0.282180
7236.000000;0.283758
7235.000000;0.285601
7234.000000;0.289924
7233.000000;0.296022
7232.000000;0.300834
7231.000000;0.302446
7230.000000;0.302380
7229.000000;0.303880
7228.000000;0.308326
7227.000000;0.313813
7226.000000;0.317336
7225.000000;0.318207
7224.000000;0.318581
7223.000000;0.320698
7222.000000;0.324511
7221.000000;0.328055
7220.000000;0.329568
7219.000000;0.329201
7218.000000;0.328944
7217.000000;0.330826
7216.000000;0.334995
7215.000000;0.339716
7214.000000;0.343264
7213.000000;0.345549
7212.000000;0.347785
7211.000000;0.350938
7210.000000;0.354828
7209.000000;0.358667
7208.000000;0.362149
7207.000000;0.365698
7206.000000;0.369748
7205.000000;0.374193
7204.000000;0.378595
7203.000000;0.382761
7202.000000;0.387048
7201.000000;0.391939
7200.000000;0.397290
7199.000000;0.402320
7198.000000;0.406532
7197.000000;0.410347
7196.000000;0.414493
7195.000000;0.418986
7194.000000;0.423110
7193.000000;0.426436
7192.000000;0.429441
7191.000000;0.432875
7190.000000;0.436888
7189.000000;0.441122
7188.000000;0.445440
7187.000000;0.450102
7186.000000;0.455328
7185.000000;0.461160
7184.000000;0.467718
7183.000000;0.475099
7182.000000;0.482818
7181.000000;0.489965
7180.000000;0.496387
7179.000000;0.503114
7178.000000;0.511016
7177.000000;0.519348
7176.000000;0.526280
7175.000000;0.530873
7174.000000;0.534109
7173.000000;0.537802
7172.000000;0.542830
7171.000000;0.548669
7170.000000;0.554310
7169.000000;0.559234
7168.000000;0.563824
7167.000000;0.568977
7166.000000;0.575269
7165.000000;0.582539
7164.000000;0.590401
7163.000000;0.598823
7162.000000;0.607570
7161.000000;0.615623
7160.000000;0.622184
7159.000000;0.628029
7158.000000;0.634775
7157.000000;0.642592
7156.000000;0.649577
7155.000000;0.653938
7154.000000;0.656243
7153.000000;0.658741
7152.000000;0.662782
7151.000000;0.667723
7150.000000;0.672311
7149.000000;0.676218
7148.000000;0.680195
7147.000000;0.685194
7146.000000;0.691448
7145.000000;0.698353
7144.000000;0.705284
7143.000000;0.712411
7142.000000;0.720462
7141.000000;0.729643
7140.000000;0.738881
7139.000000;0.746699
7138.000000;0.753038
7137.000000;0.759536
7136.000000;0.767445
7135.000000;0.775813
7134.000000;0.782494
7133.000000;0.786741
7132.000000;0.790029
7131.000000;0.794181
7130.000000;0.799452
7129.000000;0.804727
7128.000000;0.809075
7127.000000;0.812629
7126.000000;0.816125
7125.000000;0.820174
7124.000000;0.824977
7123.000000;0.830268
7122.000000;0.835626
7121.000000;0.841147
7120.000000;0.847598
7119.000000;0.855446
7118.000000;0.863874
7117.000000;0.871424
7116.000000;0.877772
7115.000000;0.884135
7114.000000;0.891503
7113.000000;0.899013
7112.000000;0.904798
7111.000000;0.908280
7110.000000;0.910925
7109.000000;0.914553
7108.000000;0.919534
7107.000000;0.924874
7106.000000;0.929559
7105.000000;0.933403
7104.000000;0.936956
7103.000000;0.940963
7102.000000;0.945691
7101.000000;0.950581
7100.000000;0.954930
7099.000000;0.958913
7098.000000;0.963459
7097.000000;0.969082
7096.000000;0.975094
7095.000000;0.980278
7094.000000;0.984316
7093.000000;0.988125
7092.000000;0.992685
7091.000000;0.997937
7090.000000;1.002928
7089.000000;1.006756
7088.000000;1.009357
7087.000000;1.011546
7086.000000;1.014275
7085.000000;1.017730
7084.000000;1.021237
7083.000000;1.024181
7082.000000;1.026751
7081.000000;1.029500
7080.000000;1.032457
7079.000000;1.035229
7078.000000;1.037882
7077.000000;1.041059
7076.000000;1.045025
7075.000000;1.049171
7074.000000;1.052861
7073.000000;1.056203
7072.000000;1.059524
7071.000000;1.062723
7070.000000;1.065683
7069.000000;1.068819
7068.000000;1.072601
7067.000000;1.076776
7066.000000;1.080558
7065.000000;1.083500
7064.000000;1.085768
7063.000000;1.087711
7062.000000;1.089555
7061.000000;1.091432
7060.000000;1.093345
7059.000000;1.095071
7058.000000;1.096378
7057.000000;1.097436
7056.000000;1.098733
7055.000000;1.100482
7054.000000;1.102393
7053.000000;1.104108
7052.000000;1.105619
7051.000000;1.107238
7050.000000;1.109297
7049.000000;1.111795
7048.000000;1.114336
7047.000000;1.116543
7046.000000;1.118491
7045.000000;1.120591
7044.000000;1.123010
7043.000000;1.125389
7042.000000;1.127213
7041.000000;1.128333
7040.000000;1.129070
7039.000000;1.129956
7038.000000;1.131436
7037.000000;1.133596
7036.000000;1.136039
7035.000000;1.138119
7034.000000;1.139457
7033.000000;1.140168
7032.000000;1.140609
7031.000000;1.141108
7030.000000;1.141931
7029.000000;1.143149
7028.000000;1.144458
7027.000000;1.145489
7026.000000;1.146346
7025.000000;1.147498
7024.000000;1.149038
7023.000000;1.150429
7022.000000;1.151174
7021.000000;1.151406
7020.000000;1.151605
7019.000000;1.152061
7018.000000;1.152860
7017.000000;1.154034
7016.000000;1.155487
7015.000000;1.156999
7014.000000;1.158517
7013.000000;1.160123
7012.000000;1.161584
7011.000000;1.162338
7010.000000;1.162181
7009.000000;1.161636
7008.000000;1.161326
7007.000000;1.161380
7006.000000;1.161696
7005.000000;1.162399
7004.000000;1.163527
7003.000000;1.164586
7002.000000;1.164982
7001.000000;1.164799
7000.000000;1.164708
6999.000000;1.165205
6998.000000;1.166258
6997.000000;1.167511
6996.000000;1.168461
6995.000000;1.168614
6994.000000;1.167930
6993.000000;1.167025
6992.000000;1.166581
6991.000000;1.166587
6990.000000;1.166545
6989.000000;1.166316
6988.000000;1.166320
6987.000000;1.166897
6986.000000;1.167856
6985.000000;1.168693
6984.000000;1.169020
6983.000000;1.168744
6982.000000;1.168087
6981.000000;1.167551
6980.000000;1.167579
6979.000000;1.168092
6978.000000;1.168526
6977.000000;1.168434
6976.000000;1.167955
6975.000000;1.167597
6974.000000;1.167696
6973.000000;1.168168
6972.000000;1.168664
6971.000000;1.168905
6970.000000;1.168847
6969.000000;1.168545
6968.000000;1.167976
6967.000000;1.167174
6966.000000;1.166470
6965.000000;1.166317
6964.000000;1.166760
6963.000000;1.167306
6962.000000;1.167390
6961.000000;1.166864
6960.000000;1.165969
6959.000000;1.165013
6958.000000;1.164206
6957.000000;1.163651
6956.000000;1.163260
6955.000000;1.162821
6954.000000;1.162323
6953.000000;1.162018
6952.000000;1.161982
6951.000000;1.161865
6950.000000;1.161294
6949.000000;1.160351
6948.000000;1.159392
6947.000000;1.158525
6946.000000;1.157575
6945.000000;1.156479
6944.000000;1.155431
6943.000000;1.154629
6942.000000;1.154085
6941.000000;1.153679
6940.000000;1.153272
6939.000000;1.152763
6938.000000;1.152158
6937.000000;1.151603
6936.000000;1.151256
6935.000000;1.151082
6934.000000;1.150833
6933.000000;1.150238
6932.000000;1.149214
6931.000000;1.147960
6930.000000;1.146878
6929.000000;1.146282
6928.000000;1.146109
6927.000000;1.145955
6926.000000;1.145454
6925.000000;1.144537
6924.000000;1.143383
6923.000000;1.142292
6922.000000;1.141583
6921.000000;1.141369
6920.000000;1.141364
6919.000000;1.141058
6918.000000;1.140142
6917.000000;1.138712
6916.000000;1.137091
6915.000000;1.135626
6914.000000;1.134639
6913.000000;1.134314
6912.000000;1.134453
6911.000000;1.134512
6910.000000;1.134029
6909.000000;1.132962
6908.000000;1.131579
6907.000000;1.130186
6906.000000;1.128985
6905.000000;1.127962
6904.000000;1.126863
6903.000000;1.125542
6902.000000;1.124349
6901.000000;1.123836
6900.000000;1.123966
6899.000000;1.124004
6898.000000;1.123403
6897.000000;1.122482
6896.000000;1.121887
6895.000000;1.121600
6894.000000;1.120945
6893.000000;1.119539
6892.000000;1.117799
6891.000000;1.116423
6890.000000;1.115687
6889.000000;1.115336
6888.000000;1.114940
6887.000000;1.114224
6886.000000;1.113180
6885.000000;1.111971
6884.000000;1.110703
6883.000000;1.109325
6882.000000;1.107835
6881.000000;1.106474
6880.000000;1.105543
6879.000000;1.104992
6878.000000;1.104377
6877.000000;1.103302
6876.000000;1.101851
6875.000000;1.100505
6874.000000;1.099657
6873.000000;1.099284
6872.000000;1.099011
6871.000000;1.098463
6870.000000;1.097577
6869.000000;1.096574
6868.000000;1.095678
6867.000000;1.094896
6866.000000;1.094022
6865.000000;1.092832
6864.000000;1.091288
6863.000000;1.089638
6862.000000;1.088261
6861.000000;1.087322
6860.000000;1.086586
6859.000000;1.085703
6858.000000;1.084625
6857.000000;1.083603
6856.000000;1.082784
6855.000000;1.081999
6854.000000;1.080986
6853.000000;1.079621
6852.000000;1.077911
6851.000000;1.075964
6850.000000;1.074041
6849.000000;1.072401
6848.000000;1.071003
6847.000000;1.069580
6846.000000;1.068093
6845.000000;1.066863
6844.000000;1.066046
6843.000000;1.065222
6842.000000;1.063781
6841.000000;1.061617
6840.000000;1.059184
6839.000000;1.056934
6838.000000;1.054978
6837.000000;1.053270
6836.000000;1.051808
6835.000000;1.050535
6834.000000;1.049216
6833.000000;1.047616
6832.000000;1.045733
6831.000000;1.043757
6830.000000;1.041795
6829.000000;1.039729
6828.000000;1.037376
6827.000000;1.034753
6826.000000;1.032100
6825.000000;1.029622
6824.000000;1.027311
6823.000000;1.025094
6822.000000;1.023051
6821.000000;1.021330
6820.000000;1.019849
6819.000000;1.018273
6818.000000;1.016341
6817.000000;1.014088
6816.000000;1.011700
6815.000000;1.009261
6814.000000;1.006770
6813.000000;1.004282
6812.000000;1.001911
6811.000000;0.999697
6810.000000;0.997562
6809.000000;0.995361
6808.000000;0.992940
6807.000000;0.990211
6806.000000;0.987218
6805.000000;0.984121
6804.000000;0.981127
6803.000000;0.978446
6802.000000;0.976232
6801.000000;0.974448
6800.000000;0.972767
6799.000000;0.970764
6798.000000;0.968285
6797.000000;0.965523
6796.000000;0.962697
6795.000000;0.959802
6794.000000;0.956795
6793.000000;0.953841
6792.000000;0.951194
6791.000000;0.948856
6790.000000;0.946515
6789.000000;0.943851
6788.000000;0.940784
6787.000000;0.937410
6786.000000;0.933835
6785.000000;0.930180
6784.000000;0.926689
6783.000000;0.923661
6782.000000;0.921195
6781.000000;0.919043
6780.000000;0.916766
6779.000000;0.914067
6778.000000;0.910977
6777.000000;0.907761
6776.000000;0.904691
6775.000000;0.901905
6774.000000;0.899389
6773.000000;0.896988
6772.000000;0.894471
6771.000000;0.891693
6770.000000;0.888712
6769.000000;0.885730
6768.000000;0.882881
6767.000000;0.880086
6766.000000;0.877153
6765.000000;0.874010
6764.000000;0.870844
6763.000000;0.867953
6762.000000;0.865423
6761.000000;0.863000
6760.000000;0.860337
6759.000000;0.857356
6758.000000;0.854287
6757.000000;0.851323
6756.000000;0.848363
6755.000000;0.845189
6754.000000;0.841817
6753.000000;0.838533
6752.000000;0.835591
6751.000000;0.832938
6750.000000;0.830267
6749.000000;0.827306
6748.000000;0.824061
6747.000000;0.820798
6746.000000;0.817783
6745.000000;0.815031
6744.000000;0.812313
6743.000000;0.809406
6742.000000;0.806287
6741.000000;0.803095
6740.000000;0.800005
6739.000000;0.797145
6738.000000;0.794538
6737.000000;0.792026
6736.000000;0.789365
6735.000000;0.786466
6734.000000;0.783469
6733.000000;0.780517
6732.000000;0.777588
6731.000000;0.774646
6730.000000;0.771802
6729.000000;0.769149
6728.000000;0.766561
6727.000000;0.763823
6726.000000;0.760943
6725.000000;0.758127
6724.000000;0.755461
6723.000000;0.752795
6722.000000;0.749964
6721.000000;0.746963
6720.000000;0.743895
6719.000000;0.740866
6718.000000;0.737960
6717.000000;0.735198
6716.000000;0.732489
6715.000000;0.729720
6714.000000;0.726899
6713.000000;0.724101
6712.000000;0.721329
6711.000000;0.718546
6710.000000;0.715826
6709.000000;0.713285
6708.000000;0.710859
6707.000000;0.708304
6706.000000;0.705544
6705.000000;0.702688
6704.000000;0.699821
6703.000000;0.696932
6702.000000;0.694004
6701.000000;0.691151
6700.000000;0.688547
6699.000000;0.686049
6698.000000;0.683506
6697.000000;0.680611
6696.000000;0.677756
6695.000000;0.675001
6694.000000;0.672185
6693.000000;0.669390
6692.000000;0.666652
6691.000000;0.664038
6690.000000;0.661514
6689.000000;0.659004
6688.000000;0.656408
6687.000000;0.653654
6686.000000;0.650776
6685.000000;0.647921
6684.000000;0.645236
6683.000000;0.642731
6682.000000;0.640285
6681.000000;0.637768
6680.000000;0.635122
6679.000000;0.632390
6678.000000;0.629688
6677.000000;0.627114
6676.000000;0.624635
6675.000000;0.622109
6674.000000;0.619443
6673.000000;0.616708
6672.000000;0.614037
6671.000000;0.611453
6670.000000;0.608858
6669.000000;0.606188
6668.000000;0.603502
6667.000000;0.600917
6666.000000;0.598482
6665.000000;0.596117
6664.000000;0.593679
6663.000000;0.591102
6662.000000;0.588472
6661.000000;0.585944
6660.000000;0.583579
6659.000000;0.581288
6658.000000;0.578962
6657.000000;0.576570
6656.000000;0.574133
6655.000000;0.571649
6654.000000;0.569118
6653.000000;0.566596
6652.000000;0.564153
6651.000000;0.561788
6650.000000;0.559425
6649.000000;0.556995
6648.000000;0.554482
6647.000000;0.551911
6646.000000;0.549335
6645.000000;0.546815
6644.000000;0.544390
6643.000000;0.542049
6642.000000;0.539766
6641.000000;0.537533
6640.000000;0.535334
6639.000000;0.533119
6638.000000;0.530840
6637.000000;0.528505
6636.000000;0.526159
6635.000000;0.523813
6634.000000;0.521448
6633.000000;0.519066
6632.000000;0.516694
6631.000000;0.514346
6630.000000;0.512004
6629.000000;0.509642
6628.000000;0.507246
6627.000000;0.504826
6626.000000;0.502435
6625.000000;0.500167
6624.000000;0.498054
6623.000000;0.495996
6622.000000;0.493835
6621.000000;0.491527
6620.000000;0.489178
6619.000000;0.486904
6618.000000;0.484709
6617.000000;0.482527
6616.000000;0.480335
6615.000000;0.478155
6614.000000;0.475995
6613.000000;0.473824
6612.000000;0.471633
6611.000000;0.469452
6610.000000;0.467307
6609.000000;0.465194
6608.000000;0.463097
6607.000000;0.461008
6606.000000;0.458910
6605.000000;0.456772
6604.000000;0.454586
6603.000000;0.452382
6602.000000;0.450198
6601.000000;0.448033
6600.000000;0.445858
6599.000000;0.443671
6598.000000;0.441503
6597.000000;0.439381
6596.000000;0.437298
6595.000000;0.435241
6594.000000;0.433215
6593.000000;0.431233
6592.000000;0.429285
6591.000000;0.427341
6590.000000;0.425373
6589.000000;0.423372
6588.000000;0.421352
6587.000000;0.419350
6586.000000;0.417401
6585.000000;0.415489
6584.000000;0.413528
6583.000000;0.411417
6582.000000;0.409149
6581.000000;0.406841
6580.000000;0.404639
6579.000000;0.402607
6578.000000;0.400703
6577.000000;0.398863
6576.000000;0.397065
6575.000000;0.395302
6574.000000;0.393528
6573.000000;0.391668
6572.000000;0.389695
6571.000000;0.387674
6570.000000;0.385702
6569.000000;0.383817
6568.000000;0.381967
6567.000000;0.380081
6566.000000;0.378147
6565.000000;0.376214
6564.000000;0.374330
6563.000000;0.372487
6562.000000;0.370641
6561.000000;0.368767
6560.000000;0.366882
6559.000000;0.365004
6558.000000;0.363116
6557.000000;0.361199
6556.000000;0.359294
6555.000000;0.357466
6554.000000;0.355721
6553.000000;0.353970
6552.000000;0.352136
6551.000000;0.350240
6550.000000;0.348374
6549.000000;0.346592
6548.000000;0.344880
6547.000000;0.343202
6546.000000;0.341516
6545.000000;0.339768
6544.000000;0.337917
6543.000000;0.336006
6542.000000;0.334133
6541.000000;0.332353
6540.000000;0.330630
6539.000000;0.328916
6538.000000;0.327211
6537.000000;0.325537
6536.000000;0.323891
6535.000000;0.322247
6534.000000;0.320599
6533.000000;0.318936
6532.000000;0.317237
6531.000000;0.315499
6530.000000;0.313767
6529.000000;0.312088
6528.000000;0.310460
6527.000000;0.308852
6526.000000;0.307245
6525.000000;0.305619
6524.000000;0.303941
6523.000000;0.302199
6522.000000;0.300454
6521.000000;0.298786
6520.000000;0.297216
6519.000000;0.295687
6518.000000;0.294139
6517.000000;0.292553
6516.000000;0.290940
6515.000000;0.289329
6514.000000;0.287750
6513.000000;0.286204
6512.000000;0.284655
6511.000000;0.283069
6510.000000;0.281466
6509.000000;0.279886
6508.000000;0.278325
6507.000000;0.276747
6506.000000;0.275153
6505.000000;0.273587
6504.000000;0.272052
6503.000000;0.270500
6502.000000;0.268902
6501.000000;0.267311
6500.000000;0.265802
6499.000000;0.264380
6498.000000;0.262968
6497.000000;0.261494
6496.000000;0.259950
6495.000000;0.258387
6494.000000;0.256867
6493.000000;0.255411
6492.000000;0.253985
6491.000000;0.252536
6490.000000;0.251047
6489.000000;0.249544
6488.000000;0.248062
6487.000000;0.246619
6486.000000;0.245222
6485.000000;0.243868
6484.000000;0.242533
6483.000000;0.241175
6482.000000;0.239770
6481.000000;0.238325
6480.000000;0.236864
6479.000000;0.235410
6478.000000;0.233974
6477.000000;0.232554
6476.000000;0.231132
6475.000000;0.229707
6474.000000;0.228310
6473.000000;0.226973
6472.000000;0.225675
6471.000000;0.224349
6470.000000;0.222962
6469.000000;0.221555
6468.000000;0.220181
6467.000000;0.218838
6466.000000;0.217485
6465.000000;0.216100
6464.000000;0.214704
6463.000000;0.213323
6462.000000;0.211968
6461.000000;0.210638
6460.000000;0.209338
6459.000000;0.208071
6458.000000;0.206832
6457.000000;0.205606
6456.000000;0.204369
6455.000000;0.203099
6454.000000;0.201789
6453.000000;0.200461
6452.000000;0.199136
6451.000000;0.197817
6450.000000;0.196490
6449.000000;0.195158
6448.000000;0.193850
6447.000000;0.192594
6446.000000;0.191390
6445.000000;0.190213
6444.000000;0.189036
6443.000000;0.187847
6442.000000;0.186648
6441.000000;0.185444
6440.000000;0.184232
6439.000000;0.183007
6438.000000;0.181774
6437.000000;0.180554
6436.000000;0.179360
6435.000000;0.178190
6434.000000;0.177014
6433.000000;0.175799
6432.000000;0.174538
6431.000000;0.173266
6430.000000;0.172035
6429.000000;0.170872
6428.000000;0.169745
6427.000000;0.168598
6426.000000;0.167400
6425.000000;0.166175
6424.000000;0.164974
6423.000000;0.163820
6422.000000;0.162697
6421.000000;0.161568
6420.000000;0.160412
6419.000000;0.159236
6418.000000;0.158060
6417.000000;0.156905
6416.000000;0.155775
6415.000000;0.154669
6414.000000;0.153580
6413.000000;0.152503
6412.000000;0.151432
6411.000000;0.150363
6410.000000;0.149282
6409.000000;0.148171
6408.000000;0.147025
6407.000000;0.145882
6406.000000;0.144807
6405.000000;0.143825
6404.000000;0.142880
6403.000000;0.141877
6402.000000;0.140771
6401.000000;0.139600
6400.000000;0.138433
6399.000000;0.137305
6398.000000;0.136208
6397.000000;0.135126
6396.000000;0.134064
6395.000000;0.133033
6394.000000;0.132039
6393.000000;0.131072
6392.000000;0.130112
6391.000000;0.129136
6390.000000;0.128145
6389.000000;0.127145
6388.000000;0.126136
6387.000000;0.125098
6386.000000;0.124021
6385.000000;0.122925
6384.000000;0.121845
6383.000000;0.120808
6382.000000;0.119810
6381.000000;0.118824
6380.000000;0.117821
6379.000000;0.116797
6378.000000;0.115778
6377.000000;0.114800
6376.000000;0.113870
6375.000000;0.112950
6374.000000;0.112001
6373.000000;0.111027
6372.000000;0.110061
6371.000000;0.109126
6370.000000;0.108211
6369.000000;0.107299
6368.000000;0.106374
6367.000000;0.105429
6366.000000;0.104456
6365.000000;0.103465
6364.000000;0.102489
6363.000000;0.101558
6362.000000;0.100674
6361.000000;0.099815
6360.000000;0.098960
6359.000000;0.098093
6358.000000;0.097203
6357.000000;0.096282
6356.000000;0.095335
6355.000000;0.094369
6354.000000;0.093393
6353.000000;0.092421
6352.000000;0.091479
6351.000000;0.090585
6350.000000;0.089726
6349.000000;0.088866
6348.000000;0.087984
6347.000000;0.087094
6346.000000;0.086228
6345.000000;0.085402
6344.000000;0.084593
6343.000000;0.083767
6342.000000;0.082909
6341.000000;0.082031
6340.000000;0.081154
6339.000000;0.080285
6338.000000;0.079414
6337.000000;0.078543
6336.000000;0.077691
6335.000000;0.076877
6334.000000;0.076097
6333.000000;0.075323
6332.000000;0.074530
6331.000000;0.073702
6330.000000;0.072842
6329.000000;0.071966
6328.000000;0.071106
6327.000000;0.070285
6326.000000;0.069495
6325.000000;0.068700
6324.000000;0.067874
6323.000000;0.067031
6322.000000;0.066208
6321.000000;0.065422
6320.000000;0.064662
6319.000000;0.063896
6318.000000;0.063105
6317.000000;0.062294
6316.000000;0.061493
6315.000000;0.060726
6314.000000;0.059985
6313.000000;0.059235
6312.000000;0.058455
6311.000000;0.057668
6310.000000;0.056913
6309.000000;0.056201
6308.000000;0.055498
6307.000000;0.054755
6306.000000;0.053966
6305.000000;0.053176
6304.000000;0.052434
6303.000000;0.051729
6302.000000;0.050999
6301.000000;0.050199
6300.000000;0.049359
6299.000000;0.048554
6298.000000;0.047813
6297.000000;0.047104
6296.000000;0.046394
6295.000000;0.045691
6294.000000;0.045007
6293.000000;0.044315
6292.000000;0.043575
6291.000000;0.042795
6290.000000;0.042025
6289.000000;0.041299
6288.000000;0.040610
6287.000000;0.039937
6286.000000;0.039273
6285.000000;0.038610
6284.000000;0.037928
6283.000000;0.037228
6282.000000;0.036540
6281.000000;0.035893
6280.000000;0.035279
6279.000000;0.034653
6278.000000;0.033972
6277.000000;0.033212
6276.000000;0.032392
6275.000000;0.031569
6274.000000;0.030801
6273.000000;0.030104
6272.000000;0.029444
6271.000000;0.028789
6270.000000;0.028153
6269.000000;0.027558
6268.000000;0.026975
6267.000000;0.026343
6266.000000;0.025635
6265.000000;0.024894
6264.000000;0.024184
6263.000000;0.023528
6262.000000;0.022904
6261.000000;0.022287
6260.000000;0.021665
6259.000000;0.021035
6258.000000;0.020394
6257.000000;0.019747
6256.000000;0.019104
6255.000000;0.018467
6254.000000;0.017829
6253.000000;0.017188
6252.000000;0.016555
6251.000000;0.015938
6250.000000;0.015325
6249.000000;0.014694
6248.000000;0.014050
6247.000000;0.013424
6246.000000;0.012842
6245.000000;0.012288
6244.000000;0.011725
6243.000000;0.011134
6242.000000;0.010531
6241.000000;0.009928
6240.000000;0.009311
6239.000000;0.008660
6238.000000;0.007986
6237.000000;0.007332
6236.000000;0.006733
6235.000000;0.006170
6234.000000;0.005589
6233.000000;0.004943
6232.000000;0.004248
6231.000000;0.003564
6230.000000;0.002945
6229.000000;0.002391
6228.000000;0.001861
6227.000000;0.001314
6226.000000;0.000743
6225.000000;0.000158
6224.000000;-0.000432
6223.000000;-0.001026
6222.000000;-0.001623
6221.000000;-0.002216
6220.000000;-0.002794
6219.000000;-0.003343
6218.000000;-0.003856
6217.000000;-0.004343
6216.000000;-0.004828
6215.000000;-0.005338
6214.000000;-0.005884
6213.000000;-0.006470
6212.000000;-0.007096
6211.000000;-0.007732
6210.000000;-0.008326
6209.000000;-0.008833
6208.000000;-0.009273
6207.000000;-0.009712
6206.000000;-0.010197
6205.000000;-0.010717
6204.000000;-0.011233
6203.000000;-0.011737
6202.000000;-0.012263
6201.000000;-0.012842
6200.000000;-0.013458
6199.000000;-0.014064
6198.000000;-0.014628
6197.000000;-0.015156
6196.000000;-0.015678
6195.000000;-0.016213
6194.000000;-0.016756
6193.000000;-0.017295
6192.000000;-0.017833
6191.000000;-0.018380
6190.000000;-0.018926
6189.000000;-0.019442
6188.000000;-0.019904
6187.000000;-0.020322
6186.000000;-0.020737
6185.000000;-0.021200
6184.000000;-0.021737
6183.000000;-0.022327
6182.000000;-0.022912
6181.000000;-0.023438
6180.000000;-0.023896
6179.000000;-0.024326
6178.000000;-0.024777
6177.000000;-0.025269
6176.000000;-0.025786
6175.000000;-0.026312
6174.000000;-0.026841
6173.000000;-0.027368
6172.000000;-0.027879
6171.000000;-0.028365
6170.000000;-0.028826
6169.000000;-0.029274
6168.000000;-0.029727
6167.000000;-0.030198
6166.000000;-0.030693
6165.000000;-0.031199
6164.000000;-0.031696
6163.000000;-0.032173
6162.000000;-0.032640
6161.000000;-0.033112
6160.000000;-0.033579
6159.000000;-0.034019
6158.000000;-0.034421
6157.000000;-0.034812
6156.000000;-0.035233
6155.000000;-0.035705
6154.000000;-0.036214
6153.000000;-0.036731
6152.000000;-0.037234
6151.000000;-0.037717
6150.000000;-0.038186
6149.000000;-0.038653
6148.000000;-0.039126
6147.000000;-0.039606
6146.000000;-0.040083
6145.000000;-0.040545
6144.000000;-0.040996
6143.000000;-0.041446
6142.000000;-0.041899
6141.000000;-0.042341
6140.000000;-0.042759
6139.000000;-0.043158
6138.000000;-0.043564
6137.000000;-0.043989
6136.000000;-0.044420
6135.000000;-0.044839
6134.000000;-0.045248
6133.000000;-0.045665
6132.000000;-0.046105
6131.000000;-0.046571
6130.000000;-0.047055
6129.000000;-0.047540
6128.000000;-0.048001
6127.000000;-0.048422
6126.000000;-0.048809
6125.000000;-0.049184
6124.000000;-0.049566
6123.000000;-0.049964
6122.000000;-0.050388
6121.000000;-0.050837
6120.000000;-0.051300
6119.000000;-0.051761
6118.000000;-0.052216
6117.000000;-0.052666
6116.000000;-0.053109
6115.000000;-0.053535
6114.000000;-0.053938
6113.000000;-0.054323
6112.000000;-0.054697
6111.000000;-0.055070
6110.000000;-0.055450
6109.000000;-0.055843
6108.000000;-0.056239
6107.000000;-0.056621
6106.000000;-0.056979
6105.000000;-0.057323
6104.000000;-0.057665
6103.000000;-0.058008
6102.000000;-0.058354
6101.000000;-0.058715
6100.000000;-0.059103
6099.000000;-0.059516
6098.000000;-0.059933
6097.000000;-0.060332
6096.000000;-0.060705
6095.000000;-0.061063
6094.000000;-0.061425
6093.000000;-0.061802
6092.000000;-0.062193
6091.000000;-0.062592
6090.000000;-0.062991
6089.000000;-0.063381
6088.000000;-0.063751
6087.000000;-0.064113
6086.000000;-0.064498
6085.000000;-0.064918
6084.000000;-0.065341
6083.000000;-0.065721
6082.000000;-0.066048
6081.000000;-0.066355
6080.000000;-0.066666
6079.000000;-0.066979
6078.000000;-0.067295
6077.000000;-0.067639
6076.000000;-0.068029
6075.000000;-0.068435
6074.000000;-0.068804
6073.000000;-0.069113
6072.000000;-0.069391
6071.000000;-0.069691
6070.000000;-0.070045
6069.000000;-0.070452
6068.000000;-0.070875
6067.000000;-0.071278
6066.000000;-0.071645
6065.000000;-0.071989
6064.000000;-0.072327
6063.000000;-0.072652
6062.000000;-0.072953
6061.000000;-0.073240
6060.000000;-0.073533
6059.000000;-0.073843
6058.000000;-0.074159
6057.000000;-0.074472
6056.000000;-0.074781
6055.000000;-0.075092
6054.000000;-0.075404
6053.000000;-0.075717
6052.000000;-0.076035
6051.000000;-0.076356
6050.000000;-0.076670
6049.000000;-0.076977
6048.000000;-0.077283
6047.000000;-0.077593
6046.000000;-0.077899
6045.000000;-0.078189
6044.000000;-0.078461
6043.000000;-0.078728
6042.000000;-0.079011
6041.000000;-0.079323
6040.000000;-0.079663
6039.000000;-0.080013
6038.000000;-0.080351
6037.000000;-0.080669
6036.000000;-0.080975
6035.000000;-0.081278
6034.000000;-0.081573
6033.000000;-0.081847
6032.000000;-0.082094
6031.000000;-0.082331
6030.000000;-0.082588
6029.000000;-0.082888
6028.000000;-0.083231
6027.000000;-0.083589
6026.000000;-0.083932
6025.000000;-0.084233
6024.000000;-0.084483
6023.000000;-0.084692
6022.000000;-0.084888
6021.000000;-0.085110
6020.000000;-0.085377
6019.000000;-0.085672
6018.000000;-0.085952
6017.000000;-0.086187
6016.000000;-0.086382
6015.000000;-0.086573
6014.000000;-0.086792
6013.000000;-0.087044
6012.000000;-0.087317
6011.000000;-0.087600
6010.000000;-0.087883
6009.000000;-0.088156
6008.000000;-0.088407
6007.000000;-0.088643
6006.000000;-0.088890
6005.000000;-0.089170
6004.000000;-0.089473
6003.000000;-0.089768
6002.000000;-0.090032
6001.000000;-0.090261
6000.000000;-0.090459
5999.000000;-0.090629
5998.000000;-0.090788
5997.000000;-0.090970
5996.000000;-0.091202
5995.000000;-0.091481
5994.000000;-0.091770
5993.000000;-0.092035
5992.000000;-0.092264
5991.000000;-0.092471
5990.000000;-0.092670
5989.000000;-0.092868
5988.000000;-0.093065
5987.000000;-0.093257
5986.000000;-0.093443
5985.000000;-0.093620
5984.000000;-0.093793
5983.000000;-0.093969
5982.000000;-0.094155
5981.000000;-0.094352
5980.000000;-0.094561
5979.000000;-0.094777
5978.000000;-0.094998
5977.000000;-0.095212
5976.000000;-0.095407
5975.000000;-0.095579
5974.000000;-0.095742
5973.000000;-0.095923
5972.000000;-0.096135
5971.000000;-0.096370
5970.000000;-0.096598
5969.000000;-0.096802
5968.000000;-0.096986
5967.000000;-0.097162
5966.000000;-0.097329
5965.000000;-0.097476
5964.000000;-0.097610
5963.000000;-0.097757
5962.000000;-0.097935
5961.000000;-0.098122
5960.000000;-0.098286
5959.000000;-0.098425
5958.000000;-0.098567
5957.000000;-0.098733
5956.000000;-0.098905
5955.000000;-0.099059
5954.000000;-0.099192
5953.000000;-0.099310
5952.000000;-0.099417
5951.000000;-0.099524
5950.000000;-0.099654
5949.000000;-0.099825
5948.000000;-0.100022
5947.000000;-0.100217
5946.000000;-0.100387
5945.000000;-0.100530
5944.000000;-0.100651
5943.000000;-0.100757
5942.000000;-0.100854
5941.000000;-0.100943
5940.000000;-0.101024
5939.000000;-0.101110
5938.000000;-0.101230
5937.000000;-0.101396
5936.000000;-0.101574
5935.000000;-0.101715
5934.000000;-0.101810
5933.000000;-0.101891
5932.000000;-0.101993
5931.000000;-0.102120
5930.000000;-0.102264
5929.000000;-0.102414
5928.000000;-0.102556
5927.000000;-0.102671
5926.000000;-0.102752
5925.000000;-0.102814
5924.000000;-0.102878
5923.000000;-0.102956
5922.000000;-0.103048
5921.000000;-0.103148
5920.000000;-0.103249
5919.000000;-0.103340
5918.000000;-0.103412
5917.000000;-0.103469
5916.000000;-0.103524
5915.000000;-0.103600
5914.000000;-0.103712
5913.000000;-0.103854
5912.000000;-0.104002
5911.000000;-0.104127
5910.000000;-0.104215
5909.000000;-0.104272
5908.000000;-0.104310
5907.000000;-0.104349
5906.000000;-0.104413
5905.000000;-0.104512
5904.000000;-0.104633
5903.000000;-0.104757
5902.000000;-0.104869
5901.000000;-0.104964
5900.000000;-0.105032
5899.000000;-0.105070
5898.000000;-0.105090
5897.000000;-0.105119
5896.000000;-0.105168
5895.000000;-0.105231
5894.000000;-0.105296
5893.000000;-0.105364
5892.000000;-0.105439
5891.000000;-0.105518
5890.000000;-0.105590
5889.000000;-0.105642
5888.000000;-0.105669
5887.000000;-0.105679
5886.000000;-0.105691
5885.000000;-0.105713
5884.000000;-0.105740
5883.000000;-0.105760
5882.000000;-0.105777
5881.000000;-0.105800
5880.000000;-0.105828
5879.000000;-0.105855
5878.000000;-0.105876
5877.000000;-0.105892
5876.000000;-0.105907
5875.000000;-0.105931
5874.000000;-0.105973
5873.000000;-0.106020
5872.000000;-0.106035
5871.000000;-0.105995
5870.000000;-0.105918
5869.000000;-0.105844
5868.000000;-0.105798
5867.000000;-0.105773
5866.000000;-0.105749
5865.000000;-0.105724
5864.000000;-0.105705
5863.000000;-0.105706
5862.000000;-0.105730
5861.000000;-0.105758
5860.000000;-0.105755
5859.000000;-0.105708
5858.000000;-0.105639
5857.000000;-0.105576
5856.000000;-0.105523
5855.000000;-0.105458
5854.000000;-0.105372
5853.000000;-0.105272
5852.000000;-0.105167
5851.000000;-0.105064
5850.000000;-0.104968
5849.000000;-0.104880
5848.000000;-0.104792
5847.000000;-0.104696
5846.000000;-0.104598
5845.000000;-0.104510
5844.000000;-0.104442
5843.000000;-0.104398
5842.000000;-0.104380
5841.000000;-0.104373
5840.000000;-0.104333
5839.000000;-0.104236
5838.000000;-0.104107
5837.000000;-0.103993
5836.000000;-0.103907
5835.000000;-0.103817
5834.000000;-0.103697
5833.000000;-0.103547
5832.000000;-0.103372
5831.000000;-0.103174
5830.000000;-0.102972
5829.000000;-0.102802
5828.000000;-0.102687
5827.000000;-0.102607
5826.000000;-0.102520
5825.000000;-0.102395
5824.000000;-0.102229
5823.000000;-0.102044
5822.000000;-0.101876
5821.000000;-0.101737
5820.000000;-0.101612
5819.000000;-0.101475
5818.000000;-0.101319
5817.000000;-0.101147
5816.000000;-0.100954
5815.000000;-0.100737
5814.000000;-0.100511
5813.000000;-0.100305
5812.000000;-0.100126
5811.000000;-0.099963
5810.000000;-0.099801
5809.000000;-0.099628
5808.000000;-0.099424
5807.000000;-0.099189
5806.000000;-0.098951
5805.000000;-0.098742
5804.000000;-0.098549
5803.000000;-0.098335
5802.000000;-0.098101
5801.000000;-0.097884
5800.000000;-0.097707
5799.000000;-0.097547
5798.000000;-0.097363
5797.000000;-0.097133
5796.000000;-0.096849
5795.000000;-0.096531
5794.000000;-0.096227
5793.000000;-0.095980
5792.000000;-0.095772
5791.000000;-0.095536
5790.000000;-0.095243
5789.000000;-0.094934
5788.000000;-0.094659
5787.000000;-0.094405
5786.000000;-0.094128
5785.000000;-0.093806
5784.000000;-0.093463
5783.000000;-0.093124
5782.000000;-0.092804
5781.000000;-0.092496
5780.000000;-0.092186
5779.000000;-0.091856
5778.000000;-0.091502
5777.000000;-0.091143
5776.000000;-0.090797
5775.000000;-0.090465
5774.000000;-0.090140
5773.000000;-0.089824
5772.000000;-0.089517
5771.000000;-0.089208
5770.000000;-0.088881
5769.000000;-0.088525
5768.000000;-0.088147
5767.000000;-0.087770
5766.000000;-0.087420
5765.000000;-0.087103
5764.000000;-0.086789
5763.000000;-0.086441
5762.000000;-0.086059
5761.000000;-0.085673
5760.000000;-0.085293
5759.000000;-0.084900
5758.000000;-0.084478
5757.000000;-0.084049
5756.000000;-0.083647
5755.000000;-0.083275
5754.000000;-0.082910
5753.000000;-0.082521
5752.000000;-0.082090
5751.000000;-0.081624
5750.000000;-0.081145
5749.000000;-0.080679
5748.000000;-0.080228
5747.000000;-0.079779
5746.000000;-0.079327
5745.000000;-0.078881
5744.000000;-0.078444
5743.000000;-0.078006
5742.000000;-0.077549
5741.000000;-0.077065
5740.000000;-0.076560
5739.000000;-0.076050
5738.000000;-0.075559
5737.000000;-0.075098
5736.000000;-0.074648
5735.000000;-0.074175
5734.000000;-0.073668
5733.000000;-0.073139
5732.000000;-0.072600
5731.000000;-0.072054
5730.000000;-0.071501
5729.000000;-0.070944
5728.000000;-0.070386
5727.000000;-0.069834
5726.000000;-0.069304
5725.000000;-0.068796
5724.000000;-0.068284
5723.000000;-0.067733
5722.000000;-0.067134
5721.000000;-0.066506
5720.000000;-0.065875
5719.000000;-0.065266
5718.000000;-0.064706
5717.000000;-0.064192
5716.000000;-0.063675
5715.000000;-0.063102
5714.000000;-0.062464
5713.000000;-0.061799
5712.000000;-0.061135
5711.000000;-0.060477
5710.000000;-0.059833
5709.000000;-0.059223
5708.000000;-0.058650
5707.000000;-0.058102
5706.000000;-0.057563
5705.000000;-0.057019
5704.000000;-0.056447
5703.000000;-0.055831
5702.000000;-0.055190
5701.000000;-0.054562
5700.000000;-0.053942
5699.000000;-0.053291
5698.000000;-0.052603
5697.000000;-0.051909
5696.000000;-0.051247
5695.000000;-0.050585
5694.000000;-0.049924
5693.000000;-0.049170
5692.000000;-0.048434
5691.000000;-0.047758
5690.000000;-0.047088
5689.000000;-0.046470
5688.000000;-0.045881
5687.000000;-0.045291
5686.000000;-0.044666
5685.000000;-0.044010
5684.000000;-0.043338
5683.000000;-0.042657
5682.000000;-0.041977
5681.000000;-0.041315
5680.000000;-0.040665
5679.000000;-0.040002
5678.000000;-0.039315
5677.000000;-0.038626
5676.000000;-0.037960
5675.000000;-0.037314
5674.000000;-0.036668
5673.000000;-0.036007
5672.000000;-0.035333
5671.000000;-0.034656
5670.000000;-0.033990
5669.000000;-0.033337
5668.000000;-0.032678
5667.000000;-0.031994
5666.000000;-0.031294
5665.000000;-0.030610
5664.000000;-0.029966
5663.000000;-0.029354
5662.000000;-0.028750
5661.000000;-0.028135
5660.000000;-0.027497
5659.000000;-0.026847
5658.000000;-0.026211
5657.000000;-0.025611
5656.000000;-0.025034
5655.000000;-0.024463
5654.000000;-0.023892
5653.000000;-0.023322
5652.000000;-0.022742
5651.000000;-0.022150
5650.000000;-0.021569
5649.000000;-0.021012
5648.000000;-0.020449
5647.000000;-0.019837
5646.000000;-0.019181
5645.000000;-0.018533
5644.000000;-0.017936
5643.000000;-0.017388
5642.000000;-0.016861
5641.000000;-0.016333
5640.000000;-0.015789
5639.000000;-0.015238
5638.000000;-0.014703
5637.000000;-0.014200
5636.000000;-0.013707
5635.000000;-0.013202
5634.000000;-0.012698
5633.000000;-0.012219
5632.000000;-0.011764
5631.000000;-0.011317
5630.000000;-0.010889
5629.000000;-0.010489
5628.000000;-0.010086
5627.000000;-0.009635
5626.000000;-0.009138
5625.000000;-0.008639
5624.000000;-0.008157
5623.000000;-0.007689
5622.000000;-0.007248
5621.000000;-0.006860
5620.000000;-0.006513
5619.000000;-0.006168
5618.000000;-0.005815
5617.000000;-0.005462
5616.000000;-0.005092
5615.000000;-0.004677
5614.000000;-0.004240
5613.000000;-0.003845
5612.000000;-0.003512
5611.000000;-0.003207
5610.000000;-0.002906
5609.000000;-0.002620
5608.000000;-0.002342
5607.000000;-0.002036
5606.000000;-0.001694
5605.000000;-0.001355
5604.000000;-0.001053
5603.000000;-0.000776
5602.000000;-0.000495
5601.000000;-0.000206
5600.000000;0.000074
5599.000000;0.000331
5598.000000;0.000567
5597.000000;0.000799
5596.000000;0.001035
5595.000000;0.001253
5594.000000;0.001401
5593.000000;0.001465
5592.000000;0.001492
5591.000000;0.001532
5590.000000;0.001573
5589.000000;0.001596
5588.000000;0.001631
5587.000000;0.001722
5586.000000;0.001847
5585.000000;0.001950
5584.000000;0.002022
5583.000000;0.002100
5582.000000;0.002188
5581.000000;0.002264
5580.000000;0.002341
5579.000000;0.002460
5578.000000;0.002613
5577.000000;0.002744
5576.000000;0.002830
5575.000000;0.002893
5574.000000;0.002950
5573.000000;0.002995
5572.000000;0.003042
5571.000000;0.003108
5570.000000;0.003166
5569.000000;0.003171
5568.000000;0.003142
5567.000000;0.003140
5566.000000;0.003169
5565.000000;0.003171
5564.000000;0.003133
5563.000000;0.003101
5562.000000;0.003073
5561.000000;0.002990
5560.000000;0.002854
5559.000000;0.002760
5558.000000;0.002770
5557.000000;0.002827
5556.000000;0.002873
5555.000000;0.002960
5554.000000;0.003157
5553.000000;0.003433
5552.000000;0.003716
5551.000000;0.004026
5550.000000;0.004422
5549.000000;0.004840
5548.000000;0.005110
5547.000000;0.005140
5546.000000;0.004986
5545.000000;0.004745
5544.000000;0.004450
5543.000000;0.004085
5542.000000;0.003657
5541.000000;0.003230
5540.000000;0.002925
5539.000000;0.002858
5538.000000;0.003008
5537.000000;0.003209
5536.000000;0.003342
5535.000000;0.003478
5534.000000;0.003725
5533.000000;0.004010
5532.000000;0.004155
5531.000000;0.004122
5530.000000;0.004019
5529.000000;0.003856
5528.000000;0.003504
5527.000000;0.002925
5526.000000;0.002325
5525.000000;0.001982
5524.000000;0.002004
5523.000000;0.002269
5522.000000;0.002595
5521.000000;0.002914
5520.000000;0.003310
5519.000000;0.003903
5518.000000;0.004615
5517.000000;0.005171
5516.000000;0.005402
5515.000000;0.005404
5514.000000;0.005340
5513.000000;0.005163
5512.000000;0.004760
5511.000000;0.004340
5510.000000;0.004331
5509.000000;0.004824
5508.000000;0.005424
5507.000000;0.005806
5506.000000;0.006129
5505.000000;0.006688
5504.000000;0.007348
5503.000000;0.007672
5502.000000;0.007564
5501.000000;0.007354
5500.000000;0.007182
5499.000000;0.006729
5498.000000;0.005762
5497.000000;0.004799
5496.000000;0.004878
5495.000000;0.006404
5494.000000;0.008656
5493.000000;0.010702
5492.000000;0.012526
5491.000000;0.014825
5490.000000;0.017641
5489.000000;0.019933
5488.000000;0.020818
5487.000000;0.020622
5486.000000;0.020153
5485.000000;0.019372
5484.000000;0.017574
5483.000000;0.014699
5482.000000;0.011663
5481.000000;0.009259
5480.000000;0.007477
5479.000000;0.006383
5478.000000;0.006737
5477.000000;0.008950
5476.000000;0.012161
5475.000000;0.014991
5474.000000;0.017105
5473.000000;0.019192
5472.000000;0.021333
5471.000000;0.022569
5470.000000;0.022386
5469.000000;0.021608
5468.000000;0.021281
5467.000000;0.021394
5466.000000;0.021229
5465.000000;0.020717
5464.000000;0.020839
5463.000000;0.022435
5462.000000;0.025096
5461.000000;0.027540
5460.000000;0.028920
5459.000000;0.029534
5458.000000;0.030043
5457.000000;0.030356
5456.000000;0.029875
5455.000000;0.028555
5454.000000;0.027108
5453.000000;0.026247
5452.000000;0.026057
5451.000000;0.026147
5450.000000;0.026381
5449.000000;0.027398
5448.000000;0.030073
5447.000000;0.034298
5446.000000;0.038626
5445.000000;0.041955
5444.000000;0.045146
5443.000000;0.049558
5442.000000;0.054411
5441.000000;0.057335
5440.000000;0.057484
5439.000000;0.056709
5438.000000;0.057029
5437.000000;0.058129
5436.000000;0.058401
5435.000000;0.057515
5434.000000;0.056697
5433.000000;0.057243
5432.000000;0.059484
5431.000000;0.062725
5430.000000;0.065948
5429.000000;0.068714
5428.000000;0.071276
5427.000000;0.073786
5426.000000;0.075559
5425.000000;0.075597
5424.000000;0.073843
5423.000000;0.071348
5422.000000;0.069097
5421.000000;0.067048
5420.000000;0.064494
5419.000000;0.061229
5418.000000;0.058422
5417.000000;0.058165
5416.000000;0.061589
5415.000000;0.067744
5414.000000;0.074788
5413.000000;0.082171
5412.000000;0.090755
5411.000000;0.100398
5410.000000;0.108911
5409.000000;0.114391
5408.000000;0.117334
5407.000000;0.119145
5406.000000;0.119553
5405.000000;0.117298
5404.000000;0.112831
5403.000000;0.108420
5402.000000;0.105674
5401.000000;0.104387
5400.000000;0.104119
5399.000000;0.105148
5398.000000;0.107705
5397.000000;0.111783
5396.000000;0.117420
5395.000000;0.124423
5394.000000;0.131873
5393.000000;0.138685
5392.000000;0.144855
5391.000000;0.150946
5390.000000;0.156618
5389.000000;0.160985
5388.000000;0.164147
5387.000000;0.167194
5386.000000;0.170537
5385.000000;0.173512
5384.000000;0.175974
5383.000000;0.178944
5382.000000;0.182937
5381.000000;0.187310
5380.000000;0.192045
5379.000000;0.198100
5378.000000;0.205555
5377.000000;0.213106
5376.000000;0.220006
5375.000000;0.227255
5374.000000;0.235763
5373.000000;0.244426
5372.000000;0.251576
5371.000000;0.257166
5370.000000;0.262155
5369.000000;0.266635
5368.000000;0.270048
5367.000000;0.272972
5366.000000;0.277109
5365.000000;0.283352
5364.000000;0.291082
5363.000000;0.299597
5362.000000;0.308923
5361.000000;0.318989
5360.000000;0.329115
5359.000000;0.338718
5358.000000;0.348184
5357.000000;0.358586
5356.000000;0.370662
5355.000000;0.384349
5354.000000;0.398968
5353.000000;0.413830
5352.000000;0.428876
5351.000000;0.444513
5350.000000;0.460436
5349.000000;0.475515
5348.000000;0.489692
5347.000000;0.504698
5346.000000;0.521757
5345.000000;0.539580
5344.000000;0.555993
5343.000000;0.571247
5342.000000;0.587955
5341.000000;0.607149
5340.000000;0.626824
5339.000000;0.645204
5338.000000;0.663126
5337.000000;0.681963
5336.000000;0.701048
5335.000000;0.718888
5334.000000;0.735551
5333.000000;0.752321
5332.000000;0.769677
5331.000000;0.787236
5330.000000;0.805158
5329.000000;0.824112
5328.000000;0.844250
5327.000000;0.865333
5326.000000;0.887681
5325.000000;0.911634
5324.000000;0.936067
5323.000000;0.959276
5322.000000;0.981513
5321.000000;1.004623
5320.000000;1.029223
5319.000000;1.054165
5318.000000;1.078802
5317.000000;1.103891
5316.000000;1.130042
5315.000000;1.157057
5314.000000;1.184872
5313.000000;1.213542
5312.000000;1.242334
5311.000000;1.270692
5310.000000;1.299592
5309.000000;1.329999
5308.000000;1.360753
5307.000000;1.390002
5306.000000;1.418067
5305.000000;1.446305
5304.000000;1.473999
5303.000000;1.499380
5302.000000;1.522873
5301.000000;1.546141
5300.000000;1.568635
5299.000000;1.588480
5298.000000;1.606143
5297.000000;1.623712
5296.000000;1.641261
5295.000000;1.657412
5294.000000;1.672821
5293.000000;1.689233
5292.000000;1.705676
5291.000000;1.719479
5290.000000;1.730454
5289.000000;1.740501
5288.000000;1.750008
5287.000000;1.758122
5286.000000;1.765285
5285.000000;1.772185
5284.000000;1.777513
5283.000000;1.779851
5282.000000;1.780592
5281.000000;1.781946
5280.000000;1.783806
5279.000000;1.785173
5278.000000;1.786678
5277.000000;1.789137
5276.000000;1.791564
5275.000000;1.793024
5274.000000;1.794614
5273.000000;1.797427
5272.000000;1.800541
5271.000000;1.803081
5270.000000;1.805841
5269.000000;1.808753
5268.000000;1.810015
5267.000000;1.809824
5266.000000;1.811191
5265.000000;1.815114
5264.000000;1.818810
5263.000000;1.820909
5262.000000;1.824178
5261.000000;1.829979
5260.000000;1.834379
5259.000000;1.833547
5258.000000;1.829413
5257.000000;1.825850
5256.000000;1.822732
5255.000000;1.818085
5254.000000;1.813149
5253.000000;1.810806
5252.000000;1.811005
5251.000000;1.811540
5250.000000;1.811997
5249.000000;1.813687
5248.000000;1.817106
5247.000000;1.821870
5246.000000;1.827282
5245.000000;1.831337
5244.000000;1.831177
5243.000000;1.826907
5242.000000;1.822352
5241.000000;1.819771
5240.000000;1.816995
5239.000000;1.812002
5238.000000;1.806923
5237.000000;1.804541
5236.000000;1.803757
5235.000000;1.801822
5234.000000;1.798783
5233.000000;1.796536
5232.000000;1.795705
5231.000000;1.796119
5230.000000;1.798509
5229.000000;1.803299
5228.000000;1.808981
5227.000000;1.813766
5226.000000;1.817557
5225.000000;1.820614
5224.000000;1.821871
5223.000000;1.820614
5222.000000;1.818190
5221.000000;1.816349
5220.000000;1.815516
5219.000000;1.815412
5218.000000;1.815418
5217.000000;1.813647
5216.000000;1.808069
5215.000000;1.800182
5214.000000;1.794800
5213.000000;1.794699
5212.000000;1.797669
5211.000000;1.800117
5210.000000;1.801804
5209.000000;1.804919
5208.000000;1.810012
5207.000000;1.815216
5206.000000;1.818694
5205.000000;1.819993
5204.000000;1.819414
5203.000000;1.817475
5202.000000;1.814604
5201.000000;1.810704
5200.000000;1.805823
5199.000000;1.801290
5198.000000;1.798846
5197.000000;1.798546
5196.000000;1.799052
5195.000000;1.799952
5194.000000;1.801682
5193.000000;1.803317
5192.000000;1.803038
5191.000000;1.800996
5190.000000;1.799389
5189.000000;1.799351
5188.000000;1.800153
5187.000000;1.801582
5186.000000;1.804146
5185.000000;1.806514
5184.000000;1.806208
5183.000000;1.803774
5182.000000;1.802717
5181.000000;1.804316
5180.000000;1.805771
5179.000000;1.804639
5178.000000;1.802302
5177.000000;1.801220
5176.000000;1.801528
5175.000000;1.802051
5174.000000;1.802095
5173.000000;1.800983
5172.000000;1.798259
5171.000000;1.795400
5170.000000;1.794780
5169.000000;1.795956
5168.000000;1.795663
5167.000000;1.792702
5166.000000;1.790018
5165.000000;1.790545
5164.000000;1.793636
5163.000000;1.796823
5162.000000;1.798661
5161.000000;1.798492
5160.000000;1.796071
5159.000000;1.793025
5158.000000;1.792212
5157.000000;1.794135
5156.000000;1.796159
5155.000000;1.796411
5154.000000;1.796028
5153.000000;1.796419
5152.000000;1.796999
5151.000000;1.796937
5150.000000;1.796670
5149.000000;1.796042
5148.000000;1.793615
5147.000000;1.789593
5146.000000;1.786698
5145.000000;1.786383
5144.000000;1.786650
5143.000000;1.785403
5142.000000;1.783745
5141.000000;1.783980
5140.000000;1.786402
5139.000000;1.789664
5138.000000;1.792413
5137.000000;1.793396
5136.000000;1.791586
5135.000000;1.787695
5134.000000;1.784098
5133.000000;1.782453
5132.000000;1.782750
5131.000000;1.784864
5130.000000;1.789149
5129.000000;1.794587
5128.000000;1.798411
5127.000000;1.798906
5126.000000;1.796986
5125.000000;1.794237
5124.000000;1.791519
5123.000000;1.790102
5122.000000;1.791409
5121.000000;1.794648
5120.000000;1.796985
5119.000000;1.797093
5118.000000;1.796394
5117.000000;1.795864
5116.000000;1.794502
5115.000000;1.792166
5114.000000;1.790774
5113.000000;1.791228
5112.000000;1.791990
5111.000000;1.792130
5110.000000;1.793160
5109.000000;1.795951
5108.000000;1.798239
5107.000000;1.797323
5106.000000;1.793489
5105.000000;1.789227
5104.000000;1.786517
5103.000000;1.786130
5102.000000;1.787906
5101.000000;1.790292
5100.000000;1.791194
5099.000000;1.790503
5098.000000;1.790212
5097.000000;1.791350
5096.000000;1.792843
5095.000000;1.793798
5094.000000;1.794463
5093.000000;1.794428
5092.000000;1.792726
5091.000000;1.790622
5090.000000;1.791277
5089.000000;1.795282
5088.000000;1.799146
5087.000000;1.799864
5086.000000;1.798560
5085.000000;1.797553
5084.000000;1.796671
5083.000000;1.794849
5082.000000;1.792810
5081.000000;1.791785
5080.000000;1.791430
5079.000000;1.790937
5078.000000;1.790638
5077.000000;1.790846
5076.000000;1.790655
5075.000000;1.789403
5074.000000;1.787964
5073.000000;1.787245
5072.000000;1.786760
5071.000000;1.785847
5070.000000;1.784791
5069.000000;1.783784
5068.000000;1.782665
5067.000000;1.782431
5066.000000;1.784683
5065.000000;1.788536
5064.000000;1.790412
5063.000000;1.788423
5062.000000;1.784873
5061.000000;1.782721
5060.000000;1.781820
5059.000000;1.780651
5058.000000;1.779585
5057.000000;1.779846
5056.000000;1.781006
5055.000000;1.781709
5054.000000;1.781822
5053.000000;1.782197
5052.000000;1.783032
5051.000000;1.783784
5050.000000;1.783800
5049.000000;1.782296
5048.000000;1.779098
5047.000000;1.776030
5046.000000;1.775744
5045.000000;1.778268
5044.000000;1.780539
5043.000000;1.780387
5042.000000;1.779010
5041.000000;1.778224
5040.000000;1.777505
5039.000000;1.775481
5038.000000;1.772473
5037.000000;1.769793
5036.000000;1.768067
5035.000000;1.767412
5034.000000;1.767715
5033.000000;1.767795
5032.000000;1.766045
5031.000000;1.762996
5030.000000;1.761396
5029.000000;1.762600
5028.000000;1.764654
5027.000000;1.764910
5026.000000;1.762709
5025.000000;1.758630
5024.000000;1.753317
5023.000000;1.748247
5022.000000;1.745340
5021.000000;1.744231
5020.000000;1.741954
5019.000000;1.737114
5018.000000;1.732353
5017.000000;1.730734
5016.000000;1.731674
5015.000000;1.732279
5014.000000;1.731188
5013.000000;1.728972
5012.000000;1.725891
5011.000000;1.721824
5010.000000;1.717908
5009.000000;1.715885
5008.000000;1.715803
5007.000000;1.715757
5006.000000;1.713766
5005.000000;1.709414
5004.000000;1.704139
5003.000000;1.700327
5002.000000;1.699479
5001.000000;1.700740
5000.000000;1.701609
4999.000000;1.700561
4998.000000;1.698135
4997.000000;1.695420
4996.000000;1.692658
4995.000000;1.689745
4994.000000;1.687162
4993.000000;1.684852
4992.000000;1.681878
4991.000000;1.677827
4990.000000;1.673590
4989.000000;1.670029
4988.000000;1.666980
4987.000000;1.664072
4986.000000;1.661333
4985.000000;1.658426
4984.000000;1.654635
4983.000000;1.650368
4982.000000;1.647318
4981.000000;1.646214
4980.000000;1.645579
4979.000000;1.643629
4978.000000;1.640328
4977.000000;1.636607
4976.000000;1.632750
4975.000000;1.628634
4974.000000;1.624498
4973.000000;1.620517
4972.000000;1.616312
4971.000000;1.611705
4970.000000;1.607306
4969.000000;1.603599
4968.000000;1.600214
4967.000000;1.596708
4966.000000;1.593222
4965.000000;1.589720
4964.000000;1.585483
4963.000000;1.580081
4962.000000;1.574093
4961.000000;1.568350
4960.000000;1.563159
4959.000000;1.558686
4958.000000;1.555189
4957.000000;1.552282
4956.000000;1.548816
4955.000000;1.544297
4954.000000;1.539728
4953.000000;1.536347
4952.000000;1.534187
4951.000000;1.532414
4950.000000;1.530349
4949.000000;1.527558
4948.000000;1.523687
4947.000000;1.519013
4946.000000;1.514539
4945.000000;1.510742
4944.000000;1.506843
4943.000000;1.502053
4942.000000;1.496908
4941.000000;1.492504
4940.000000;1.488780
4939.000000;1.484441
4938.000000;1.478490
4937.000000;1.471260
4936.000000;1.463995
4935.000000;1.457897
4934.000000;1.453495
4933.000000;1.450450
4932.000000;1.447905
4931.000000;1.445142
4930.000000;1.441868
4929.000000;1.437932
4928.000000;1.433183
4927.000000;1.427775
4926.000000;1.422267
4925.000000;1.417200
4924.000000;1.412695
4923.000000;1.408509
4922.000000;1.404207
4921.000000;1.399313
4920.000000;1.393688
4919.000000;1.387835
4918.000000;1.382545
4917.000000;1.378238
4916.000000;1.374827
4915.000000;1.371961
4914.000000;1.369008
4913.000000;1.365121
4912.000000;1.359990
4911.000000;1.354458
4910.000000;1.349688
4909.000000;1.345749
4908.000000;1.341663
4907.000000;1.336773
4906.000000;1.331365
4905.000000;1.325965
4904.000000;1.320730
4903.000000;1.315682
4902.000000;1.310852
4901.000000;1.306058
4900.000000;1.301088
4899.000000;1.296181
4898.000000;1.291745
4897.000000;1.287585
4896.000000;1.283092
4895.000000;1.278304
4894.000000;1.274007
4893.000000;1.270532
4892.000000;1.267170
4891.000000;1.263066
4890.000000;1.258107
4889.000000;1.252610
4888.000000;1.246805
4887.000000;1.241119
4886.000000;1.236354
4885.000000;1.232939
4884.000000;1.230250
4883.000000;1.227111
4882.000000;1.222893
4881.000000;1.217919
4880.000000;1.212986
4879.000000;1.208747
4878.000000;1.205258
4877.000000;1.201877
4876.000000;1.197752
4875.000000;1.192605
4874.000000;1.186912
4873.000000;1.181351
4872.000000;1.176312
4871.000000;1.171883
4870.000000;1.167886
4869.000000;1.163848
4868.000000;1.159379
4867.000000;1.154725
4866.000000;1.150552
4865.000000;1.147030
4864.000000;1.143537
4863.000000;1.139436
4862.000000;1.134768
4861.000000;1.129940
4860.000000;1.125112
4859.000000;1.120229
4858.000000;1.115379
4857.000000;1.110812
4856.000000;1.106719
4855.000000;1.103156
4854.000000;1.100004
4853.000000;1.096846
4852.000000;1.093141
4851.000000;1.088749
4850.000000;1.084128
4849.000000;1.079850
4848.000000;1.076023
4847.000000;1.072280
4846.000000;1.068182
4845.000000;1.063564
4844.000000;1.058642
4843.000000;1.053873
4842.000000;1.049598
4841.000000;1.045766
4840.000000;1.042076
4839.000000;1.038357
4838.000000;1.034598
4837.000000;1.030688
4836.000000;1.026448
4835.000000;1.021976
4834.000000;1.017660
4833.000000;1.013702
4832.000000;1.009878
4831.000000;1.005880
4830.000000;1.001726
4829.000000;0.997696
4828.000000;0.993986
4827.000000;0.990559
4826.000000;0.987196
4825.000000;0.983658
4824.000000;0.979878
4823.000000;0.976038
4822.000000;0.972330
4821.000000;0.968677
4820.000000;0.964834
4819.000000;0.960748
4818.000000;0.956608
4817.000000;0.952568
4816.000000;0.948649
4815.000000;0.944916
4814.000000;0.941510
4813.000000;0.938404
4812.000000;0.935345
4811.000000;0.932090
4810.000000;0.928583
4809.000000;0.924852
4808.000000;0.920941
4807.000000;0.916991
4806.000000;0.913216
4805.000000;0.909666
4804.000000;0.906156
4803.000000;0.902503
4802.000000;0.898729
4801.000000;0.895019
4800.000000;0.891528
4799.000000;0.888286
4798.000000;0.885160
4797.000000;0.881943
4796.000000;0.878568
4795.000000;0.875184
4794.000000;0.871921
4793.000000;0.868641
4792.000000;0.865124
4791.000000;0.861431
4790.000000;0.857869
4789.000000;0.854607
4788.000000;0.851548
4787.000000;0.848551
4786.000000;0.845546
4785.000000;0.842432
4784.000000;0.839102
4783.000000;0.835612
4782.000000;0.832153
4781.000000;0.828796
4780.000000;0.825444
4779.000000;0.822040
4778.000000;0.818638
4777.000000;0.815252
4776.000000;0.811862
4775.000000;0.808587
4774.000000;0.805610
4773.000000;0.802886
4772.000000;0.800143
4771.000000;0.797252
4770.000000;0.794377
4769.000000;0.791646
4768.000000;0.788882
4767.000000;0.785829
4766.000000;0.782523
4765.000000;0.779260
4764.000000;0.776282
4763.000000;0.773577
4762.000000;0.770968
4761.000000;0.768302
4760.000000;0.765571
4759.000000;0.762856
4758.000000;0.760128
4757.000000;0.757188
4756.000000;0.753937
4755.000000;0.750633
4754.000000;0.747677
4753.000000;0.745171
4752.000000;0.742858
4751.000000;0.740484
4750.000000;0.738019
4749.000000;0.735481
4748.000000;0.732798
4747.000000;0.729960
4746.000000;0.727119
4745.000000;0.724409
4744.000000;0.721773
4743.000000;0.719101
4742.000000;0.716403
4741.000000;0.713760
4740.000000;0.711180
4739.000000;0.708616
4738.000000;0.706068
4737.000000;0.703548
4736.000000;0.701004
4735.000000;0.698354
4734.000000;0.695588
4733.000000;0.692805
4732.000000;0.690190
4731.000000;0.687920
4730.000000;0.686025
4729.000000;0.684315
4728.000000;0.682502
4727.000000;0.680432
4726.000000;0.678128
4725.000000;0.675667
4724.000000;0.673121
4723.000000;0.670624
4722.000000;0.668352
4721.000000;0.666354
4720.000000;0.664488
4719.000000;0.662572
4718.000000;0.660522
4717.000000;0.658371
4716.000000;0.656219
4715.000000;0.654196
4714.000000;0.652354
4713.000000;0.650566
4712.000000;0.648604
4711.000000;0.646363
4710.000000;0.643957
4709.000000;0.641583
4708.000000;0.639381
4707.000000;0.637404
4706.000000;0.635621
4705.000000;0.633910
4704.000000;0.632155
4703.000000;0.630363
4702.000000;0.628625
4701.000000;0.626948
4700.000000;0.625209
4699.000000;0.623321
4698.000000;0.621341
4697.000000;0.619402
4696.000000;0.617593
4695.000000;0.615931
4694.000000;0.614362
4693.000000;0.612780
4692.000000;0.611103
4691.000000;0.609388
4690.000000;0.607780
4689.000000;0.606354
4688.000000;0.605052
4687.000000;0.603768
4686.000000;0.602440
4685.000000;0.601032
4684.000000;0.599530
4683.000000;0.597950
4682.000000;0.596328
4681.000000;0.594692
4680.000000;0.593087
4679.000000;0.591595
4678.000000;0.590236
4677.000000;0.588900
4676.000000;0.587465
4675.000000;0.585952
4674.000000;0.584466
4673.000000;0.583025
4672.000000;0.581565
4671.000000;0.580100
4670.000000;0.578736
4669.000000;0.577521
4668.000000;0.576392
4667.000000;0.575293
4666.000000;0.574212
4665.000000;0.573093
4664.000000;0.571824
4663.000000;0.570385
4662.000000;0.568906
4661.000000;0.567545
4660.000000;0.566374
4659.000000;0.565387
4658.000000;0.564519
4657.000000;0.563649
4656.000000;0.562682
4655.000000;0.561657
4654.000000;0.560704
4653.000000;0.559859
4652.000000;0.559026
4651.000000;0.558120
4650.000000;0.557155
4649.000000;0.556166
4648.000000;0.555156
4647.000000;0.554151
4646.000000;0.553210
4645.000000;0.552349
4644.000000;0.551523
4643.000000;0.550715
4642.000000;0.549945
4641.000000;0.549179
4640.000000;0.548338
4639.000000;0.547424
4638.000000;0.546534
4637.000000;0.545721
4636.000000;0.544936
4635.000000;0.544139
4634.000000;0.543376
4633.000000;0.542682
4632.000000;0.541998
4631.000000;0.541248
4630.000000;0.540450
4629.000000;0.539688
4628.000000;0.539031
4627.000000;0.538508
4626.000000;0.538086
4625.000000;0.537644
4624.000000;0.537049
4623.000000;0.536291
4622.000000;0.535490
4621.000000;0.534740
4620.000000;0.534040
4619.000000;0.533378
4618.000000;0.532814
4617.000000;0.532396
4616.000000;0.532066
4615.000000;0.531705
4614.000000;0.531220
4613.000000;0.530596
4612.000000;0.529922
4611.000000;0.529387
4610.000000;0.529152
4609.000000;0.529141
4608.000000;0.529062
4607.000000;0.528682
4606.000000;0.528052
4605.000000;0.527415
4604.000000;0.526952
4603.000000;0.526674
4602.000000;0.526502
4601.000000;0.526366
4600.000000;0.526237
4599.000000;0.526138
4598.000000;0.526097
4597.000000;0.526086
4596.000000;0.526026
4595.000000;0.525876
4594.000000;0.525677
4593.000000;0.525494
4592.000000;0.525342
4591.000000;0.525204
4590.000000;0.525071
4589.000000;0.524941
4588.000000;0.524821
4587.000000;0.524759
4586.000000;0.524834
4585.000000;0.525061
4584.000000;0.525333
4583.000000;0.525480
4582.000000;0.525405
4581.000000;0.525166
4580.000000;0.524954
4579.000000;0.524968
4578.000000;0.525264
4577.000000;0.525695
4576.000000;0.526048
4575.000000;0.526243
4574.000000;0.526374
4573.000000;0.526598
4572.000000;0.526999
4571.000000;0.527541
4570.000000;0.528080
4569.000000;0.528446
4568.000000;0.528611
4567.000000;0.528753
4566.000000;0.529082
4565.000000;0.529607
4564.000000;0.530162
4563.000000;0.530650
4562.000000;0.531137
4561.000000;0.531671
4560.000000;0.532158
4559.000000;0.532517
4558.000000;0.532866
4557.000000;0.533437
4556.000000;0.534303
4555.000000;0.535298
4554.000000;0.536190
4553.000000;0.536888
4552.000000;0.537469
4551.000000;0.538058
4550.000000;0.538725
4549.000000;0.539459
4548.000000;0.540238
4547.000000;0.541077
4546.000000;0.542003
4545.000000;0.542983
4544.000000;0.543919
4543.000000;0.544724
4542.000000;0.545399
4541.000000;0.546044
4540.000000;0.546790
4539.000000;0.547702
4538.000000;0.548727
4537.000000;0.549747
4536.000000;0.550713
4535.000000;0.551703
4534.000000;0.552807
4533.000000;0.553979
4532.000000;0.555084
4531.000000;0.556047
4530.000000;0.556903
4529.000000;0.557699
4528.000000;0.558426
4527.000000;0.559097
4526.000000;0.559817
4525.000000;0.560715
4524.000000;0.561816
4523.000000;0.562999
4522.000000;0.564099
4521.000000;0.565039
4520.000000;0.565867
4519.000000;0.566674
4518.000000;0.567491
4517.000000;0.568308
4516.000000;0.569148
4515.000000;0.570057
4514.000000;0.571021
4513.000000;0.571954
4512.000000;0.572847
4511.000000;0.573818
4510.000000;0.574960
4509.000000;0.576192
4508.000000;0.577341
4507.000000;0.578349
4506.000000;0.579318
4505.000000;0.580365
4504.000000;0.581504
4503.000000;0.582661
4502.000000;0.583748
4501.000000;0.584730
4500.000000;0.585654
4499.000000;0.586598
4498.000000;0.587593
4497.000000;0.588633
4496.000000;0.589767
4495.000000;0.591082
4494.000000;0.592549
4493.000000;0.593997
4492.000000;0.595323
4491.000000;0.596654
4490.000000;0.598179
4489.000000;0.599877
4488.000000;0.601546
4487.000000;0.603041
4486.000000;0.604384
4485.000000;0.605664
4484.000000;0.606954
4483.000000;0.608326
4482.000000;0.609809
4481.000000;0.611334
4480.000000;0.612813
4479.000000;0.614262
4478.000000;0.615785
4477.000000;0.617441
4476.000000;0.619203
4475.000000;0.621033
4474.000000;0.622880
4473.000000;0.624670
4472.000000;0.626374
4471.000000;0.628080
4470.000000;0.629864
4469.000000;0.631656
4468.000000;0.633344
4467.000000;0.634977
4466.000000;0.636713
4465.000000;0.638599
4464.000000;0.640559
4463.000000;0.642591
4462.000000;0.644780
4461.000000;0.647081
4460.000000;0.649265
4459.000000;0.651183
4458.000000;0.652966
4457.000000;0.654876
4456.000000;0.657039
4455.000000;0.659398
4454.000000;0.661819
4453.000000;0.664178
4452.000000;0.666400
4451.000000;0.668498
4450.000000;0.670565
4449.000000;0.672672
4448.000000;0.674822
4447.000000;0.676985
4446.000000;0.679174
4445.000000;0.681444
4444.000000;0.683861
4443.000000;0.686425
4442.000000;0.689018
4441.000000;0.691490
4440.000000;0.693835
4439.000000;0.696226
4438.000000;0.698778
4437.000000;0.701388
4436.000000;0.703906
4435.000000;0.706388
4434.000000;0.708995
4433.000000;0.711709
4432.000000;0.714335
4431.000000;0.716812
4430.000000;0.719310
4429.000000;0.721997
4428.000000;0.724855
4427.000000;0.727787
4426.000000;0.730757
4425.000000;0.733747
4424.000000;0.736698
4423.000000;0.739544
4422.000000;0.742242
4421.000000;0.744767
4420.000000;0.747198
4419.000000;0.749792
4418.000000;0.752810
4417.000000;0.756193
4416.000000;0.759575
4415.000000;0.762682
4414.000000;0.765600
4413.000000;0.768547
4412.000000;0.771561
4411.000000;0.774538
4410.000000;0.777481
4409.000000;0.780548
4408.000000;0.783850
4407.000000;0.787337
4406.000000;0.790842
4405.000000;0.794212
4404.000000;0.797402
4403.000000;0.800527
4402.000000;0.803810
4401.000000;0.807393
4400.000000;0.811183
4399.000000;0.814904
4398.000000;0.818314
4397.000000;0.821412
4396.000000;0.824437
4395.000000;0.827641
4394.000000;0.831041
4393.000000;0.834422
4392.000000;0.837620
4391.000000;0.840721
4390.000000;0.843937
4389.000000;0.847367
4388.000000;0.850968
4387.000000;0.854690
4386.000000;0.858516
4385.000000;0.862392
4384.000000;0.866265
4383.000000;0.870168
4382.000000;0.874157
4381.000000;0.878146
4380.000000;0.881931
4379.000000;0.885433
4378.000000;0.888834
4377.000000;0.892450
4376.000000;0.896467
4375.000000;0.900788
4374.000000;0.905090
4373.000000;0.909096
4372.000000;0.912876
4371.000000;0.916765
4370.000000;0.920902
4369.000000;0.924981
4368.000000;0.928635
4367.000000;0.931977
4366.000000;0.935521
4365.000000;0.939590
4364.000000;0.944020
4363.000000;0.948492
4362.000000;0.952937
4361.000000;0.957508
4360.000000;0.962282
4359.000000;0.967122
4358.000000;0.971797
4357.000000;0.976213
4356.000000;0.980529
4355.000000;0.985046
4354.000000;0.989876
4353.000000;0.994769
4352.000000;0.999371
4351.000000;1.003612
4350.000000;1.007739
4349.000000;1.012031
4348.000000;1.016592
4347.000000;1.021364
4346.000000;1.026179
4345.000000;1.030799
4344.000000;1.035104
4343.000000;1.039279
4342.000000;1.043712
4341.000000;1.048643
4340.000000;1.054011
4339.000000;1.059588
4338.000000;1.065152
4337.000000;1.070551
4336.000000;1.075750
4335.000000;1.080880
4334.000000;1.086135
4333.000000;1.091573
4332.000000;1.097049
4331.000000;1.102351
4330.000000;1.107376
4329.000000;1.112210
4328.000000;1.117037
4327.000000;1.121944
4326.000000;1.126859
4325.000000;1.131787
4324.000000;1.137053
4323.000000;1.143034
4322.000000;1.149570
4321.000000;1.155931
4320.000000;1.161562
4319.000000;1.166673
4318.000000;1.171892
4317.000000;1.177556
4316.000000;1.183602
4315.000000;1.189901
4314.000000;1.196341
4313.000000;1.202617
4312.000000;1.208247
4311.000000;1.212947
4310.000000;1.216892
4309.000000;1.220681
4308.000000;1.225073
4307.000000;1.230567
4306.000000;1.237029
4305.000000;1.243881
4304.000000;1.250716
4303.000000;1.257556
4302.000000;1.264391
4301.000000;1.270815
4300.000000;1.276517
4299.000000;1.281827
4298.000000;1.287369
4297.000000;1.293356
4296.000000;1.299569
4295.000000;1.305817
4294.000000;1.312097
4293.000000;1.318459
4292.000000;1.325029
4291.000000;1.331996
4290.000000;1.339243
4289.000000;1.346198
4288.000000;1.352437
4287.000000;1.358179
4286.000000;1.363806
4285.000000;1.369320
4284.000000;1.374806
4283.000000;1.381013
4282.000000;1.388640
4281.000000;1.397100
4280.000000;1.404763
4279.000000;1.410693
4278.000000;1.415684
4277.000000;1.421343
4276.000000;1.428477
4275.000000;1.436433
4274.000000;1.443734
4273.000000;1.449498
4272.000000;1.454389
4271.000000;1.459949
4270.000000;1.466882
4269.000000;1.474326
4268.000000;1.481104
4267.000000;1.487173
4266.000000;1.493301
4265.000000;1.499899
4264.000000;1.507104
4263.000000;1.515440
4262.000000;1.525322
4261.000000;1.535970
4260.000000;1.545716
4259.000000;1.553568
4258.000000;1.559838
4257.000000;1.565338
4256.000000;1.570738
4255.000000;1.576543
4254.000000;1.582822
4253.000000;1.588935
4252.000000;1.594282
4251.000000;1.599487
4250.000000;1.605895
4249.000000;1.613845
4248.000000;1.622115
4247.000000;1.629351
4246.000000;1.635607
4245.000000;1.642118
4244.000000;1.650077
4243.000000;1.659656
4242.000000;1.670207
4241.000000;1.680648
4240.000000;1.690108
4239.000000;1.698194
4238.000000;1.704574
4237.000000;1.709139
4236.000000;1.712929
4235.000000;1.717931
4234.000000;1.725066
4233.000000;1.732925
4232.000000;1.739791
4231.000000;1.746572
4230.000000;1.755927
4229.000000;1.768356
4228.000000;1.780719
4227.000000;1.789382
4226.000000;1.794304
4225.000000;1.798933
4224.000000;1.806210
4223.000000;1.815580
4222.000000;1.824020
4221.000000;1.829850
4220.000000;1.835247
4219.000000;1.843904
4218.000000;1.856159
4217.000000;1.868191
4216.000000;1.876696
4215.000000;1.882900
4214.000000;1.890400
4213.000000;1.900130
4212.000000;1.909453
4211.000000;1.915739
4210.000000;1.918803
4209.000000;1.920170
4208.000000;1.922023
4207.000000;1.926504
4206.000000;1.934084
4205.000000;1.942568
4204.000000;1.949404
4203.000000;1.955284
4202.000000;1.963734
4201.000000;1.976619
4200.000000;1.990965
4199.000000;2.001761
4198.000000;2.006899
4197.000000;2.008648
4196.000000;2.011873
4195.000000;2.020669
4194.000000;2.035391
4193.000000;2.052022
4192.000000;2.064884
4191.000000;2.071389
4190.000000;2.074132
4189.000000;2.077788
4188.000000;2.085160
4187.000000;2.096530
4186.000000;2.110398
4185.000000;2.123971
4184.000000;2.134852
4183.000000;2.141660
4182.000000;2.143539
4181.000000;2.141258
4180.000000;2.138698
4179.000000;2.140830
4178.000000;2.149172
4177.000000;2.160731
4176.000000;2.172354
4175.000000;2.183737
4174.000000;2.194876
4173.000000;2.204538
4172.000000;2.211441
4171.000000;2.215991
4170.000000;2.220671
4169.000000;2.227664
4168.000000;2.236967
4167.000000;2.246506
4166.000000;2.253913
4165.000000;2.259071
4164.000000;2.264247
4163.000000;2.271532
4162.000000;2.280001
4161.000000;2.286449
4160.000000;2.291205
4159.000000;2.298761
4158.000000;2.312165
4157.000000;2.331781
4156.000000;2.353591
4155.000000;2.368191
4154.000000;2.365881
4153.000000;2.348572
4152.000000;2.333128
4151.000000;2.335733
4150.000000;2.357029
4149.000000;2.383343
4148.000000;2.400267
4147.000000;2.407157
4146.000000;2.411552
4145.000000;2.416414
4144.000000;2.423436
4143.000000;2.436194
4142.000000;2.453613
4141.000000;2.466925
4140.000000;2.472530
4139.000000;2.479350
4138.000000;2.492528
4137.000000;2.504430
4136.000000;2.503722
4135.000000;2.490223
4134.000000;2.476324
4133.000000;2.472630
4132.000000;2.475679
4131.000000;2.474699
4130.000000;2.469174
4129.000000;2.467465
4128.000000;2.476626
4127.000000;2.496807
4126.000000;2.519984
4125.000000;2.537421
4124.000000;2.546597
4123.000000;2.550961
4122.000000;2.555173
4121.000000;2.561616
4120.000000;2.571413
4119.000000;2.586082
4118.000000;2.599473
4117.000000;2.603286
4116.000000;2.605511
4115.000000;2.623658
4114.000000;2.662906
4113.000000;2.700794
4112.000000;2.706926
4111.000000;2.687262
4110.000000;2.660275
4109.000000;2.636436
4108.000000;2.626599
4107.000000;2.638563
4106.000000;2.673429
4105.000000;2.718522
4104.000000;2.742380
4103.000000;2.730846
4102.000000;2.703726
4101.000000;2.681037
4100.000000;2.679926
4099.000000;2.707431
4098.000000;2.751027
4097.000000;2.785032
4096.000000;2.799613
4095.000000;2.810184
4094.000000;2.819840
4093.000000;2.805269
4092.000000;2.757402
4091.000000;2.707079
4090.000000;2.686142
4089.000000;2.697728
4088.000000;2.728181
4087.000000;2.772325
4086.000000;2.829765
4085.000000;2.880787
4084.000000;2.893761
4083.000000;2.868955
4082.000000;2.837697
4081.000000;2.815565
4080.000000;2.794480
4079.000000;2.775286
4078.000000;2.785433
4077.000000;2.824011
4076.000000;2.830863
4075.000000;2.816146
4074.000000;2.824170
4073.000000;2.832174
4072.000000;2.817769
4071.000000;2.792046
4070.000000;2.778446
4069.000000;2.782879
4068.000000;2.789976
4067.000000;2.784470
4066.000000;2.760550
4065.000000;2.730354
4064.000000;2.709221
4063.000000;2.704061
4062.000000;2.717450
4061.000000;2.739000
4060.000000;2.756014
4059.000000;2.772630
4058.000000;2.789295
4057.000000;2.809620
4056.000000;2.842153
4055.000000;2.880316
4054.000000;2.920098
4053.000000;2.960387
4052.000000;2.987818
4051.000000;2.986778
4050.000000;2.962610
4049.000000;2.931056
4048.000000;2.902566
4047.000000;2.884811
4046.000000;2.885371
4045.000000;2.907002
4044.000000;2.936368
4043.000000;2.970958
4042.000000;3.022622
4041.000000;3.093907
4040.000000;3.154716
4039.000000;3.139314
4038.000000;3.044013
4037.000000;2.932145
4036.000000;2.862337
4035.000000;2.852849
4034.000000;2.882205
4033.000000;2.917660
4032.000000;2.946320
4031.000000;2.970764
4030.000000;2.996647
4029.000000;3.022745
4028.000000;3.046854
4027.000000;3.060761
4026.000000;3.039798
4025.000000;2.994370
4024.000000;2.958777
4023.000000;2.948569
4022.000000;2.957302
4021.000000;2.965836
4020.000000;2.978690
4019.000000;3.030634
4018.000000;3.142205
4017.000000;3.254904
4016.000000;3.250083
4015.000000;3.171056
4014.000000;3.096895
4013.000000;3.028945
4012.000000;2.968073
4011.000000;2.938227
4010.000000;2.963083
4009.000000;3.045303
4008.000000;3.158511
4007.000000;3.251384
4006.000000;3.275556
4005.000000;3.227149
4004.000000;3.158892
4003.000000;3.111633
4002.000000;3.076247
4001.000000;3.036976
4000.000000;2.999707
3999.000000;2.981270
3998.000000;2.996844
3997.000000;3.044451
3996.000000;3.095867
3995.000000;3.097843
3994.000000;3.053206
3993.000000;3.002877
3992.000000;2.965691
3991.000000;2.949622
3990.000000;2.939166
3989.000000;2.924365
3988.000000;2.915533
3987.000000;2.922511
3986.000000;2.938293
3985.000000;2.958660
3984.000000;2.987874
3983.000000;3.020519
3982.000000;3.073735
3981.000000;3.162720
3980.000000;3.188598
3979.000000;3.153534
3978.000000;3.174497
3977.000000;3.236805
3976.000000;3.300528
3975.000000;3.331762
3974.000000;3.323131
3973.000000;3.371816
3972.000000;3.439266
3971.000000;3.384270
3970.000000;3.285097
3969.000000;3.200681
3968.000000;3.135273
3967.000000;3.081939
3966.000000;3.034934
3965.000000;3.002173
3964.000000;3.007771
3963.000000;3.067881
3962.000000;3.127686
3961.000000;3.120069
3960.000000;3.097201
3959.000000;3.122897
3958.000000;3.183205
3957.000000;3.226798
3956.000000;3.250538
3955.000000;3.271214
3954.000000;3.295386
3953.000000;3.236450
3952.000000;3.099979
3951.000000;3.036304
3950.000000;3.078490
3949.000000;3.190334
3948.000000;3.264075
3947.000000;3.239463
3946.000000;3.187903
3945.000000;3.146058
3944.000000;3.171107
3943.000000;3.205462
3942.000000;3.184171
3941.000000;3.191150
3940.000000;3.187811
3939.000000;3.165632
3938.000000;3.106697
3937.000000;3.031075
3936.000000;3.001674
3935.000000;3.032169
3934.000000;3.166503
3933.000000;3.356992
3932.000000;3.345251
3931.000000;3.258865
3930.000000;3.348836
3929.000000;3.573761
3928.000000;3.403764
3927.000000;3.280735
3926.000000;3.343265
3925.000000;3.433264
3924.000000;3.510299
3923.000000;3.500812
3922.000000;3.375695
3921.000000;3.278017
3920.000000;3.213726
3919.000000;3.134513
3918.000000;3.058302
3917.000000;3.038387
3916.000000;3.036203
3915.000000;2.945296
3914.000000;2.863243
3913.000000;2.884064
3912.000000;2.974613
3911.000000;3.095157
3910.000000;3.291555
3909.000000;3.557717
3908.000000;3.911444
3907.000000;4.061548
3906.000000;3.609422
3905.000000;3.496606
3904.000000;3.632390
3903.000000;4.092683
3902.000000;4.235965
3901.000000;3.994727
3900.000000;3.727576
3899.000000;3.390624
3898.000000;3.239446
3897.000000;3.231369
3896.000000;3.368045
3895.000000;3.539922
3894.000000;3.395945
3893.000000;3.292552
3892.000000;3.306568
3891.000000;3.355968
3890.000000;3.434835
3889.000000;3.519673
3888.000000;3.533060
3887.000000;3.661146
3886.000000;3.529103
3885.000000;3.269795
3884.000000;3.321565
3883.000000;3.355711
3882.000000;3.233590
3881.000000;3.089213
3880.000000;3.009267
3879.000000;3.089146
3878.000000;3.217595
3877.000000;3.079384
3876.000000;2.968563
3875.000000;2.993142
3874.000000;3.164525
3873.000000;3.496115
3872.000000;3.840826
3871.000000;3.853168
3870.000000;3.688359
3869.000000;3.460351
3868.000000;3.542091
3867.000000;3.641835
3866.000000;3.230298
3865.000000;3.036967
3864.000000;2.999604
3863.000000;3.123634
3862.000000;3.425093
3861.000000;3.603427
3860.000000;3.554898
3859.000000;3.739718
3858.000000;3.802027
3857.000000;3.457414
3856.000000;3.296524
3855.000000;3.183705
3854.000000;3.082084
3853.000000;3.542324
3852.000000;2.991508
3851.000000;2.684192
3850.000000;2.921254
3849.000000;3.254271
3848.000000;3.646952
3847.000000;3.510362
3846.000000;3.431751
3845.000000;3.370074
3844.000000;3.367784
3843.000000;3.551102
3842.000000;3.974225
3841.000000;3.730704
3840.000000;3.636811
3839.000000;3.708102
3838.000000;3.624047
3837.000000;3.581282
3836.000000;3.632443
3835.000000;3.820767
3834.000000;4.009048
3833.000000;3.819489
3832.000000;3.613916
3831.000000;3.636991
3830.000000;3.936191
3829.000000;4.582358
3828.000000;4.175846
3827.000000;3.868450
3826.000000;3.744942
3825.000000;3.706957
3824.000000;3.827588
3823.000000;3.810787
3822.000000;3.608879
3821.000000;3.497241
3820.000000;3.459191
3819.000000;3.490666
3818.000000;3.736334
3817.000000;4.232683
3816.000000;4.665414
3815.000000;4.461661
3814.000000;3.814669
3813.000000;3.580216
3812.000000;3.550739
3811.000000;3.682358
3810.000000;3.647736
3809.000000;3.384278
3808.000000;3.258270
3807.000000;3.178539
3806.000000;3.164461
3805.000000;3.279129
3804.000000;3.486373
3803.000000;3.741794
3802.000000;3.831035
3801.000000;3.468682
3800.000000;3.312498
3799.000000;3.431743
3798.000000;3.622030
3797.000000;3.647911
3796.000000;3.583592
3795.000000;3.690820
3794.000000;3.775470
3793.000000;3.697900
3792.000000;3.763286
3791.000000;3.727778
3790.000000;3.668774
3789.000000;3.725093
3788.000000;3.759279
3787.000000;3.685599
3786.000000;3.613813
3785.000000;3.979097
3784.000000;4.417999
3783.000000;3.947609
3782.000000;3.972865
3781.000000;3.772660
3780.000000;3.638168
3779.000000;3.477351
3778.000000;3.437911
3777.000000;3.728483
3776.000000;4.331245
3775.000000;4.282081
3774.000000;3.572460
3773.000000;3.279872
3772.000000;3.243864
3771.000000;3.369856
3770.000000;3.393422
3769.000000;3.275093
3768.000000;3.243709
3767.000000;3.520586
3766.000000;4.015214
3765.000000;3.340370
3764.000000;3.123187
3763.000000;3.081767
3762.000000;3.101754
3761.000000;3.222949
3760.000000;3.345569
3759.000000;3.774813
3758.000000;4.285597
3757.000000;3.620591
3756.000000;3.517993
3755.000000;3.522948
3754.000000;3.425068
3753.000000;3.272357
3752.000000;3.191673
3751.000000;3.237515
3750.000000;3.651008
3749.000000;3.831869
3748.000000;3.488240
3747.000000;3.529209
3746.000000;3.530021
3745.000000;3.518093
3744.000000;3.655919
3743.000000;4.216199
3742.000000;3.925426
3741.000000;3.516835
3740.000000;3.319273
3739.000000;3.180695
3738.000000;3.146386
3737.000000;3.247209
3736.000000;3.535547
3735.000000;3.798410
3734.000000;4.000700
3733.000000;3.721121
3732.000000;3.578648
3731.000000;3.715508
3730.000000;3.474168
3729.000000;3.235931
3728.000000;3.114449
3727.000000;3.022057
3726.000000;2.891936
3725.000000;2.789782
3724.000000;2.776294
3723.000000;2.832832
3722.000000;2.922430
3721.000000;2.979641
3720.000000;2.974586
3719.000000;2.992235
3718.000000;3.056250
3717.000000;3.179602
3716.000000;3.381029
3715.000000;3.754773
3714.000000;4.081740
3713.000000;3.575788
3712.000000;3.346824
3711.000000;3.409218
3710.000000;3.476856
3709.000000;3.275191
3708.000000;3.161638
3707.000000;3.139432
3706.000000;3.193608
3705.000000;3.351765
3704.000000;3.329523
3703.000000;3.231779
3702.000000;3.200227
3701.000000;3.171929
3700.000000;3.289505
3699.000000;3.809442
3698.000000;3.835238
3697.000000;3.549236
3696.000000;3.807644
3695.000000;3.717722
3694.000000;3.384505
3693.000000;3.303997
3692.000000;3.289316
3691.000000;3.411543
3690.000000;3.918744
3689.000000;3.459858
3688.000000;3.157160
3687.000000;3.184759
3686.000000;3.273854
3685.000000;3.302602
3684.000000;3.271024
3683.000000;3.283796
3682.000000;3.300223
3681.000000;3.315998
3680.000000;3.342728
3679.000000;3.447572
3678.000000;3.866108
3677.000000;4.013017
3676.000000;3.962780
3675.000000;3.898816
3674.000000;3.259616
3673.000000;3.126452
3672.000000;3.237120
3671.000000;3.412776
3670.000000;3.550006
3669.000000;3.208539
3668.000000;3.030398
3667.000000;3.069301
3666.000000;3.145322
3665.000000;3.134989
3664.000000;3.113053
3663.000000;3.187488
3662.000000;3.345398
3661.000000;3.463349
3660.000000;3.455461
3659.000000;3.458080
3658.000000;3.509124
3657.000000;3.476362
3656.000000;3.393525
3655.000000;3.341733
3654.000000;3.319613
3653.000000;3.334321
3652.000000;3.409451
3651.000000;3.478203
3650.000000;3.386095
3649.000000;3.413714
3648.000000;3.460400
3647.000000;3.366399
3646.000000;3.430637
3645.000000;3.470871
3644.000000;3.402705
3643.000000;3.389035
3642.000000;3.373372
3641.000000;3.412461
3640.000000;3.599276
3639.000000;4.020946
3638.000000;4.249764
3637.000000;3.894644
3636.000000;3.694980
3635.000000;3.374093
3634.000000;3.190135
3633.000000;3.350306
3632.000000;3.693132
3631.000000;3.258102
3630.000000;3.037511
3629.000000;2.953737
3628.000000;2.906801
3627.000000;2.959074
3626.000000;3.095167
3625.000000;3.479531
3624.000000;4.001830
3623.000000;3.448976
3622.000000;3.275829
3621.000000;3.365284
3620.000000;3.535746
3619.000000;3.553852
3618.000000;3.440477
3617.000000;3.448713
3616.000000;3.487585
3615.000000;3.475555
3614.000000;3.185831
3613.000000;3.065541
3612.000000;3.138336
3611.000000;3.273204
3610.000000;3.477421
3609.000000;3.724965
3608.000000;3.892662
3607.000000;3.278487
3606.000000;3.048429
3605.000000;3.102381
3604.000000;3.287894
3603.000000;3.701952
3602.000000;3.739187
3601.000000;3.444493
3600.000000;3.426164
3599.000000;3.457974
3598.000000;3.528810
3597.000000;3.660647
3596.000000;3.670936
3595.000000;3.640907
3594.000000;3.588477
3593.000000;3.662094
3592.000000;3.922088
3591.000000;3.933993
3590.000000;3.854618
3589.000000;3.829930
3588.000000;3.589348
3587.000000;3.357469
3586.000000;3.220973
3585.000000;3.207093
3584.000000;3.242408
3583.000000;3.460700
3582.000000;3.266967
3581.000000;3.193669
3580.000000;3.385221
3579.000000;3.531421
3578.000000;3.641684
3577.000000;3.511648
3576.000000;3.460134
3575.000000;3.580699
3574.000000;3.761628
3573.000000;3.630131
3572.000000;3.406349
3571.000000;3.304735
3570.000000;3.266835
3569.000000;3.178525
3568.000000;3.054226
3567.000000;2.932970
3566.000000;3.026395
3565.000000;3.290926
3564.000000;3.066075
3563.000000;3.004613
3562.000000;3.250138
3561.000000;3.571827
3560.000000;3.562485
3559.000000;3.487250
3558.000000;3.534240
3557.000000;3.733390
3556.000000;4.136734
3555.000000;3.633605
3554.000000;3.445159
3553.000000;3.427489
3552.000000;3.405617
3551.000000;3.449136
3550.000000;3.551420
3549.000000;3.647473
3548.000000;3.551679
3547.000000;3.373064
3546.000000;3.291200
3545.000000;3.285299
3544.000000;3.332703
3543.000000;3.484980
3542.000000;3.703415
3541.000000;3.678888
3540.000000;3.491909
3539.000000;3.411450
3538.000000;3.390401
3537.000000;3.322498
3536.000000;3.234928
3535.000000;3.147071
3534.000000;3.042546
3533.000000;2.959341
3532.000000;2.950165
3531.000000;3.017873
3530.000000;3.164480
3529.000000;3.520634
3528.000000;3.634809
3527.000000;3.310417
3526.000000;3.236616
3525.000000;3.297352
3524.000000;3.355166
3523.000000;3.388807
3522.000000;3.443637
3521.000000;3.789513
3520.000000;4.332035
3519.000000;3.640571
3518.000000;3.469332
3517.000000;3.379157
3516.000000;3.316256
3515.000000;3.319299
3514.000000;3.357969
3513.000000;3.441836
3512.000000;3.510198
3511.000000;3.597367
3510.000000;3.716812
3509.000000;3.776934
3508.000000;3.694813
3507.000000;3.390703
3506.000000;3.180242
3505.000000;3.154425
3504.000000;3.270958
3503.000000;3.446936
3502.000000;3.592618
3501.000000;3.628356
3500.000000;3.709448
3499.000000;3.898920
3498.000000;3.590732
3497.000000;3.486820
3496.000000;3.633112
3495.000000;3.852275
3494.000000;3.972923
3493.000000;3.821873
3492.000000;3.635894
3491.000000;3.541234
3490.000000;3.548851
3489.000000;3.490480
3488.000000;3.317377
3487.000000;3.198667
3486.000000;3.138133
3485.000000;3.134185
3484.000000;3.224670
3483.000000;3.450478
3482.000000;3.644066
3481.000000;3.614410
3480.000000;3.476382
3479.000000;3.325827
3478.000000;3.274983
3477.000000;3.330835
3476.000000;3.508809
3475.000000;3.530404
3474.000000;3.448536
3473.000000;3.675977
3472.000000;3.838178
3471.000000;3.625369
3470.000000;3.743645
3469.000000;4.109852
3468.000000;4.041888
3467.000000;3.760240
3466.000000;3.701830
3465.000000;3.638270
3464.000000;3.468001
3463.000000;3.465690
3462.000000;3.611003
3461.000000;3.702256
3460.000000;3.770821
3459.000000;4.071338
3458.000000;4.115516
3457.000000;3.809705
3456.000000;3.715209
3455.000000;3.672708
3454.000000;3.732108
3453.000000;3.839871
3452.000000;3.685377
3451.000000;3.609539
3450.000000;3.675776
3449.000000;3.719483
3448.000000;3.528507
3447.000000;3.461658
3446.000000;3.609614
3445.000000;3.615399
3444.000000;3.525825
3443.000000;3.488959
3442.000000;3.342246
3441.000000;3.258762
3440.000000;3.353936
3439.000000;3.600318
3438.000000;3.927601
3437.000000;4.006865
3436.000000;3.623152
3435.000000;3.501343
3434.000000;3.570012
3433.000000;3.691313
3432.000000;3.895768
3431.000000;4.261881
3430.000000;3.772122
3429.000000;3.435397
3428.000000;3.413019
3427.000000;3.649394
3426.000000;3.903291
3425.000000;3.752354
3424.000000;3.578645
3423.000000;3.404192
3422.000000;3.284394
3421.000000;3.264956
3420.000000;3.202288
3419.000000;3.139751
3418.000000;3.200369
3417.000000;3.417263
3416.000000;3.884443
3415.000000;3.703969
3414.000000;3.398770
3413.000000;3.331966
3412.000000;3.374542
3411.000000;3.442439
3410.000000;3.450126
3409.000000;3.397194
3408.000000;3.365907
3407.000000;3.458367
3406.000000;3.614596
3405.000000;3.596567
3404.000000;3.492696
3403.000000;3.435405
3402.000000;3.435183
3401.000000;3.463812
3400.000000;3.399643
3399.000000;3.279527
3398.000000;3.134048
3397.000000;2.994892
3396.000000;2.959173
3395.000000;3.074871
3394.000000;3.296750
3393.000000;3.366276
3392.000000;3.291278
3391.000000;3.318652
3390.000000;3.523754
3389.000000;3.838031
3388.000000;3.960152
3387.000000;3.687201
3386.000000;3.420867
3385.000000;3.346045
3384.000000;3.480338
3383.000000;3.562014
3382.000000;3.425987
3381.000000;3.432706
3380.000000;3.458040
3379.000000;3.404078
3378.000000;3.318141
3377.000000;3.351778
3376.000000;3.499679
3375.000000;3.602120
3374.000000;3.577419
3373.000000;3.469887
3372.000000;3.507991
3371.000000;3.771168
3370.000000;3.904995
3369.000000;3.851548
3368.000000;3.745890
3367.000000;3.504252
3366.000000;3.363850
3365.000000;3.443848
3364.000000;3.890741
3363.000000;3.674127
3362.000000;3.321441
3361.000000;3.174364
3360.000000;3.151721
3359.000000;3.224839
3358.000000;3.345038
3357.000000;3.370203
3356.000000;3.236463
3355.000000;3.175232
3354.000000;3.231366
3353.000000;3.413311
3352.000000;3.710484
3351.000000;3.744021
3350.000000;3.442103
3349.000000;3.196225
3348.000000;3.081071
3347.000000;3.107782
3346.000000;3.249027
3345.000000;3.456384
3344.000000;3.594859
3343.000000;3.576959
3342.000000;3.483654
3341.000000;3.355453
3340.000000;3.306376
3339.000000;3.437127
3338.000000;3.812368
3337.000000;4.094095
3336.000000;3.887242
3335.000000;3.833172
3334.000000;4.043651
3333.000000;4.495258
3332.000000;4.038176
3331.000000;3.410284
3330.000000;3.194026
3329.000000;3.214255
3328.000000;3.438084
3327.000000;3.835444
3326.000000;4.025020
3325.000000;3.593181
3324.000000;3.326779
3323.000000;3.242425
3322.000000;3.261126
3321.000000;3.286823
3320.000000;3.243195
3319.000000;3.266533
3318.000000;3.427531
3317.000000;3.524198
3316.000000;3.399230
3315.000000;3.296200
3314.000000;3.294773
3313.000000;3.354337
3312.000000;3.462480
3311.000000;3.691751
3310.000000;3.552238
3309.000000;3.284057
3308.000000;3.212100
3307.000000;3.289683
3306.000000;3.508335
3305.000000;4.027575
3304.000000;3.877948
3303.000000;3.811500
3302.000000;3.842459
3301.000000;3.649729
3300.000000;3.722049
3299.000000;3.719559
3298.000000;3.598095
3297.000000;3.485175
3296.000000;3.482639
3295.000000;3.741921
3294.000000;3.735484
3293.000000;3.928148
3292.000000;3.814455
3291.000000;3.321354
3290.000000;3.161840
3289.000000;3.161133
3288.000000;3.283553
3287.000000;3.825075
3286.000000;3.608847
3285.000000;3.299352
3284.000000;3.270643
3283.000000;3.377175
3282.000000;3.629156
3281.000000;4.297033
3280.000000;4.425669
3279.000000;3.648935
3278.000000;3.300278
3277.000000;3.229792
3276.000000;3.352295
3275.000000;3.647317
3274.000000;4.147448
3273.000000;4.110765
3272.000000;3.761125
3271.000000;3.701022
3270.000000;3.715532
3269.000000;3.591042
3268.000000;3.451659
3267.000000;3.417889
3266.000000;3.386707
3265.000000;3.363249
3264.000000;3.446738
3263.000000;3.848233
3262.000000;3.664411
3261.000000;3.427062
3260.000000;3.313688
3259.000000;3.250198
3258.000000;3.315985
3257.000000;3.680100
3256.000000;3.859043
3255.000000;3.516588
3254.000000;3.531043
3253.000000;3.626750
3252.000000;3.509794
3251.000000;3.425633
3250.000000;3.535616
3249.000000;3.693626
3248.000000;3.436262
3247.000000;3.218869
3246.000000;3.112305
3245.000000;3.105252
3244.000000;3.160717
3243.000000;3.224816
3242.000000;3.302729
3241.000000;3.476878
3240.000000;3.691112
3239.000000;3.656222
3238.000000;3.570743
3237.000000;3.505233
3236.000000;3.495997
3235.000000;3.605728
3234.000000;3.717664
3233.000000;3.595528
3232.000000;3.428085
3231.000000;3.423628
3230.000000;3.597172
3229.000000;4.254703
3228.000000;3.831921
3227.000000;3.493106
3226.000000;3.389904
3225.000000;3.461688
3224.000000;3.731770
3223.000000;3.652829
3222.000000;3.376015
3221.000000;3.312584
3220.000000;3.292184
3219.000000;3.278481
3218.000000;3.353534
3217.000000;3.458573
3216.000000;3.346295
3215.000000;3.234279
3214.000000;3.174970
3213.000000;3.155737
3212.000000;3.206811
3211.000000;3.298756
3210.000000;3.447961
3209.000000;3.561613
3208.000000;3.485937
3207.000000;3.805646
3206.000000;3.638574
3205.000000;3.434466
3204.000000;3.551786
3203.000000;3.734114
3202.000000;3.582394
3201.000000;3.574794
3200.000000;3.827906
3199.000000;4.708123
3198.000000;3.685489
3197.000000;3.607107
3196.000000;3.717947
3195.000000;3.829174
3194.000000;3.626066
3193.000000;3.314834
3192.000000;3.184629
3191.000000;3.212366
3190.000000;3.264426
3189.000000;3.312745
3188.000000;3.457545
3187.000000;3.511977
3186.000000;3.457914
3185.000000;3.353387
3184.000000;3.183181
3183.000000;3.061545
3182.000000;3.004187
3181.000000;3.001156
3180.000000;3.086884
3179.000000;3.324178
3178.000000;3.689719
3177.000000;3.650144
3176.000000;3.379651
3175.000000;3.270850
3174.000000;3.274548
3173.000000;3.319563
3172.000000;3.339779
3171.000000;3.334519
3170.000000;3.386031
3169.000000;3.406054
3168.000000;3.260994
3167.000000;3.164904
3166.000000;3.180959
3165.000000;3.275617
3164.000000;3.471793
3163.000000;3.611012
3162.000000;3.414046
3161.000000;3.248158
3160.000000;3.167340
3159.000000;3.206047
3158.000000;3.381133
3157.000000;3.732128
3156.000000;3.905918
3155.000000;3.586260
3154.000000;3.424565
3153.000000;3.290093
3152.000000;3.182978
3151.000000;3.220003
3150.000000;3.407922
3149.000000;3.567547
3148.000000;3.533488
3147.000000;3.634845
3146.000000;3.651933
3145.000000;3.361532
3144.000000;3.198129
3143.000000;3.209413
3142.000000;3.389222
3141.000000;3.612145
3140.000000;3.863551
3139.000000;3.872505
3138.000000;3.507847
3137.000000;3.345244
3136.000000;3.322705
3135.000000;3.661957
3134.000000;3.847352
3133.000000;3.580668
3132.000000;3.883830
3131.000000;3.846254
3130.000000;3.589591
3129.000000;3.494851
3128.000000;3.569735
3127.000000;3.665375
3126.000000;3.428604
3125.000000;3.349722
3124.000000;3.525924
3123.000000;3.655854
3122.000000;3.355842
3121.000000;3.322749
3120.000000;3.507954
3119.000000;3.831513
3118.000000;3.947634
3117.000000;3.571637
3116.000000;3.331844
3115.000000;3.252905
3114.000000;3.257962
3113.000000;3.261277
3112.000000;3.264569
3111.000000;3.277070
3110.000000;3.220258
3109.000000;3.089310
3108.000000;3.017422
3107.000000;3.078261
3106.000000;3.369646
3105.000000;3.881472
3104.000000;3.434720
3103.000000;3.160038
3102.000000;3.094334
3101.000000;3.105798
3100.000000;3.136800
3099.000000;3.224002
3098.000000;3.644174
3097.000000;3.575911
3096.000000;3.313275
3095.000000;3.284557
3094.000000;3.234713
3093.000000;3.128492
3092.000000;3.111749
3091.000000;3.217233
3090.000000;3.356500
3089.000000;3.404144
3088.000000;3.502019
3087.000000;3.586389
3086.000000;3.421463
3085.000000;3.409400
3084.000000;3.505356
3083.000000;3.429716
3082.000000;3.310267
3081.000000;3.273992
3080.000000;3.336201
3079.000000;3.527914
3078.000000;3.489472
3077.000000;3.238473
3076.000000;3.133080
3075.000000;3.184762
3074.000000;3.315711
3073.000000;3.343504
3072.000000;3.301635
3071.000000;3.392465
3070.000000;3.550986
3069.000000;3.384431
3068.000000;3.276730
3067.000000;3.304519
3066.000000;3.439486
3065.000000;3.699549
3064.000000;3.639193
3063.000000;3.443092
3062.000000;3.415366
3061.000000;3.437761
3060.000000;3.692491
3059.000000;3.822682
3058.000000;3.346656
3057.000000;3.345543
3056.000000;3.499635
3055.000000;3.550024
3054.000000;3.451278
3053.000000;3.351835
3052.000000;3.293574
3051.000000;3.292662
3050.000000;3.283475
3049.000000;3.229286
3048.000000;3.225826
3047.000000;3.343327
3046.000000;3.498358
3045.000000;3.475815
3044.000000;3.401245
3043.000000;3.470694
3042.000000;3.630422
3041.000000;3.685723
3040.000000;3.577195
3039.000000;3.584981
3038.000000;3.866623
3037.000000;3.955532
3036.000000;3.531037
3035.000000;3.266855
3034.000000;3.143724
3033.000000;3.201689
3032.000000;3.418885
3031.000000;3.860192
3030.000000;3.890386
3029.000000;3.470182
3028.000000;3.383705
3027.000000;3.361348
3026.000000;3.383117
3025.000000;3.454102
3024.000000;3.759751
3023.000000;3.981644
3022.000000;3.640832
3021.000000;3.499538
3020.000000;3.428637
3019.000000;3.372279
3018.000000;3.290118
3017.000000;3.167809
3016.000000;3.093540
3015.000000;3.119725
3014.000000;3.208035
3013.000000;3.265493
3012.000000;3.254265
3011.000000;3.217166
3010.000000;3.182802
3009.000000;3.159454
3008.000000;3.193242
3007.000000;3.321553
3006.000000;3.431332
3005.000000;3.381814
3004.000000;3.376975
3003.000000;3.445379
3002.000000;3.445581
3001.000000;3.370499
3000.000000;3.334245
2999.000000;3.593200
2998.000000;3.613591
2997.000000;3.450378
2996.000000;3.630567
2995.000000;3.417185
2994.000000;3.239151
2993.000000;3.262271
2992.000000;3.484732
2991.000000;4.058158
2990.000000;3.670469
2989.000000;3.574128
2988.000000;3.829788
2987.000000;4.028025
2986.000000;3.559080
2985.000000;3.516623
2984.000000;3.374976
2983.000000;3.136676
2982.000000;3.068333
2981.000000;3.153051
2980.000000;3.473407
2979.000000;3.859659
2978.000000;3.512639
2977.000000;3.542269
2976.000000;3.969115
2975.000000;3.782717
2974.000000;3.418888
2973.000000;3.343707
2972.000000;3.324350
2971.000000;3.334639
2970.000000;3.321906
2969.000000;3.294602
2968.000000;3.305832
2967.000000;3.481075
2966.000000;4.135861
2965.000000;3.574073
2964.000000;3.254663
2963.000000;3.138690
2962.000000;3.098324
2961.000000;3.125633
2960.000000;3.238252
2959.000000;3.633063
2958.000000;3.911685
2957.000000;3.715140
2956.000000;3.812997
2955.000000;3.470798
2954.000000;3.262214
2953.000000;3.165443
2952.000000;3.187397
2951.000000;3.291805
2950.000000;3.313145
2949.000000;3.354154
2948.000000;3.486205
2947.000000;3.669828
2946.000000;3.948180
2945.000000;3.567852
2944.000000;3.298775
2943.000000;3.301154
2942.000000;3.465036
2941.000000;3.805057
2940.000000;3.485933
2939.000000;3.139227
2938.000000;3.036697
2937.000000;3.129295
2936.000000;3.438651
2935.000000;3.810394
2934.000000;3.685593
2933.000000;3.565288
2932.000000;3.471440
2931.000000;3.423518
2930.000000;3.488832
2929.000000;3.677234
2928.000000;4.010710
2927.000000;3.609908
2926.000000;3.381423
2925.000000;3.455183
2924.000000;3.557634
2923.000000;3.338240
2922.000000;3.125750
2921.000000;3.103006
2920.000000;3.228518
2919.000000;3.373677
2918.000000;3.444635
2917.000000;3.522442
2916.000000;3.550034
2915.000000;3.503280
2914.000000;3.439053
2913.000000;3.357744
2912.000000;3.298419
2911.000000;3.299652
2910.000000;3.328923
2909.000000;3.291660
2908.000000;3.267214
2907.000000;3.335637
2906.000000;3.427043
2905.000000;3.548742
2904.000000;3.664684
2903.000000;3.615332
2902.000000;3.531376
2901.000000;3.429815
2900.000000;3.374155
2899.000000;3.337229
2898.000000;3.325371
2897.000000;3.476901
2896.000000;3.725472
2895.000000;3.728558
2894.000000;3.518083
2893.000000;3.341880
2892.000000;3.327147
2891.000000;3.464244
2890.000000;3.414581
2889.000000;3.199290
2888.000000;3.117938
2887.000000;3.186903
2886.000000;3.387168
2885.000000;3.564145
2884.000000;3.447097
2883.000000;3.291414
2882.000000;3.236823
2881.000000;3.240516
2880.000000;3.279286
2879.000000;3.355964
2878.000000;3.468977
2877.000000;3.693229
2876.000000;3.978426
2875.000000;3.885124
2874.000000;3.663769
2873.000000;3.453859
2872.000000;3.373372
2871.000000;3.525000
2870.000000;4.056544
2869.000000;3.961958
2868.000000;3.502739
2867.000000;3.408032
2866.000000;3.454056
2865.000000;3.559114
2864.000000;3.687781
2863.000000;3.742354
2862.000000;3.791822
2861.000000;4.114390
2860.000000;4.321709
2859.000000;4.026459
2858.000000;3.850752
2857.000000;3.778807
2856.000000;3.687377
2855.000000;3.472967
2854.000000;3.307327
2853.000000;3.311594
2852.000000;3.464400
2851.000000;3.841415
2850.000000;4.283911
2849.000000;3.545598
2848.000000;3.305153
2847.000000;3.266822
2846.000000;3.298918
2845.000000;3.242010
2844.000000;3.132787
2843.000000;3.154528
2842.000000;3.316967
2841.000000;3.514309
2840.000000;3.468488
2839.000000;3.356023
2838.000000;3.374018
2837.000000;3.434584
2836.000000;3.499217
2835.000000;3.657027
2834.000000;3.865532
2833.000000;3.637262
2832.000000;3.443587
2831.000000;3.406617
2830.000000;3.534800
2829.000000;4.051858
2828.000000;3.689757
2827.000000;3.353419
2826.000000;3.258077
2825.000000;3.240061
2824.000000;3.314088
2823.000000;3.389987
2822.000000;3.705992
2821.000000;4.127896
2820.000000;3.386663
2819.000000;3.220391
2818.000000;3.241369
2817.000000;3.396386
2816.000000;3.581516
2815.000000;3.667230
2814.000000;3.867706
2813.000000;3.749054
2812.000000;3.768368
2811.000000;3.732845
2810.000000;3.530793
2809.000000;3.542902
2808.000000;3.568695
2807.000000;3.651726
2806.000000;4.067913
2805.000000;3.888204
2804.000000;3.524900
2803.000000;3.436407
2802.000000;3.449724
2801.000000;3.504240
2800.000000;3.538200
2799.000000;3.572699
2798.000000;3.879747
2797.000000;3.633666
2796.000000;3.262555
2795.000000;3.207159
2794.000000;3.200114
2793.000000;3.169056
2792.000000;3.209299
2791.000000;3.289404
2790.000000;3.332952
2789.000000;3.315251
2788.000000;3.320911
2787.000000;3.417177
2786.000000;3.553829
2785.000000;3.588047
2784.000000;3.565625
2783.000000;3.561480
2782.000000;3.488664
2781.000000;3.367404
2780.000000;3.340023
2779.000000;3.542883
2778.000000;3.592748
2777.000000;3.525330
2776.000000;3.862629
2775.000000;3.716887
2774.000000;3.510761
2773.000000;3.696821
2772.000000;3.807513
2771.000000;3.537334
2770.000000;3.375492
2769.000000;3.353513
2768.000000;3.428867
2767.000000;3.606468
2766.000000;3.736650
2765.000000;3.680550
2764.000000;3.579933
2763.000000;3.414977
2762.000000;3.245634
2761.000000;3.176542
2760.000000;3.240957
2759.000000;3.544424
2758.000000;4.152964
2757.000000;4.037662
2756.000000;3.960283
2755.000000;3.789059
2754.000000;3.561381
2753.000000;3.611748
2752.000000;3.705889
2751.000000;3.637928
2750.000000;3.655815
2749.000000;3.703508
2748.000000;3.673092
2747.000000;3.643043
2746.000000;3.580257
2745.000000;3.406925
2744.000000;3.295077
2743.000000;3.288466
2742.000000;3.325083
2741.000000;3.354031
2740.000000;3.702787
2739.000000;4.088425
2738.000000;3.386276
2737.000000;3.247406
2736.000000;3.310171
2735.000000;3.439474
2734.000000;3.382755
2733.000000;3.304780
2732.000000;3.474222
2731.000000;3.721449
2730.000000;3.543352
2729.000000;3.366963
2728.000000;3.422821
2727.000000;3.573646
2726.000000;3.694432
2725.000000;3.760115
2724.000000;3.736471
2723.000000;3.573693
2722.000000;3.463837
2721.000000;3.637959
2720.000000;4.131250
2719.000000;3.718498
2718.000000;3.755628
2717.000000;4.068176
2716.000000;3.507173
2715.000000;3.340765
2714.000000;3.286297
2713.000000;3.216789
2712.000000;3.219715
2711.000000;3.395614
2710.000000;3.801435
2709.000000;3.690916
2708.000000;3.429579
2707.000000;3.474901
2706.000000;3.634318
2705.000000;3.394152
2704.000000;3.191794
2703.000000;3.242724
2702.000000;3.476152
2701.000000;3.837920
2700.000000;4.043637
2699.000000;3.855279
2698.000000;3.548948
2697.000000;3.564603
2696.000000;4.116328
2695.000000;3.728308
2694.000000;3.464332
2693.000000;3.391508
2692.000000;3.301331
2691.000000;3.397101
2690.000000;3.629183
2689.000000;4.040114
2688.000000;4.546708
2687.000000;4.040779
2686.000000;4.064116
2685.000000;4.109224
2684.000000;3.838787
2683.000000;3.536236
2682.000000;3.337460
2681.000000;3.227801
2680.000000;3.182012
2679.000000;3.219491
2678.000000;3.264447
2677.000000;3.281252
2676.000000;3.278990
2675.000000;3.249592
2674.000000;3.247700
2673.000000;3.334963
2672.000000;3.587961
2671.000000;3.711268
2670.000000;3.640757
2669.000000;3.734179
2668.000000;3.701499
2667.000000;3.749497
2666.000000;3.771746
2665.000000;3.641459
2664.000000;3.773027
2663.000000;3.838200
2662.000000;3.733329
2661.000000;3.911702
2660.000000;3.817243
2659.000000;3.612981
2658.000000;3.572977
2657.000000;3.447715
2656.000000;3.286561
2655.000000;3.243934
2654.000000;3.394280
2653.000000;3.911257
2652.000000;3.979590
2651.000000;3.528559
2650.000000;3.470074
2649.000000;3.528738
2648.000000;3.680920
2647.000000;3.704628
2646.000000;3.546852
2645.000000;3.513036
2644.000000;3.721686
2643.000000;4.091261
2642.000000;3.682801
2641.000000;3.420161
2640.000000;3.367712
2639.000000;3.483923
2638.000000;3.791937
2637.000000;3.833882
2636.000000;3.592849
2635.000000;3.468757
2634.000000;3.399288
2633.000000;3.313152
2632.000000;3.285168
2631.000000;3.353400
2630.000000;3.509277
2629.000000;3.960743
2628.000000;3.988654
2627.000000;3.695789
2626.000000;3.761189
2625.000000;3.564650
2624.000000;3.375553
2623.000000;3.267979
2622.000000;3.191207
2621.000000;3.196613
2620.000000;3.255086
2619.000000;3.299224
2618.000000;3.272797
2617.000000;3.200601
2616.000000;3.171264
2615.000000;3.218224
2614.000000;3.243302
2613.000000;3.189228
2612.000000;3.123398
2611.000000;3.106280
2610.000000;3.135062
2609.000000;3.138114
2608.000000;3.125751
2607.000000;3.182194
2606.000000;3.330385
2605.000000;3.486704
2604.000000;3.570912
2603.000000;3.577940
2602.000000;3.494379
2601.000000;3.640976
2600.000000;3.870008
2599.000000;3.618350
2598.000000;3.518001
2597.000000;3.567637
2596.000000;3.880672
2595.000000;3.971472
2594.000000;3.696830
2593.000000;3.892125
2592.000000;4.090288
2591.000000;3.841707
2590.000000;3.722814
2589.000000;3.566360
2588.000000;3.530054
2587.000000;3.599736
2586.000000;3.780798
2585.000000;3.893631
2584.000000;3.460187
2583.000000;3.315809
2582.000000;3.365092
2581.000000;3.339227
2580.000000;3.244750
2579.000000;3.232975
2578.000000;3.319882
2577.000000;3.421297
2576.000000;3.462134
2575.000000;3.507097
2574.000000;3.649916
2573.000000;3.692840
2572.000000;3.499594
2571.000000;3.390700
2570.000000;3.534773
2569.000000;3.548777
2568.000000;3.316039
2567.000000;3.259335
2566.000000;3.288983
2565.000000;3.277484
2564.000000;3.223225
2563.000000;3.180613
2562.000000;3.147818
2561.000000;3.107848
2560.000000;3.137259
2559.000000;3.304264
2558.000000;3.473020
2557.000000;3.486971
2556.000000;3.494695
2555.000000;3.605225
2554.000000;3.860979
2553.000000;3.720996
2552.000000;3.517417
2551.000000;3.492070
2550.000000;3.587960
2549.000000;3.777481
2548.000000;3.497226
2547.000000;3.173366
2546.000000;3.057031
2545.000000;3.117142
2544.000000;3.304514
2543.000000;3.461447
2542.000000;3.537183
2541.000000;3.537598
2540.000000;3.509345
2539.000000;3.545211
2538.000000;3.527092
2537.000000;3.406465
2536.000000;3.357346
2535.000000;3.534740
2534.000000;3.685688
2533.000000;3.442268
2532.000000;3.291526
2531.000000;3.267260
2530.000000;3.263200
2529.000000;3.208892
2528.000000;3.171088
2527.000000;3.196981
2526.000000;3.284670
2525.000000;3.375430
2524.000000;3.524090
2523.000000;3.779027
2522.000000;3.606534
2521.000000;3.508524
2520.000000;3.652501
2519.000000;3.710267
2518.000000;3.628303
2517.000000;3.561067
2516.000000;3.523873
2515.000000;3.464423
2514.000000;3.333832
2513.000000;3.196287
2512.000000;3.152618
2511.000000;3.172331
2510.000000;3.223169
2509.000000;3.462310
2508.000000;3.797521
2507.000000;3.675112
2506.000000;3.591156
2505.000000;3.544029
2504.000000;3.591462
2503.000000;3.920667
2502.000000;4.133520
2501.000000;3.973344
2500.000000;3.914229
2499.000000;3.604083
2498.000000;3.321274
2497.000000;3.154286
2496.000000;3.150041
2495.000000;3.244866
2494.000000;3.384676
2493.000000;3.782056
2492.000000;3.538872
2491.000000;3.294833
2490.000000;3.341387
2489.000000;3.281730
2488.000000;3.216349
2487.000000;3.254295
2486.000000;3.575909
2485.000000;3.769450
2484.000000;3.405185
2483.000000;3.397893
2482.000000;3.532755
2481.000000;3.518338
2480.000000;3.448865
2479.000000;3.444328
2478.000000;3.419640
2477.000000;3.358807
2476.000000;3.388274
2475.000000;3.550433
2474.000000;3.649675
2473.000000;3.387841
2472.000000;3.177228
2471.000000;3.144987
2470.000000;3.223364
2469.000000;3.337972
2468.000000;3.533947
2467.000000;3.998177
2466.000000;4.115870
2465.000000;3.565215
2464.000000;3.460957
2463.000000;3.749323
2462.000000;3.699509
2461.000000;3.519308
2460.000000;3.660910
2459.000000;3.870883
2458.000000;4.104728
2457.000000;3.741335
2456.000000;3.426179
2455.000000;3.309891
2454.000000;3.316910
2453.000000;3.447669
2452.000000;3.544868
2451.000000;3.433456
2450.000000;3.341124
2449.000000;3.413682
2448.000000;3.625703
2447.000000;3.659300
2446.000000;3.822204
2445.000000;4.032155
2444.000000;3.458229
2443.000000;3.366247
2442.000000;3.394058
2441.000000;3.411626
2440.000000;3.390063
2439.000000;3.247500
2438.000000;3.247327
2437.000000;3.439413
2436.000000;3.495399
2435.000000;3.441820
2434.000000;3.502925
2433.000000;3.491823
2432.000000;3.577062
2431.000000;3.926856
2430.000000;3.800288
2429.000000;3.731278
2428.000000;3.697564
2427.000000;3.466937
2426.000000;3.382002
2425.000000;3.467356
2424.000000;3.453950
2423.000000;3.197621
2422.000000;3.074838
2421.000000;3.080074
2420.000000;3.136503
2419.000000;3.151793
2418.000000;3.114264
2417.000000;3.131356
2416.000000;3.198842
2415.000000;3.278904
2414.000000;3.420777
2413.000000;3.770162
2412.000000;4.458340
2411.000000;4.110033
2410.000000;3.922181
2409.000000;4.071820
2408.000000;3.616973
2407.000000;3.318908
2406.000000;3.251447
2405.000000;3.237655
2404.000000;3.282645
2403.000000;3.448193
2402.000000;3.796491
2401.000000;3.774596
2400.000000;3.639203
2399.000000;3.648334
2398.000000;3.614423
2397.000000;3.684778
2396.000000;3.601558
2395.000000;3.720836
2394.000000;4.109666
2393.000000;3.581900
2392.000000;3.405735
2391.000000;3.508228
2390.000000;3.715059
2389.000000;3.624011
2388.000000;3.631551
2387.000000;3.709561
2386.000000;3.881880
2385.000000;4.168881
2384.000000;3.888665
2383.000000;3.825092
2382.000000;3.863190
2381.000000;3.560726
2380.000000;3.234411
2379.000000;3.102604
2378.000000;3.097815
2377.000000;3.048903
2376.000000;2.933541
2375.000000;2.900421
2374.000000;2.999161
2373.000000;3.124154
2372.000000;3.258689
2371.000000;3.202388
2370.000000;3.275668
2369.000000;3.261209
2368.000000;3.269664
2367.000000;3.443973
2366.000000;3.764621
2365.000000;3.812677
2364.000000;3.643607
2363.000000;3.729892
2362.000000;3.729980
2361.000000;3.555946
2360.000000;3.398833
2359.000000;3.308858
2358.000000;3.454897
2357.000000;3.668848
2356.000000;3.450683
2355.000000;3.477842
2354.000000;4.012676
2353.000000;4.035545
2352.000000;3.703672
2351.000000;3.771539
2350.000000;3.804658
2349.000000;3.757776
2348.000000;3.504483
2347.000000;3.370744
2346.000000;3.390299
2345.000000;3.466700
2344.000000;3.595533
2343.000000;3.481327
2342.000000;3.309680
2341.000000;3.337669
2340.000000;3.513739
2339.000000;3.543199
2338.000000;3.323165
2337.000000;3.175707
2336.000000;3.111278
2335.000000;3.112964
2334.000000;3.091290
2333.000000;3.188014
2332.000000;2.803591
2331.000000;2.699056
2330.000000;2.690239
2329.000000;2.687837
2328.000000;2.738810
2327.000000;2.906808
2326.000000;3.212860
2325.000000;3.862075
2324.000000;3.604815
2323.000000;3.187626
2322.000000;3.294039
2321.000000;3.572090
2320.000000;3.051381
2319.000000;2.807330
2318.000000;2.715753
2317.000000;2.680327
2316.000000;2.712222
2315.000000;2.811544
2314.000000;2.903556
2313.000000;2.911754
2312.000000;2.888848
2311.000000;2.970177
2310.000000;3.247862
2309.000000;3.253749
2308.000000;3.023917
2307.000000;2.984495
2306.000000;3.030247
2305.000000;3.102841
2304.000000;3.053960
2303.000000;2.931487
2302.000000;2.905224
2301.000000;3.068162
2300.000000;3.401509
2299.000000;3.570448
2298.000000;3.402141
2297.000000;3.179203
2296.000000;3.076032
2295.000000;3.157066
2294.000000;3.690898
2293.000000;3.547255
2292.000000;3.140160
2291.000000;3.013946
2290.000000;3.016265
2289.000000;3.151049
2288.000000;3.373822
2287.000000;3.381203
2286.000000;3.317593
2285.000000;3.424136
2284.000000;3.415673
2283.000000;3.278868
2282.000000;3.281405
2281.000000;3.348988
2280.000000;3.578165
2279.000000;4.039075
2278.000000;3.777266
2277.000000;3.669518
2276.000000;3.398155
2275.000000;3.303041
2274.000000;3.576278
2273.000000;3.881263
2272.000000;3.729515
2271.000000;4.251419
2270.000000;3.866529
2269.000000;3.468245
2268.000000;3.624554
2267.000000;3.825219
2266.000000;3.405629
2265.000000;3.358189
2264.000000;3.462686
2263.000000;3.312400
2262.000000;3.276700
2261.000000;3.400030
2260.000000;3.395565
2259.000000;3.287538
2258.000000;3.304115
2257.000000;3.349555
2256.000000;3.271218
2255.000000;3.466339
2254.000000;4.040570
2253.000000;3.551813
2252.000000;3.522082
2251.000000;3.571445
2250.000000;3.911024
2249.000000;4.008868
2248.000000;3.489550
2247.000000;3.424074
2246.000000;3.488085
2245.000000;3.523032
2244.000000;3.426087
2243.000000;3.364877
2242.000000;3.452012
2241.000000;3.659610
2240.000000;3.680783
2239.000000;3.581285
2238.000000;3.374859
2237.000000;3.276944
2236.000000;3.257855
2235.000000;3.213337
2234.000000;3.139522
2233.000000;3.138274
2232.000000;3.302891
2231.000000;3.794960
2230.000000;3.763124
2229.000000;3.450117
2228.000000;3.391443
2227.000000;3.377745
2226.000000;3.383605
2225.000000;3.356798
2224.000000;3.343907
2223.000000;3.512027
2222.000000;3.904039
2221.000000;4.293454
2220.000000;3.820649
2219.000000;3.535636
2218.000000;3.613081
2217.000000;3.798974
2216.000000;3.710806
2215.000000;3.558522
2214.000000;3.670394
2213.000000;3.565379
2212.000000;3.400342
2211.000000;3.618964
2210.000000;3.748711
2209.000000;3.454067
2208.000000;3.297307
2207.000000;3.128128
2206.000000;3.056054
2205.000000;3.127246
2204.000000;3.296455
2203.000000;3.485403
2202.000000;3.671878
2201.000000;4.000211
2200.000000;4.692317
2199.000000;3.923114
2198.000000;3.663187
2197.000000;3.723191
2196.000000;3.950595
2195.000000;3.704357
2194.000000;3.529224
2193.000000;3.469387
2192.000000;3.487411
2191.000000;3.647951
2190.000000;3.856529
2189.000000;3.612744
2188.000000;3.448601
2187.000000;3.504458
2186.000000;3.530443
2185.000000;3.422007
2184.000000;3.405474
2183.000000;3.561147
2182.000000;3.978877
2181.000000;3.548625
2180.000000;3.416882
2179.000000;3.636930
2178.000000;4.884825
2177.000000;3.775499
2176.000000;3.812457
2175.000000;3.901832
2174.000000;3.730795
2173.000000;3.467004
2172.000000;3.387851
2171.000000;3.617015
2170.000000;3.991348
2169.000000;4.063911
2168.000000;3.908570
2167.000000;3.589256
2166.000000;3.591897
2165.000000;3.595684
2164.000000;3.601670
2163.000000;3.636606
2162.000000;3.745978
2161.000000;3.622858
2160.000000;3.549990
2159.000000;4.032630
2158.000000;3.675755
2157.000000;3.484796
2156.000000;3.567524
2155.000000;3.697884
2154.000000;3.926108
2153.000000;3.718621
2152.000000;3.355012
2151.000000;3.234924
2150.000000;3.221580
2149.000000;3.262029
2148.000000;3.463288
2147.000000;3.929469
2146.000000;3.583865
2145.000000;3.428125
2144.000000;3.339296
2143.000000;3.333990
2142.000000;3.384527
2141.000000;3.386620
2140.000000;3.377682
2139.000000;3.478092
2138.000000;3.573838
2137.000000;3.412363
2136.000000;3.237412
2135.000000;3.186785
2134.000000;3.222996
2133.000000;3.277252
2132.000000;3.325816
2131.000000;3.292081
2130.000000;3.194261
2129.000000;3.165789
2128.000000;3.190371
2127.000000;3.186947
2126.000000;3.128463
2125.000000;3.123675
2124.000000;3.160527
2123.000000;3.154582
2122.000000;3.196573
2121.000000;3.384283
2120.000000;3.699288
2119.000000;3.865618
2118.000000;3.845951
2117.000000;3.530302
2116.000000;3.292025
2115.000000;3.241540
2114.000000;3.215346
2113.000000;3.136304
2112.000000;3.080827
2111.000000;3.094547
2110.000000;3.132866
2109.000000;3.136755
2108.000000;3.159750
2107.000000;3.234829
2106.000000;3.194236
2105.000000;3.146731
2104.000000;3.221542
2103.000000;3.376381
2102.000000;3.440968
2101.000000;3.515357
2100.000000;3.416395
2099.000000;3.171192
2098.000000;3.060936
2097.000000;3.078681
2096.000000;3.192101
2095.000000;3.360480
2094.000000;3.417908
2093.000000;3.403752
2092.000000;3.434692
2091.000000;3.510023
2090.000000;3.856993
2089.000000;3.886832
2088.000000;3.459229
2087.000000;3.381496
2086.000000;3.314308
2085.000000;3.233505
2084.000000;3.146453
2083.000000;3.128837
2082.000000;3.146458
2081.000000;3.170202
2080.000000;3.265152
2079.000000;3.467678
2078.000000;3.702665
2077.000000;3.607109
2076.000000;3.438904
2075.000000;3.303153
2074.000000;3.208675
2073.000000;3.270657
2072.000000;3.487204
2071.000000;3.557693
2070.000000;3.475368
2069.000000;3.425672
2068.000000;3.407708
2067.000000;3.337950
2066.000000;3.301325
2065.000000;3.359951
2064.000000;3.380698
2063.000000;3.327249
2062.000000;3.318740
2061.000000;3.415182
2060.000000;3.586868
2059.000000;3.640078
2058.000000;3.664420
2057.000000;3.643431
2056.000000;3.414476
2055.000000;3.276319
2054.000000;3.306534
2053.000000;3.494062
2052.000000;3.785382
2051.000000;3.843795
2050.000000;3.706956
2049.000000;3.657857
2048.000000;3.375157
2047.000000;3.234532
2046.000000;3.235569
2045.000000;3.300937
2044.000000;3.457211
2043.000000;3.820767
2042.000000;4.019573
2041.000000;3.427611
2040.000000;3.207576
2039.000000;3.178585
2038.000000;3.326218
2037.000000;3.672614
2036.000000;3.593653
2035.000000;3.343218
2034.000000;3.364973
2033.000000;3.626580
2032.000000;3.626672
2031.000000;3.657792
2030.000000;3.688612
2029.000000;3.385152
2028.000000;3.283045
2027.000000;3.292089
2026.000000;3.362708
2025.000000;3.909059
2024.000000;3.705471
2023.000000;3.361221
2022.000000;3.299727
2021.000000;3.279427
2020.000000;3.321634
2019.000000;3.414040
2018.000000;3.447813
2017.000000;3.562334
2016.000000;3.583337
2015.000000;3.525482
2014.000000;3.626781
2013.000000;3.694064
2012.000000;3.663610
2011.000000;3.508374
2010.000000;3.380906
2009.000000;3.445212
2008.000000;3.671025
2007.000000;3.770261
2006.000000;3.766456
2005.000000;3.587801
2004.000000;3.302846
2003.000000;3.240959
2002.000000;3.371594
2001.000000;3.670899
2000.000000;3.822931
1999.000000;3.733850
1998.000000;3.682464
1997.000000;3.797813
1996.000000;3.673404
1995.000000;3.439880
1994.000000;3.304040
1993.000000;3.231769
1992.000000;3.215201
1991.000000;3.259255
1990.000000;3.429604
1989.000000;3.797699
1988.000000;3.726759
1987.000000;3.619082
1986.000000;3.432867
1985.000000;3.451249
1984.000000;3.546634
1983.000000;3.421723
1982.000000;3.328085
1981.000000;3.331454
1980.000000;3.553648
1979.000000;3.838221
1978.000000;3.413782
1977.000000;3.219581
1976.000000;3.205564
1975.000000;3.243858
1974.000000;3.279856
1973.000000;3.310953
1972.000000;3.361116
1971.000000;3.402326
1970.000000;3.359191
1969.000000;3.331497
1968.000000;3.366807
1967.000000;3.364512
1966.000000;3.362237
1965.000000;3.485400
1964.000000;3.615595
1963.000000;3.514793
1962.000000;3.201989
1961.000000;3.061195
1960.000000;3.087388
1959.000000;3.233661
1958.000000;3.420435
1957.000000;3.433271
1956.000000;3.272189
1955.000000;3.151218
1954.000000;3.143009
1953.000000;3.247312
1952.000000;3.374319
1951.000000;3.263148
1950.000000;3.097926
1949.000000;3.096817
1948.000000;3.219675
1947.000000;3.362036
1946.000000;3.489322
1945.000000;3.787259
1944.000000;3.739340
1943.000000;3.254979
1942.000000;3.031032
1941.000000;3.040983
1940.000000;3.364360
1939.000000;3.669183
1938.000000;3.320749
1937.000000;3.261692
1936.000000;3.403414
1935.000000;3.542483
1934.000000;3.299437
1933.000000;3.222167
1932.000000;3.270217
1931.000000;3.352506
1930.000000;3.497789
1929.000000;3.438876
1928.000000;3.224436
1927.000000;3.208683
1926.000000;3.375608
1925.000000;3.493235
1924.000000;3.407145
1923.000000;3.370024
1922.000000;3.336580
1921.000000;3.357222
1920.000000;3.436523
1919.000000;3.392455
1918.000000;3.300083
1917.000000;3.272115
1916.000000;3.267261
1915.000000;3.261966
1914.000000;3.307879
1913.000000;3.682737
1912.000000;3.546886
1911.000000;3.271137
1910.000000;3.269633
1909.000000;3.329160
1908.000000;3.366690
1907.000000;3.394651
1906.000000;3.410066
1905.000000;3.459319
1904.000000;3.628501
1903.000000;3.766468
1902.000000;3.587253
1901.000000;3.468806
1900.000000;3.432458
1899.000000;3.381860
1898.000000;3.346636
1897.000000;3.328464
1896.000000;3.314078
1895.000000;3.308892
1894.000000;3.263473
1893.000000;3.199570
1892.000000;3.154432
1891.000000;3.152805
1890.000000;3.217245
1889.000000;3.420667
1888.000000;4.093322
1887.000000;3.633545
1886.000000;3.310886
1885.000000;3.384350
1884.000000;3.872174
1883.000000;3.666652
1882.000000;3.479569
1881.000000;3.353729
1880.000000;3.149238
1879.000000;3.151316
1878.000000;3.304186
1877.000000;3.431288
1876.000000;3.768051
1875.000000;3.744029
1874.000000;3.270227
1873.000000;3.197824
1872.000000;3.266372
1871.000000;3.456300
1870.000000;3.566691
1869.000000;3.269167
1868.000000;3.054267
1867.000000;2.991591
1866.000000;3.016934
1865.000000;3.079676
1864.000000;3.172042
1863.000000;3.277295
1862.000000;3.421612
1861.000000;3.804945
1860.000000;4.343573
1859.000000;3.784951
1858.000000;3.416108
1857.000000;3.299492
1856.000000;3.312580
1855.000000;3.380322
1854.000000;3.500250
1853.000000;3.603077
1852.000000;3.500730
1851.000000;3.437847
1850.000000;3.515692
1849.000000;3.602290
1848.000000;3.926075
1847.000000;4.198409
1846.000000;3.616548
1845.000000;3.663175
1844.000000;3.730740
1843.000000;3.464087
1842.000000;3.487051
1841.000000;3.369465
1840.000000;3.128139
1839.000000;3.130888
1838.000000;3.312850
1837.000000;3.465090
1836.000000;3.539907
1835.000000;3.872006
1834.000000;3.389645
1833.000000;3.115642
1832.000000;3.118891
1831.000000;3.305275
1830.000000;3.552911
1829.000000;3.269907
1828.000000;3.054626
1827.000000;3.054004
1826.000000;3.201346
1825.000000;3.288693
1824.000000;3.177222
1823.000000;3.087189
1822.000000;3.144158
1821.000000;3.256184
1820.000000;3.244671
1819.000000;3.232504
1818.000000;3.316808
1817.000000;3.747851
1816.000000;3.979505
1815.000000;3.441160
1814.000000;3.341744
1813.000000;3.400507
1812.000000;3.371821
1811.000000;3.224017
1810.000000;3.176102
1809.000000;3.284388
1808.000000;3.435323
1807.000000;3.439916
1806.000000;3.380850
1805.000000;3.171086
1804.000000;3.007621
1803.000000;3.003311
1802.000000;3.088007
1801.000000;3.156328
1800.000000;3.190853
1799.000000;3.340086
1798.000000;3.642058
1797.000000;3.707726
1796.000000;3.517933
1795.000000;3.322932
1794.000000;3.191617
1793.000000;3.141297
1792.000000;3.112420
1791.000000;3.052741
1790.000000;3.005369
1789.000000;3.043663
1788.000000;3.155544
1787.000000;3.270693
1786.000000;3.309183
1785.000000;3.174023
1784.000000;3.076835
1783.000000;3.180128
1782.000000;3.527318
1781.000000;3.831102
1780.000000;3.395680
1779.000000;3.185883
1778.000000;3.227710
1777.000000;3.349403
1776.000000;3.387745
1775.000000;3.421472
1774.000000;3.431763
1773.000000;3.409633
1772.000000;3.410143
1771.000000;3.379620
1770.000000;3.317162
1769.000000;3.259681
1768.000000;3.278203
1767.000000;3.318441
1766.000000;3.226271
1765.000000;3.125969
1764.000000;3.096895
1763.000000;3.117476
1762.000000;3.178629
1761.000000;3.278827
1760.000000;3.347757
1759.000000;3.350136
1758.000000;3.336197
1757.000000;3.239886
1756.000000;3.133434
1755.000000;3.109356
1754.000000;3.241441
1753.000000;3.660287
1752.000000;4.092424
1751.000000;3.590487
1750.000000;3.403105
1749.000000;3.661063
1748.000000;3.556313
1747.000000;3.187591
1746.000000;3.075957
1745.000000;3.000448
1744.000000;2.953652
1743.000000;2.983583
1742.000000;3.074927
1741.000000;3.115731
1740.000000;3.068539
1739.000000;3.025362
1738.000000;3.008078
1737.000000;3.064530
1736.000000;3.198873
1735.000000;3.288517
1734.000000;3.267135
1733.000000;3.130088
1732.000000;2.958428
1731.000000;2.841037
1730.000000;2.797971
1729.000000;2.837492
1728.000000;2.959831
1727.000000;3.160706
1726.000000;3.358600
1725.000000;3.401155
1724.000000;3.345184
1723.000000;3.362133
1722.000000;3.538251
1721.000000;3.663146
1720.000000;3.490141
1719.000000;3.481213
1718.000000;3.760268
1717.000000;3.583069
1716.000000;3.191390
1715.000000;3.079426
1714.000000;3.288332
1713.000000;3.749974
1712.000000;3.532343
1711.000000;3.346007
1710.000000;3.210875
1709.000000;3.117878
1708.000000;3.161543
1707.000000;3.282586
1706.000000;3.498483
1705.000000;3.811486
1704.000000;3.849594
1703.000000;3.632595
1702.000000;3.524502
1701.000000;3.533504
1700.000000;3.541622
1699.000000;3.386248
1698.000000;3.312155
1697.000000;3.512761
1696.000000;4.014566
1695.000000;3.815548
1694.000000;3.313387
1693.000000;3.053248
1692.000000;2.989353
1691.000000;3.064862
1690.000000;3.146738
1689.000000;3.170227
1688.000000;3.224990
1687.000000;3.239078
1686.000000;3.185260
1685.000000;3.188802
1684.000000;3.267010
1683.000000;3.423950
1682.000000;3.513719
1681.000000;3.381700
1680.000000;3.290799
1679.000000;3.370782
1678.000000;3.664255
1677.000000;3.919242
1676.000000;3.824781
1675.000000;3.800605
1674.000000;3.676222
1673.000000;3.572472
1672.000000;3.569151
1671.000000;3.679969
1670.000000;3.707769
1669.000000;3.480978
1668.000000;3.363385
1667.000000;3.386378
1666.000000;3.346977
1665.000000;3.153494
1664.000000;3.024923
1663.000000;3.000690
1662.000000;3.021499
1661.000000;3.057885
1660.000000;3.085986
1659.000000;3.096801
1658.000000;3.122498
1657.000000;3.185972
1656.000000;3.274758
1655.000000;3.297726
1654.000000;3.305338
1653.000000;3.459558
1652.000000;3.837603
1651.000000;4.165576
1650.000000;3.739266
1649.000000;3.625886
1648.000000;3.776403
1647.000000;3.930540
1646.000000;3.960040
1645.000000;3.590819
1644.000000;3.273477
1643.000000;3.157272
1642.000000;3.158204
1641.000000;3.177995
1640.000000;3.190838
1639.000000;3.131366
1638.000000;3.057791
1637.000000;3.075344
1636.000000;3.162480
1635.000000;3.249075
1634.000000;3.231759
1633.000000;3.147560
1632.000000;3.078131
1631.000000;3.037374
1630.000000;3.044747
1629.000000;3.188796
1628.000000;3.592102
1627.000000;3.784693
1626.000000;3.676667
1625.000000;3.750609
1624.000000;3.491200
1623.000000;3.244618
1622.000000;3.127370
1621.000000;3.050245
1620.000000;3.002687
1619.000000;3.032499
1618.000000;3.110551
1617.000000;3.141442
1616.000000;3.164028
1615.000000;3.304327
1614.000000;3.461926
1613.000000;3.445079
1612.000000;3.460639
1611.000000;3.497129
1610.000000;3.446274
1609.000000;3.359811
1608.000000;3.319150
1607.000000;3.284157
1606.000000;3.172779
1605.000000;3.108827
1604.000000;3.132632
1603.000000;3.184232
1602.000000;3.445371
1601.000000;3.506629
1600.000000;3.152159
1599.000000;3.108240
1598.000000;3.220417
1597.000000;3.266830
1596.000000;3.277932
1595.000000;3.323626
1594.000000;3.387453
1593.000000;3.348113
1592.000000;3.288162
1591.000000;3.333537
1590.000000;3.411819
1589.000000;3.404741
1588.000000;3.292633
1587.000000;3.278313
1586.000000;3.387597
1585.000000;3.374572
1584.000000;3.363354
1583.000000;3.443470
1582.000000;3.379493
1581.000000;3.250948
1580.000000;3.281245
1579.000000;3.595705
1578.000000;3.803513
1577.000000;3.564651
1576.000000;3.495603
1575.000000;3.441243
1574.000000;3.341790
1573.000000;3.319426
1572.000000;3.382427
1571.000000;3.334730
1570.000000;3.257205
1569.000000;3.292502
1568.000000;3.294181
1567.000000;3.259701
1566.000000;3.245394
1565.000000;3.320740
1564.000000;3.741151
1563.000000;3.606527
1562.000000;3.268177
1561.000000;3.297492
1560.000000;3.379726
1559.000000;3.390851
1558.000000;3.389932
1557.000000;3.381895
1556.000000;3.429624
1555.000000;3.632159
1554.000000;3.903678
1553.000000;3.989021
1552.000000;3.745746
1551.000000;3.569817
1550.000000;3.477180
1549.000000;3.371810
1548.000000;3.717980
1547.000000;3.472920
1546.000000;3.081440
1545.000000;3.092405
1544.000000;3.185953
1543.000000;3.247922
1542.000000;3.281847
1541.000000;3.384074
1540.000000;3.667087
1539.000000;3.833164
1538.000000;3.418355
1537.000000;3.425103
1536.000000;3.768096
1535.000000;3.469533
1534.000000;3.317636
1533.000000;3.279895
1532.000000;3.217982
1531.000000;3.066279
1530.000000;3.125409
1529.000000;3.571432
1528.000000;3.299235
1527.000000;3.055522
1526.000000;3.096705
1525.000000;3.204854
1524.000000;3.240002
1523.000000;3.174295
1522.000000;3.122635
1521.000000;3.086024
1520.000000;3.102005
1519.000000;3.195898
1518.000000;3.268804
1517.000000;3.404922
1516.000000;3.743517
1515.000000;3.592618
1514.000000;3.317498
1513.000000;3.264113
1512.000000;3.276032
1511.000000;3.335373
1510.000000;3.307437
1509.000000;3.047996
1508.000000;2.869380
1507.000000;2.815645
1506.000000;2.820153
1505.000000;2.868739
1504.000000;2.949886
1503.000000;2.976830
1502.000000;2.949640
1501.000000;2.993921
1500.000000;3.094621
1499.000000;3.213729
1498.000000;3.393621
1497.000000;3.469718
1496.000000;3.296217
1495.000000;3.203465
1494.000000;3.437135
1493.000000;3.477123
1492.000000;3.189445
1491.000000;3.126804
1490.000000;3.136997
1489.000000;3.218175
1488.000000;3.231849
1487.000000;3.221619
1486.000000;3.209552
1485.000000;3.323974
1484.000000;3.935116
1483.000000;3.393584
1482.000000;3.078293
1481.000000;3.083619
1480.000000;3.214783
1479.000000;3.338881
1478.000000;3.314747
1477.000000;3.301811
1476.000000;3.301137
1475.000000;3.197108
1474.000000;3.097047
1473.000000;3.136902
1472.000000;3.377152
1471.000000;3.569007
1470.000000;3.318843
1469.000000;3.165228
1468.000000;3.129470
1467.000000;3.195235
1466.000000;3.279222
1465.000000;3.238563
1464.000000;3.174471
1463.000000;3.199229
1462.000000;3.390751
1461.000000;3.476305
1460.000000;3.392013
1459.000000;3.331234
1458.000000;3.223172
1457.000000;3.217424
1456.000000;3.400665
1455.000000;3.821498
1454.000000;3.722723
1453.000000;3.610736
1452.000000;3.493415
1451.000000;3.155940
1450.000000;3.041635
1449.000000;3.164014
1448.000000;3.534010
1447.000000;3.977696
1446.000000;3.626031
1445.000000;3.260002
1444.000000;3.251852
1443.000000;3.452415
1442.000000;3.172966
1441.000000;2.963062
1440.000000;2.961370
1439.000000;2.969588
1438.000000;2.957805
1437.000000;2.956012
1436.000000;3.008108
1435.000000;3.194626
1434.000000;3.087972
1433.000000;2.901387
1432.000000;2.873479
1431.000000;2.861314
1430.000000;2.858888
1429.000000;2.852884
1428.000000;2.796861
1427.000000;2.767941
1426.000000;2.860496
1425.000000;3.092117
1424.000000;3.074132
1423.000000;2.861768
1422.000000;2.782922
1421.000000;2.755078
1420.000000;2.755841
1419.000000;2.817226
1418.000000;2.963633
1417.000000;3.370051
1416.000000;3.520140
1415.000000;3.178872
1414.000000;3.093012
1413.000000;3.053336
1412.000000;3.034175
1411.000000;3.045734
1410.000000;3.156831
1409.000000;3.284962
1408.000000;3.199283
1407.000000;3.005518
1406.000000;2.862551
1405.000000;2.847749
1404.000000;2.902609
1403.000000;2.935128
1402.000000;3.004103
1401.000000;3.086356
1400.000000;3.073367
1399.000000;3.041210
1398.000000;3.065032
1397.000000;3.100405
1396.000000;3.112664
1395.000000;3.170440
1394.000000;3.216978
1393.000000;3.214511
1392.000000;3.256743
1391.000000;3.623335
1390.000000;3.752028
1389.000000;3.262401
1388.000000;3.116261
1387.000000;2.942111
1386.000000;2.825499
1385.000000;2.838131
1384.000000;3.026187
1383.000000;3.719362
1382.000000;3.657003
1381.000000;3.312849
1380.000000;3.471981
1379.000000;3.270140
1378.000000;3.010026
1377.000000;2.929003
1376.000000;2.956478
1375.000000;2.996191
1374.000000;3.003103
1373.000000;3.072658
1372.000000;3.380715
1371.000000;3.645380
1370.000000;3.465262
1369.000000;3.674943
1368.000000;3.746059
1367.000000;3.679842
1366.000000;3.968364
1365.000000;3.545749
1364.000000;3.193833
1363.000000;3.206527
1362.000000;3.228123
1361.000000;2.844506
1360.000000;2.647178
1359.000000;2.673040
1358.000000;2.868593
1357.000000;3.180250
1356.000000;3.211928
1355.000000;2.979836
1354.000000;2.865333
1353.000000;2.967844
1352.000000;3.242042
1351.000000;3.317040
1350.000000;3.526004
1349.000000;4.040181
1348.000000;3.591546
1347.000000;3.466264
1346.000000;3.363986
1345.000000;3.228418
1344.000000;3.106934
1343.000000;2.947337
1342.000000;2.860887
1341.000000;2.878615
1340.000000;3.097143
1339.000000;3.285035
1338.000000;2.774939
1337.000000;2.607451
1336.000000;2.633346
1335.000000;2.717893
1334.000000;2.787171
1333.000000;2.823960
1332.000000;2.821853
1331.000000;2.801360
1330.000000;2.846117
1329.000000;2.972286
1328.000000;3.187398
1327.000000;3.403063
1326.000000;3.306462
1325.000000;3.103567
1324.000000;3.037842
1323.000000;3.095742
1322.000000;3.042683
1321.000000;2.926797
1320.000000;2.915520
1319.000000;2.994293
1318.000000;3.107412
1317.000000;3.209690
1316.000000;3.310378
1315.000000;3.390500
1314.000000;3.412545
1313.000000;3.397753
1312.000000;3.422999
1311.000000;3.453718
1310.000000;3.367807
1309.000000;3.325274
1308.000000;3.491878
1307.000000;3.453873
1306.000000;3.052488
1305.000000;2.798046
1304.000000;2.679247
1303.000000;2.701795
1302.000000;2.856016
1301.000000;3.111387
1300.000000;3.477274
1299.000000;3.851680
1298.000000;3.541685
1297.000000;3.200399
1296.000000;2.961074
1295.000000;2.834861
1294.000000;2.810970
1293.000000;2.959815
1292.000000;3.403363
1291.000000;3.106840
1290.000000;2.891476
1289.000000;2.816643
1288.000000;2.758997
1287.000000;2.749325
1286.000000;2.767182
1285.000000;2.773635
1284.000000;2.788814
1283.000000;2.823322
1282.000000;2.839520
1281.000000;2.848449
1280.000000;2.901977
1279.000000;3.203515
1278.000000;3.300197
1277.000000;2.939565
1276.000000;2.823375
1275.000000;2.791178
1274.000000;2.804750
1273.000000;2.856084
1272.000000;2.910313
1271.000000;2.973202
1270.000000;3.069786
1269.000000;3.134773
1268.000000;3.042672
1267.000000;2.914544
1266.000000;2.876375
1265.000000;3.004946
1264.000000;3.341359
1263.000000;3.166258
1262.000000;2.972526
1261.000000;2.914907
1260.000000;2.868097
1259.000000;2.845253
1258.000000;2.871781
1257.000000;2.903057
1256.000000;2.920932
1255.000000;2.924849
1254.000000;2.869956
1253.000000;2.819994
1252.000000;2.764405
1251.000000;2.754815
1250.000000;2.852460
1249.000000;3.011040
1248.000000;3.192136
1247.000000;3.294476
1246.000000;3.103636
1245.000000;2.904676
1244.000000;2.820175
1243.000000;2.841077
1242.000000;2.921290
1241.000000;3.071102
1240.000000;3.220616
1239.000000;3.053644
1238.000000;2.922174
1237.000000;2.879081
1236.000000;2.924721
1235.000000;3.130647
1234.000000;3.429922
1233.000000;3.362605
1232.000000;3.505212
1231.000000;3.896186
1230.000000;3.254918
1229.000000;3.028755
1228.000000;3.028851
1227.000000;3.089644
1226.000000;3.242312
1225.000000;3.417101
1224.000000;3.096676
1223.000000;2.879813
1222.000000;2.831128
1221.000000;2.869928
1220.000000;2.984852
1219.000000;3.136154
1218.000000;3.219002
1217.000000;3.160374
1216.000000;3.049819
1215.000000;2.936435
1214.000000;2.820504
1213.000000;2.738012
1212.000000;2.731904
1211.000000;2.808603
1210.000000;2.905123
1209.000000;2.924497
1208.000000;2.895591
1207.000000;2.918480
1206.000000;2.961532
1205.000000;2.918472
1204.000000;2.869756
1203.000000;2.930713
1202.000000;3.114865
1201.000000;3.539110
1200.000000;3.535101
