Criado como novo conjunto de dados;"e2410_daniel_v2.spp","64625.2 Secs"
cm-1;Abs
10000.000000;1.228327
9999.000000;1.227635
9998.000000;1.226944
9997.000000;1.226254
9996.000000;1.225565
9995.000000;1.224877
9994.000000;1.224193
9993.000000;1.223503
9992.000000;1.222827
9991.000000;1.222127
9990.000000;1.221474
9989.000000;1.220713
9988.000000;1.220273
9987.000000;1.220216
9986.000000;1.219559
9985.000000;1.217965
9984.000000;1.216241
9983.000000;1.215462
9982.000000;1.215748
9981.000000;1.216358
9980.000000;1.216565
9979.000000;1.216151
9978.000000;1.215339
9977.000000;1.214609
9976.000000;1.214382
9975.000000;1.214578
9974.000000;1.214609
9973.000000;1.214058
9972.000000;1.213188
9971.000000;1.212549
9970.000000;1.212248
9969.000000;1.211913
9968.000000;1.211327
9967.000000;1.210747
9966.000000;1.210493
9965.000000;1.210393
9964.000000;1.209798
9963.000000;1.208231
9962.000000;1.206080
9961.000000;1.204503
9960.000000;1.204437
9959.000000;1.205664
9958.000000;1.206971
9957.000000;1.207270
9956.000000;1.206429
9955.000000;1.205062
9954.000000;1.203842
9953.000000;1.203137
9952.000000;1.202934
9951.000000;1.202839
9950.000000;1.202285
9949.000000;1.201044
9948.000000;1.199489
9947.000000;1.198261
9946.000000;1.197720
9945.000000;1.197749
9944.000000;1.197911
9943.000000;1.197748
9942.000000;1.197079
9941.000000;1.196160
9940.000000;1.195431
9939.000000;1.195050
9938.000000;1.194756
9937.000000;1.194232
9936.000000;1.193475
9935.000000;1.192771
9934.000000;1.192445
9933.000000;1.192652
9932.000000;1.193205
9931.000000;1.193567
9930.000000;1.193209
9929.000000;1.192124
9928.000000;1.190849
9927.000000;1.189936
9926.000000;1.189530
9925.000000;1.189448
9924.000000;1.189416
9923.000000;1.189183
9922.000000;1.188622
9921.000000;1.187866
9920.000000;1.187192
9919.000000;1.186636
9918.000000;1.185867
9917.000000;1.184528
9916.000000;1.182641
9915.000000;1.180690
9914.000000;1.179381
9913.000000;1.179228
9912.000000;1.180090
9911.000000;1.181115
9910.000000;1.181419
9909.000000;1.180896
9908.000000;1.180138
9907.000000;1.179550
9906.000000;1.178914
9905.000000;1.177925
9904.000000;1.176802
9903.000000;1.176106
9902.000000;1.176122
9901.000000;1.176596
9900.000000;1.176955
9899.000000;1.176714
9898.000000;1.175841
9897.000000;1.174840
9896.000000;1.174312
9895.000000;1.174361
9894.000000;1.174537
9893.000000;1.174338
9892.000000;1.173560
9891.000000;1.172241
9890.000000;1.170637
9889.000000;1.169310
9888.000000;1.168818
9887.000000;1.169079
9886.000000;1.169348
9885.000000;1.169017
9884.000000;1.168202
9883.000000;1.167360
9882.000000;1.166674
9881.000000;1.166104
9880.000000;1.165689
9879.000000;1.165422
9878.000000;1.165054
9877.000000;1.164399
9876.000000;1.163689
9875.000000;1.163270
9874.000000;1.163065
9873.000000;1.162702
9872.000000;1.162080
9871.000000;1.161409
9870.000000;1.160715
9869.000000;1.159752
9868.000000;1.158497
9867.000000;1.157391
9866.000000;1.156887
9865.000000;1.156973
9864.000000;1.157254
9863.000000;1.157344
9862.000000;1.157045
9861.000000;1.156328
9860.000000;1.155338
9859.000000;1.154356
9858.000000;1.153627
9857.000000;1.153195
9856.000000;1.152954
9855.000000;1.152798
9854.000000;1.152659
9853.000000;1.152461
9852.000000;1.152165
9851.000000;1.151905
9850.000000;1.151935
9849.000000;1.152321
9848.000000;1.152736
9847.000000;1.152684
9846.000000;1.151988
9845.000000;1.150931
9844.000000;1.149909
9843.000000;1.149116
9842.000000;1.148611
9841.000000;1.148458
9840.000000;1.148561
9839.000000;1.148514
9838.000000;1.147936
9837.000000;1.146940
9836.000000;1.145988
9835.000000;1.145313
9834.000000;1.144796
9833.000000;1.144402
9832.000000;1.144313
9831.000000;1.144482
9830.000000;1.144443
9829.000000;1.143865
9828.000000;1.143012
9827.000000;1.142297
9826.000000;1.141629
9825.000000;1.140594
9824.000000;1.139137
9823.000000;1.137660
9822.000000;1.136445
9821.000000;1.135429
9820.000000;1.134595
9819.000000;1.134172
9818.000000;1.134220
9817.000000;1.134380
9816.000000;1.134287
9815.000000;1.134033
9814.000000;1.133910
9813.000000;1.133841
9812.000000;1.133427
9811.000000;1.132550
9810.000000;1.131604
9809.000000;1.131019
9808.000000;1.130780
9807.000000;1.130537
9806.000000;1.130002
9805.000000;1.129105
9804.000000;1.127941
9803.000000;1.126792
9802.000000;1.126112
9801.000000;1.126215
9800.000000;1.126926
9799.000000;1.127698
9798.000000;1.128068
9797.000000;1.127937
9796.000000;1.127410
9795.000000;1.126556
9794.000000;1.125426
9793.000000;1.124194
9792.000000;1.123155
9791.000000;1.122585
9790.000000;1.122514
9789.000000;1.122594
9788.000000;1.122315
9787.000000;1.121541
9786.000000;1.120756
9785.000000;1.120502
9784.000000;1.120617
9783.000000;1.120351
9782.000000;1.119315
9781.000000;1.117997
9780.000000;1.117150
9779.000000;1.116970
9778.000000;1.117088
9777.000000;1.117134
9776.000000;1.116993
9775.000000;1.116662
9774.000000;1.116179
9773.000000;1.115675
9772.000000;1.115236
9771.000000;1.114700
9770.000000;1.113778
9769.000000;1.112470
9768.000000;1.111207
9767.000000;1.110514
9766.000000;1.110584
9765.000000;1.111113
9764.000000;1.111506
9763.000000;1.111306
9762.000000;1.110527
9761.000000;1.109557
9760.000000;1.108733
9759.000000;1.108119
9758.000000;1.107664
9757.000000;1.107320
9756.000000;1.106911
9755.000000;1.106134
9754.000000;1.104906
9753.000000;1.103559
9752.000000;1.102537
9751.000000;1.102003
9750.000000;1.101848
9749.000000;1.101878
9748.000000;1.101834
9747.000000;1.101465
9746.000000;1.100813
9745.000000;1.100255
9744.000000;1.100037
9743.000000;1.099947
9742.000000;1.099702
9741.000000;1.099421
9740.000000;1.099372
9739.000000;1.099418
9738.000000;1.099106
9737.000000;1.098280
9736.000000;1.097284
9735.000000;1.096590
9734.000000;1.096457
9733.000000;1.096857
9732.000000;1.097401
9731.000000;1.097403
9730.000000;1.096424
9729.000000;1.094809
9728.000000;1.093411
9727.000000;1.092749
9726.000000;1.092669
9725.000000;1.092738
9724.000000;1.092645
9723.000000;1.092255
9722.000000;1.091633
9721.000000;1.091095
9720.000000;1.090931
9719.000000;1.090995
9718.000000;1.090830
9717.000000;1.090254
9716.000000;1.089517
9715.000000;1.088826
9714.000000;1.088061
9713.000000;1.087100
9712.000000;1.086128
9711.000000;1.085420
9710.000000;1.085021
9709.000000;1.084768
9708.000000;1.084501
9707.000000;1.084139
9706.000000;1.083728
9705.000000;1.083455
9704.000000;1.083413
9703.000000;1.083316
9702.000000;1.082710
9701.000000;1.081598
9700.000000;1.080587
9699.000000;1.080221
9698.000000;1.080388
9697.000000;1.080547
9696.000000;1.080352
9695.000000;1.079849
9694.000000;1.079189
9693.000000;1.078433
9692.000000;1.077620
9691.000000;1.076877
9690.000000;1.076348
9689.000000;1.076066
9688.000000;1.075869
9687.000000;1.075480
9686.000000;1.074754
9685.000000;1.073856
9684.000000;1.073113
9683.000000;1.072695
9682.000000;1.072541
9681.000000;1.072563
9680.000000;1.072729
9679.000000;1.072919
9678.000000;1.072889
9677.000000;1.072490
9676.000000;1.071800
9675.000000;1.070979
9674.000000;1.070094
9673.000000;1.069167
9672.000000;1.068288
9671.000000;1.067577
9670.000000;1.067075
9669.000000;1.066724
9668.000000;1.066412
9667.000000;1.066046
9666.000000;1.065637
9665.000000;1.065296
9664.000000;1.065081
9663.000000;1.064880
9662.000000;1.064561
9661.000000;1.064193
9660.000000;1.063950
9659.000000;1.063781
9658.000000;1.063349
9657.000000;1.062364
9656.000000;1.060925
9655.000000;1.059504
9654.000000;1.058655
9653.000000;1.058646
9652.000000;1.059200
9651.000000;1.059590
9650.000000;1.059207
9649.000000;1.058117
9648.000000;1.056985
9647.000000;1.056403
9646.000000;1.056376
9645.000000;1.056465
9644.000000;1.056270
9643.000000;1.055766
9642.000000;1.055261
9641.000000;1.055079
9640.000000;1.055205
9639.000000;1.055251
9638.000000;1.054815
9637.000000;1.053872
9636.000000;1.052767
9635.000000;1.051859
9634.000000;1.051254
9633.000000;1.050861
9632.000000;1.050622
9631.000000;1.050619
9630.000000;1.050957
9629.000000;1.051479
9628.000000;1.051661
9627.000000;1.050972
9626.000000;1.049428
9625.000000;1.047651
9624.000000;1.046298
9623.000000;1.045566
9622.000000;1.045305
9621.000000;1.045354
9620.000000;1.045554
9619.000000;1.045641
9618.000000;1.045412
9617.000000;1.044920
9616.000000;1.044332
9615.000000;1.043702
9614.000000;1.043081
9613.000000;1.042640
9612.000000;1.042424
9611.000000;1.042137
9610.000000;1.041514
9609.000000;1.040765
9608.000000;1.040286
9607.000000;1.040022
9606.000000;1.039529
9605.000000;1.038680
9604.000000;1.037881
9603.000000;1.037516
9602.000000;1.037533
9601.000000;1.037650
9600.000000;1.037628
9599.000000;1.037230
9598.000000;1.036288
9597.000000;1.035015
9596.000000;1.033967
9595.000000;1.033497
9594.000000;1.033449
9593.000000;1.033506
9592.000000;1.033578
9591.000000;1.033634
9590.000000;1.033417
9589.000000;1.032626
9588.000000;1.031312
9587.000000;1.029916
9586.000000;1.028947
9585.000000;1.028726
9584.000000;1.029249
9583.000000;1.030089
9582.000000;1.030535
9581.000000;1.030117
9580.000000;1.029046
9579.000000;1.028025
9578.000000;1.027582
9577.000000;1.027648
9576.000000;1.027777
9575.000000;1.027679
9574.000000;1.027457
9573.000000;1.027328
9572.000000;1.027223
9571.000000;1.026854
9570.000000;1.026174
9569.000000;1.025561
9568.000000;1.025349
9567.000000;1.025339
9566.000000;1.025021
9565.000000;1.024232
9564.000000;1.023308
9563.000000;1.022585
9562.000000;1.022035
9561.000000;1.021468
9560.000000;1.020830
9559.000000;1.020181
9558.000000;1.019584
9557.000000;1.019155
9556.000000;1.019077
9555.000000;1.019400
9554.000000;1.019911
9553.000000;1.020288
9552.000000;1.020303
9551.000000;1.019853
9550.000000;1.018984
9549.000000;1.017984
9548.000000;1.017282
9547.000000;1.017042
9546.000000;1.016912
9545.000000;1.016341
9544.000000;1.015197
9543.000000;1.013973
9542.000000;1.013319
9541.000000;1.013417
9540.000000;1.013830
9539.000000;1.013961
9538.000000;1.013615
9537.000000;1.013044
9536.000000;1.012505
9535.000000;1.011972
9534.000000;1.011353
9533.000000;1.010768
9532.000000;1.010406
9531.000000;1.010220
9530.000000;1.010005
9529.000000;1.009696
9528.000000;1.009344
9527.000000;1.008850
9526.000000;1.008030
9525.000000;1.007013
9524.000000;1.006280
9523.000000;1.006165
9522.000000;1.006482
9521.000000;1.006746
9520.000000;1.006638
9519.000000;1.006126
9518.000000;1.005325
9517.000000;1.004385
9516.000000;1.003468
9515.000000;1.002672
9514.000000;1.001992
9513.000000;1.001390
9512.000000;1.000894
9511.000000;1.000560
9510.000000;1.000374
9509.000000;1.000252
9508.000000;1.000106
9507.000000;0.999904
9506.000000;0.999691
9505.000000;0.999531
9504.000000;0.999411
9503.000000;0.999204
9502.000000;0.998804
9501.000000;0.998253
9500.000000;0.997691
9499.000000;0.997209
9498.000000;0.996819
9497.000000;0.996518
9496.000000;0.996284
9495.000000;0.996024
9494.000000;0.995641
9493.000000;0.995124
9492.000000;0.994528
9491.000000;0.993901
9490.000000;0.993305
9489.000000;0.992845
9488.000000;0.992552
9487.000000;0.992293
9486.000000;0.991915
9485.000000;0.991435
9484.000000;0.990978
9483.000000;0.990606
9482.000000;0.990357
9481.000000;0.990362
9480.000000;0.990702
9479.000000;0.991158
9478.000000;0.991289
9477.000000;0.990802
9476.000000;0.989768
9475.000000;0.988480
9474.000000;0.987270
9473.000000;0.986416
9472.000000;0.986023
9471.000000;0.985928
9470.000000;0.985824
9469.000000;0.985526
9468.000000;0.985035
9467.000000;0.984409
9466.000000;0.983723
9465.000000;0.983138
9464.000000;0.982814
9463.000000;0.982720
9462.000000;0.982671
9461.000000;0.982567
9460.000000;0.982455
9459.000000;0.982307
9458.000000;0.981942
9457.000000;0.981248
9456.000000;0.980384
9455.000000;0.979643
9454.000000;0.979182
9453.000000;0.978922
9452.000000;0.978649
9451.000000;0.978179
9450.000000;0.977483
9449.000000;0.976721
9448.000000;0.976103
9447.000000;0.975741
9446.000000;0.975640
9445.000000;0.975796
9444.000000;0.976174
9443.000000;0.976574
9442.000000;0.976617
9441.000000;0.975990
9440.000000;0.974783
9439.000000;0.973549
9438.000000;0.972936
9437.000000;0.973104
9436.000000;0.973511
9435.000000;0.973421
9434.000000;0.972698
9433.000000;0.971957
9432.000000;0.971817
9431.000000;0.972188
9430.000000;0.972410
9429.000000;0.971983
9428.000000;0.970999
9427.000000;0.969928
9426.000000;0.969165
9425.000000;0.968740
9424.000000;0.968325
9423.000000;0.967574
9422.000000;0.966560
9421.000000;0.965800
9420.000000;0.965729
9419.000000;0.966236
9418.000000;0.966826
9417.000000;0.967112
9416.000000;0.967000
9415.000000;0.966539
9414.000000;0.965848
9413.000000;0.965174
9412.000000;0.964766
9411.000000;0.964667
9410.000000;0.964716
9409.000000;0.964704
9408.000000;0.964402
9407.000000;0.963597
9406.000000;0.962319
9405.000000;0.960995
9404.000000;0.960158
9403.000000;0.960002
9402.000000;0.960325
9401.000000;0.960787
9400.000000;0.961090
9399.000000;0.961052
9398.000000;0.960744
9397.000000;0.960473
9396.000000;0.960385
9395.000000;0.960192
9394.000000;0.959522
9393.000000;0.958460
9392.000000;0.957464
9391.000000;0.956820
9390.000000;0.956470
9389.000000;0.956299
9388.000000;0.956213
9387.000000;0.955953
9386.000000;0.955248
9385.000000;0.954271
9384.000000;0.953608
9383.000000;0.953603
9382.000000;0.953972
9381.000000;0.954211
9380.000000;0.954145
9379.000000;0.953914
9378.000000;0.953634
9377.000000;0.953280
9376.000000;0.952841
9375.000000;0.952381
9374.000000;0.951975
9373.000000;0.951654
9372.000000;0.951376
9371.000000;0.951047
9370.000000;0.950639
9369.000000;0.950297
9368.000000;0.950194
9367.000000;0.950273
9366.000000;0.950240
9365.000000;0.949834
9364.000000;0.949044
9363.000000;0.948089
9362.000000;0.947275
9361.000000;0.946812
9360.000000;0.946628
9359.000000;0.946385
9358.000000;0.945848
9357.000000;0.945186
9356.000000;0.944740
9355.000000;0.944551
9354.000000;0.944376
9353.000000;0.944127
9352.000000;0.943993
9351.000000;0.944061
9350.000000;0.944074
9349.000000;0.943728
9348.000000;0.943056
9347.000000;0.942381
9346.000000;0.941999
9345.000000;0.941972
9344.000000;0.942091
9343.000000;0.942009
9342.000000;0.941519
9341.000000;0.940781
9340.000000;0.940169
9339.000000;0.939873
9338.000000;0.939731
9337.000000;0.939479
9336.000000;0.939056
9335.000000;0.938626
9334.000000;0.938392
9333.000000;0.938415
9332.000000;0.938519
9331.000000;0.938397
9330.000000;0.937894
9329.000000;0.937158
9328.000000;0.936450
9327.000000;0.935879
9326.000000;0.935433
9325.000000;0.935154
9324.000000;0.935080
9323.000000;0.935107
9322.000000;0.935088
9321.000000;0.935033
9320.000000;0.935017
9319.000000;0.934960
9318.000000;0.934707
9317.000000;0.934272
9316.000000;0.933804
9315.000000;0.933346
9314.000000;0.932871
9313.000000;0.932456
9312.000000;0.932155
9311.000000;0.931749
9310.000000;0.930963
9309.000000;0.929926
9308.000000;0.929101
9307.000000;0.928721
9306.000000;0.928600
9305.000000;0.928526
9304.000000;0.928506
9303.000000;0.928531
9302.000000;0.928454
9301.000000;0.928258
9300.000000;0.928169
9299.000000;0.928317
9298.000000;0.928513
9297.000000;0.928543
9296.000000;0.928427
9295.000000;0.928236
9294.000000;0.927893
9293.000000;0.927350
9292.000000;0.926771
9291.000000;0.926319
9290.000000;0.925934
9289.000000;0.925469
9288.000000;0.924906
9287.000000;0.924298
9286.000000;0.923662
9285.000000;0.923084
9284.000000;0.922725
9283.000000;0.922556
9282.000000;0.922306
9281.000000;0.921839
9280.000000;0.921395
9279.000000;0.921210
9278.000000;0.921098
9277.000000;0.920696
9276.000000;0.920025
9275.000000;0.919496
9274.000000;0.919419
9273.000000;0.919754
9272.000000;0.920285
9271.000000;0.920762
9270.000000;0.920875
9269.000000;0.920393
9268.000000;0.919448
9267.000000;0.918504
9266.000000;0.917960
9265.000000;0.917852
9264.000000;0.917965
9263.000000;0.918046
9262.000000;0.917897
9261.000000;0.917416
9260.000000;0.916691
9259.000000;0.915966
9258.000000;0.915430
9257.000000;0.915083
9256.000000;0.914846
9255.000000;0.914705
9254.000000;0.914671
9253.000000;0.914661
9252.000000;0.914554
9251.000000;0.914345
9250.000000;0.914122
9249.000000;0.913874
9248.000000;0.913444
9247.000000;0.912737
9246.000000;0.911915
9245.000000;0.911288
9244.000000;0.911038
9243.000000;0.911106
9242.000000;0.911314
9241.000000;0.911478
9240.000000;0.911430
9239.000000;0.911081
9238.000000;0.910509
9237.000000;0.909904
9236.000000;0.909384
9235.000000;0.908945
9234.000000;0.908600
9233.000000;0.908445
9232.000000;0.908508
9231.000000;0.908661
9230.000000;0.908757
9229.000000;0.908756
9228.000000;0.908658
9227.000000;0.908419
9226.000000;0.908030
9225.000000;0.907565
9224.000000;0.907054
9223.000000;0.906452
9222.000000;0.905807
9221.000000;0.905301
9220.000000;0.904995
9219.000000;0.904709
9218.000000;0.904326
9217.000000;0.904055
9216.000000;0.904159
9215.000000;0.904544
9214.000000;0.904844
9213.000000;0.904820
9212.000000;0.904468
9211.000000;0.903858
9210.000000;0.903149
9209.000000;0.902651
9208.000000;0.902560
9207.000000;0.902654
9206.000000;0.902548
9205.000000;0.902232
9204.000000;0.902034
9203.000000;0.902054
9202.000000;0.901974
9201.000000;0.901534
9200.000000;0.900863
9199.000000;0.900212
9198.000000;0.899643
9197.000000;0.899132
9196.000000;0.898737
9195.000000;0.898477
9194.000000;0.898246
9193.000000;0.897992
9192.000000;0.897823
9191.000000;0.897784
9190.000000;0.897726
9189.000000;0.897527
9188.000000;0.897270
9187.000000;0.897030
9186.000000;0.896666
9185.000000;0.896041
9184.000000;0.895355
9183.000000;0.895003
9182.000000;0.895132
9181.000000;0.895496
9180.000000;0.895736
9179.000000;0.895692
9178.000000;0.895438
9177.000000;0.895112
9176.000000;0.894773
9175.000000;0.894407
9174.000000;0.894042
9173.000000;0.893773
9172.000000;0.893593
9171.000000;0.893312
9170.000000;0.892799
9169.000000;0.892257
9168.000000;0.892041
9167.000000;0.892184
9166.000000;0.892346
9165.000000;0.892275
9164.000000;0.892084
9163.000000;0.891955
9162.000000;0.891790
9161.000000;0.891376
9160.000000;0.890754
9159.000000;0.890203
9158.000000;0.889936
9157.000000;0.889955
9156.000000;0.890121
9155.000000;0.890213
9154.000000;0.889973
9153.000000;0.889315
9152.000000;0.888488
9151.000000;0.887909
9150.000000;0.887800
9149.000000;0.888052
9148.000000;0.888396
9147.000000;0.888600
9146.000000;0.888511
9145.000000;0.888030
9144.000000;0.887120
9143.000000;0.885867
9142.000000;0.884534
9141.000000;0.883548
9140.000000;0.883304
9139.000000;0.883859
9138.000000;0.884786
9137.000000;0.885407
9136.000000;0.885255
9135.000000;0.884403
9134.000000;0.883399
9133.000000;0.882835
9132.000000;0.882854
9131.000000;0.883041
9130.000000;0.882877
9129.000000;0.882331
9128.000000;0.881881
9127.000000;0.881927
9126.000000;0.882309
9125.000000;0.882522
9124.000000;0.882318
9123.000000;0.881920
9122.000000;0.881639
9121.000000;0.881462
9120.000000;0.881094
9119.000000;0.880372
9118.000000;0.879544
9117.000000;0.879082
9116.000000;0.879236
9115.000000;0.879756
9114.000000;0.880100
9113.000000;0.879893
9112.000000;0.879191
9111.000000;0.878338
9110.000000;0.877640
9109.000000;0.877183
9108.000000;0.876878
9107.000000;0.876588
9106.000000;0.876230
9105.000000;0.875848
9104.000000;0.875639
9103.000000;0.875834
9102.000000;0.876488
9101.000000;0.877327
9100.000000;0.877908
9099.000000;0.877974
9098.000000;0.877628
9097.000000;0.877112
9096.000000;0.876515
9095.000000;0.875820
9094.000000;0.875152
9093.000000;0.874750
9092.000000;0.874683
9091.000000;0.874767
9090.000000;0.874830
9089.000000;0.874853
9088.000000;0.874793
9087.000000;0.874503
9086.000000;0.873968
9085.000000;0.873423
9084.000000;0.873037
9083.000000;0.872683
9082.000000;0.872238
9081.000000;0.871905
9080.000000;0.871933
9079.000000;0.872136
9078.000000;0.872038
9077.000000;0.871500
9076.000000;0.870889
9075.000000;0.870565
9074.000000;0.870485
9073.000000;0.870400
9072.000000;0.870206
9071.000000;0.869970
9070.000000;0.869778
9069.000000;0.869703
9068.000000;0.869784
9067.000000;0.869969
9066.000000;0.870133
9065.000000;0.870226
9064.000000;0.870265
9063.000000;0.870179
9062.000000;0.869794
9061.000000;0.869088
9060.000000;0.868321
9059.000000;0.867827
9058.000000;0.867717
9057.000000;0.867821
9056.000000;0.867845
9055.000000;0.867590
9054.000000;0.867102
9053.000000;0.866631
9052.000000;0.866358
9051.000000;0.866184
9050.000000;0.865911
9049.000000;0.865593
9048.000000;0.865513
9047.000000;0.865775
9046.000000;0.866112
9045.000000;0.866148
9044.000000;0.865735
9043.000000;0.864984
9042.000000;0.864133
9041.000000;0.863486
9040.000000;0.863274
9039.000000;0.863433
9038.000000;0.863594
9037.000000;0.863448
9036.000000;0.863039
9035.000000;0.862596
9034.000000;0.862190
9033.000000;0.861738
9032.000000;0.861265
9031.000000;0.860970
9030.000000;0.860971
9029.000000;0.861121
9028.000000;0.861150
9027.000000;0.860942
9026.000000;0.860628
9025.000000;0.860402
9024.000000;0.860317
9023.000000;0.860255
9022.000000;0.860087
9021.000000;0.859796
9020.000000;0.859463
9019.000000;0.859193
9018.000000;0.859070
9017.000000;0.859122
9016.000000;0.859273
9015.000000;0.859365
9014.000000;0.859302
9013.000000;0.859126
9012.000000;0.858918
9011.000000;0.858647
9010.000000;0.858195
9009.000000;0.857488
9008.000000;0.856598
9007.000000;0.855775
9006.000000;0.855394
9005.000000;0.855728
9004.000000;0.856616
9003.000000;0.857423
9002.000000;0.857530
9001.000000;0.856892
9000.000000;0.856033
8999.000000;0.855513
8998.000000;0.855490
8997.000000;0.855699
8996.000000;0.855725
8995.000000;0.855328
8994.000000;0.854651
8993.000000;0.854110
8992.000000;0.853982
8991.000000;0.854128
8990.000000;0.854202
8989.000000;0.854058
8988.000000;0.853824
8987.000000;0.853663
8986.000000;0.853633
8985.000000;0.853716
8984.000000;0.853783
8983.000000;0.853563
8982.000000;0.852890
8981.000000;0.852009
8980.000000;0.851423
8979.000000;0.851383
8978.000000;0.851660
8977.000000;0.851843
8976.000000;0.851690
8975.000000;0.851212
8974.000000;0.850603
8973.000000;0.850169
8972.000000;0.850110
8971.000000;0.850300
8970.000000;0.850414
8969.000000;0.850325
8968.000000;0.850210
8967.000000;0.850171
8966.000000;0.849989
8965.000000;0.849417
8964.000000;0.848587
8963.000000;0.847959
8962.000000;0.847916
8961.000000;0.848475
8960.000000;0.849298
8959.000000;0.849902
8958.000000;0.849947
8957.000000;0.849469
8956.000000;0.848797
8955.000000;0.848214
8954.000000;0.847764
8953.000000;0.847392
8952.000000;0.847131
8951.000000;0.847063
8950.000000;0.847174
8949.000000;0.847319
8948.000000;0.847300
8947.000000;0.846953
8946.000000;0.846304
8945.000000;0.845641
8944.000000;0.845313
8943.000000;0.845357
8942.000000;0.845455
8941.000000;0.845354
8940.000000;0.845208
8939.000000;0.845392
8938.000000;0.846036
8937.000000;0.846857
8936.000000;0.847396
8935.000000;0.847342
8934.000000;0.846696
8933.000000;0.845742
8932.000000;0.844836
8931.000000;0.844162
8930.000000;0.843699
8929.000000;0.843424
8928.000000;0.843412
8927.000000;0.843659
8926.000000;0.843939
8925.000000;0.843985
8924.000000;0.843755
8923.000000;0.843411
8922.000000;0.843077
8921.000000;0.842761
8920.000000;0.842465
8919.000000;0.842229
8918.000000;0.842046
8917.000000;0.841861
8916.000000;0.841674
8915.000000;0.841578
8914.000000;0.841639
8913.000000;0.841804
8912.000000;0.841938
8911.000000;0.841928
8910.000000;0.841742
8909.000000;0.841438
8908.000000;0.841124
8907.000000;0.840860
8906.000000;0.840597
8905.000000;0.840234
8904.000000;0.839748
8903.000000;0.839223
8902.000000;0.838767
8901.000000;0.838467
8900.000000;0.838398
8899.000000;0.838592
8898.000000;0.838947
8897.000000;0.839231
8896.000000;0.839268
8895.000000;0.839104
8894.000000;0.838934
8893.000000;0.838859
8892.000000;0.838787
8891.000000;0.838574
8890.000000;0.838233
8889.000000;0.837949
8888.000000;0.837917
8887.000000;0.838175
8886.000000;0.838546
8885.000000;0.838733
8884.000000;0.838532
8883.000000;0.838036
8882.000000;0.837595
8881.000000;0.837493
8880.000000;0.837664
8879.000000;0.837795
8878.000000;0.837705
8877.000000;0.837510
8876.000000;0.837408
8875.000000;0.837395
8874.000000;0.837295
8873.000000;0.836983
8872.000000;0.836501
8871.000000;0.835958
8870.000000;0.835438
8869.000000;0.835001
8868.000000;0.834729
8867.000000;0.834686
8866.000000;0.834828
8865.000000;0.834953
8864.000000;0.834834
8863.000000;0.834461
8862.000000;0.834122
8861.000000;0.834142
8860.000000;0.834524
8859.000000;0.834937
8858.000000;0.835073
8857.000000;0.834911
8856.000000;0.834618
8855.000000;0.834309
8854.000000;0.834007
8853.000000;0.833720
8852.000000;0.833435
8851.000000;0.833097
8850.000000;0.832715
8849.000000;0.832439
8848.000000;0.832449
8847.000000;0.832753
8846.000000;0.833163
8845.000000;0.833453
8844.000000;0.833518
8843.000000;0.833422
8842.000000;0.833329
8841.000000;0.833346
8840.000000;0.833384
8839.000000;0.833259
8838.000000;0.832958
8837.000000;0.832692
8836.000000;0.832635
8835.000000;0.832703
8834.000000;0.832685
8833.000000;0.832509
8832.000000;0.832251
8831.000000;0.831974
8830.000000;0.831714
8829.000000;0.831547
8828.000000;0.831534
8827.000000;0.831597
8826.000000;0.831602
8825.000000;0.831559
8824.000000;0.831622
8823.000000;0.831865
8822.000000;0.832164
8821.000000;0.832322
8820.000000;0.832261
8819.000000;0.832073
8818.000000;0.831951
8817.000000;0.832055
8816.000000;0.832401
8815.000000;0.832860
8814.000000;0.833287
8813.000000;0.833619
8812.000000;0.833810
8811.000000;0.833786
8810.000000;0.833544
8809.000000;0.833235
8808.000000;0.833021
8807.000000;0.832887
8806.000000;0.832716
8805.000000;0.832518
8804.000000;0.832449
8803.000000;0.832576
8802.000000;0.832747
8801.000000;0.832756
8800.000000;0.832558
8799.000000;0.832290
8798.000000;0.832119
8797.000000;0.832116
8796.000000;0.832243
8795.000000;0.832438
8794.000000;0.832679
8793.000000;0.832937
8792.000000;0.833106
8791.000000;0.833063
8790.000000;0.832851
8789.000000;0.832694
8788.000000;0.832766
8787.000000;0.833012
8786.000000;0.833257
8785.000000;0.833418
8784.000000;0.833512
8783.000000;0.833530
8782.000000;0.833427
8781.000000;0.833241
8780.000000;0.833107
8779.000000;0.833145
8778.000000;0.833375
8777.000000;0.833715
8776.000000;0.834031
8775.000000;0.834197
8774.000000;0.834177
8773.000000;0.834047
8772.000000;0.833921
8771.000000;0.833900
8770.000000;0.834077
8769.000000;0.834485
8768.000000;0.834993
8767.000000;0.835369
8766.000000;0.835502
8765.000000;0.835491
8764.000000;0.835445
8763.000000;0.835329
8762.000000;0.835103
8761.000000;0.834886
8760.000000;0.834857
8759.000000;0.835058
8758.000000;0.835406
8757.000000;0.835803
8756.000000;0.836117
8755.000000;0.836135
8754.000000;0.835748
8753.000000;0.835143
8752.000000;0.834683
8751.000000;0.834573
8750.000000;0.834736
8749.000000;0.834971
8748.000000;0.835159
8747.000000;0.835322
8746.000000;0.835592
8745.000000;0.836051
8744.000000;0.836557
8743.000000;0.836813
8742.000000;0.836713
8741.000000;0.836520
8740.000000;0.836583
8739.000000;0.836926
8738.000000;0.837275
8737.000000;0.837412
8736.000000;0.837346
8735.000000;0.837197
8734.000000;0.837090
8733.000000;0.837133
8732.000000;0.837341
8731.000000;0.837577
8730.000000;0.837679
8729.000000;0.837642
8728.000000;0.837564
8727.000000;0.837499
8726.000000;0.837473
8725.000000;0.837582
8724.000000;0.837897
8723.000000;0.838309
8722.000000;0.838609
8721.000000;0.838715
8720.000000;0.838681
8719.000000;0.838553
8718.000000;0.838388
8717.000000;0.838366
8716.000000;0.838637
8715.000000;0.839067
8714.000000;0.839339
8713.000000;0.839341
8712.000000;0.839246
8711.000000;0.839168
8710.000000;0.838979
8709.000000;0.838591
8708.000000;0.838202
8707.000000;0.838098
8706.000000;0.838302
8705.000000;0.838589
8704.000000;0.838774
8703.000000;0.838895
8702.000000;0.839123
8701.000000;0.839582
8700.000000;0.840226
8699.000000;0.840813
8698.000000;0.841056
8697.000000;0.840877
8696.000000;0.840527
8695.000000;0.840393
8694.000000;0.840641
8693.000000;0.841032
8692.000000;0.841092
8691.000000;0.840545
8690.000000;0.839604
8689.000000;0.838831
8688.000000;0.838657
8687.000000;0.839056
8686.000000;0.839658
8685.000000;0.840103
8684.000000;0.840255
8683.000000;0.840186
8682.000000;0.840043
8681.000000;0.839918
8680.000000;0.839766
8679.000000;0.839504
8678.000000;0.839218
8677.000000;0.839190
8676.000000;0.839588
8675.000000;0.840203
8674.000000;0.840603
8673.000000;0.840566
8672.000000;0.840248
8671.000000;0.839950
8670.000000;0.839846
8669.000000;0.839918
8668.000000;0.840051
8667.000000;0.840130
8666.000000;0.840126
8665.000000;0.840112
8664.000000;0.840191
8663.000000;0.840380
8662.000000;0.840594
8661.000000;0.840692
8660.000000;0.840555
8659.000000;0.840179
8658.000000;0.839710
8657.000000;0.839341
8656.000000;0.839147
8655.000000;0.839084
8654.000000;0.839129
8653.000000;0.839290
8652.000000;0.839456
8651.000000;0.839407
8650.000000;0.839064
8649.000000;0.838610
8648.000000;0.838250
8647.000000;0.837965
8646.000000;0.837639
8645.000000;0.837295
8644.000000;0.837062
8643.000000;0.836986
8642.000000;0.837035
8641.000000;0.837244
8640.000000;0.837682
8639.000000;0.838287
8638.000000;0.838822
8637.000000;0.839016
8636.000000;0.838706
8635.000000;0.837926
8634.000000;0.836934
8633.000000;0.836070
8632.000000;0.835497
8631.000000;0.835164
8630.000000;0.835030
8629.000000;0.835145
8628.000000;0.835435
8627.000000;0.835614
8626.000000;0.835513
8625.000000;0.835326
8624.000000;0.835302
8623.000000;0.835359
8622.000000;0.835245
8621.000000;0.834960
8620.000000;0.834732
8619.000000;0.834631
8618.000000;0.834516
8617.000000;0.834341
8616.000000;0.834215
8615.000000;0.834117
8614.000000;0.833880
8613.000000;0.833523
8612.000000;0.833355
8611.000000;0.833599
8610.000000;0.834084
8609.000000;0.834441
8608.000000;0.834466
8607.000000;0.834177
8606.000000;0.833661
8605.000000;0.833040
8604.000000;0.832517
8603.000000;0.832298
8602.000000;0.832408
8601.000000;0.832612
8600.000000;0.832607
8599.000000;0.832309
8598.000000;0.831956
8597.000000;0.831834
8596.000000;0.831917
8595.000000;0.831886
8594.000000;0.831563
8593.000000;0.831157
8592.000000;0.830945
8591.000000;0.830879
8590.000000;0.830700
8589.000000;0.830352
8588.000000;0.830052
8587.000000;0.829967
8586.000000;0.830032
8585.000000;0.830102
8584.000000;0.830101
8583.000000;0.829999
8582.000000;0.829802
8581.000000;0.829584
8580.000000;0.829415
8579.000000;0.829255
8578.000000;0.829030
8577.000000;0.828786
8576.000000;0.828622
8575.000000;0.828508
8574.000000;0.828330
8573.000000;0.828081
8572.000000;0.827857
8571.000000;0.827667
8570.000000;0.827459
8569.000000;0.827330
8568.000000;0.827481
8567.000000;0.827905
8566.000000;0.828295
8565.000000;0.828367
8564.000000;0.828151
8563.000000;0.827844
8562.000000;0.827518
8561.000000;0.827088
8560.000000;0.826518
8559.000000;0.825956
8558.000000;0.825654
8557.000000;0.825733
8556.000000;0.826020
8555.000000;0.826153
8554.000000;0.825937
8553.000000;0.825528
8552.000000;0.825180
8551.000000;0.824874
8550.000000;0.824375
8549.000000;0.823636
8548.000000;0.822957
8547.000000;0.822675
8546.000000;0.822824
8545.000000;0.823134
8544.000000;0.823276
8543.000000;0.823094
8542.000000;0.822694
8541.000000;0.822348
8540.000000;0.822241
8539.000000;0.822268
8538.000000;0.822168
8537.000000;0.821832
8536.000000;0.821425
8535.000000;0.821192
8534.000000;0.821238
8533.000000;0.821474
8532.000000;0.821680
8531.000000;0.821650
8530.000000;0.821370
8529.000000;0.821054
8528.000000;0.820905
8527.000000;0.820888
8526.000000;0.820844
8525.000000;0.820765
8524.000000;0.820764
8523.000000;0.820797
8522.000000;0.820632
8521.000000;0.820161
8520.000000;0.819578
8519.000000;0.819142
8518.000000;0.818888
8517.000000;0.818694
8516.000000;0.818523
8515.000000;0.818452
8514.000000;0.818502
8513.000000;0.818550
8512.000000;0.818456
8511.000000;0.818210
8510.000000;0.817914
8509.000000;0.817632
8508.000000;0.817322
8507.000000;0.816954
8506.000000;0.816636
8505.000000;0.816521
8504.000000;0.816578
8503.000000;0.816590
8502.000000;0.816415
8501.000000;0.816144
8500.000000;0.815915
8499.000000;0.815711
8498.000000;0.815424
8497.000000;0.815042
8496.000000;0.814626
8495.000000;0.814221
8494.000000;0.813907
8493.000000;0.813851
8492.000000;0.814143
8491.000000;0.814615
8490.000000;0.814964
8489.000000;0.815020
8488.000000;0.814800
8487.000000;0.814392
8486.000000;0.813919
8485.000000;0.813534
8484.000000;0.813281
8483.000000;0.813023
8482.000000;0.812675
8481.000000;0.812432
8480.000000;0.812545
8479.000000;0.812896
8478.000000;0.813054
8477.000000;0.812782
8476.000000;0.812279
8475.000000;0.811866
8474.000000;0.811626
8473.000000;0.811440
8472.000000;0.811207
8471.000000;0.810906
8470.000000;0.810562
8469.000000;0.810258
8468.000000;0.810100
8467.000000;0.810105
8466.000000;0.810170
8465.000000;0.810184
8464.000000;0.810114
8463.000000;0.809976
8462.000000;0.809779
8461.000000;0.809553
8460.000000;0.809349
8459.000000;0.809199
8458.000000;0.809113
8457.000000;0.809107
8456.000000;0.809180
8455.000000;0.809246
8454.000000;0.809171
8453.000000;0.808882
8452.000000;0.808442
8451.000000;0.808009
8450.000000;0.807747
8449.000000;0.807710
8448.000000;0.807784
8447.000000;0.807794
8446.000000;0.807677
8445.000000;0.807482
8444.000000;0.807199
8443.000000;0.806772
8442.000000;0.806336
8441.000000;0.806224
8440.000000;0.806542
8439.000000;0.806907
8438.000000;0.806850
8437.000000;0.806377
8436.000000;0.805887
8435.000000;0.805617
8434.000000;0.805446
8433.000000;0.805229
8432.000000;0.805049
8431.000000;0.805026
8430.000000;0.805094
8429.000000;0.805083
8428.000000;0.804916
8427.000000;0.804665
8426.000000;0.804459
8425.000000;0.804369
8424.000000;0.804320
8423.000000;0.804143
8422.000000;0.803780
8421.000000;0.803386
8420.000000;0.803116
8419.000000;0.802931
8418.000000;0.802743
8417.000000;0.802667
8416.000000;0.802868
8415.000000;0.803215
8414.000000;0.803318
8413.000000;0.802973
8412.000000;0.802371
8411.000000;0.801843
8410.000000;0.801565
8409.000000;0.801548
8408.000000;0.801701
8407.000000;0.801825
8406.000000;0.801718
8405.000000;0.801382
8404.000000;0.801043
8403.000000;0.800885
8402.000000;0.800874
8401.000000;0.800864
8400.000000;0.800772
8399.000000;0.800604
8398.000000;0.800415
8397.000000;0.800284
8396.000000;0.800248
8395.000000;0.800236
8394.000000;0.800152
8393.000000;0.800016
8392.000000;0.799921
8391.000000;0.799867
8390.000000;0.799752
8389.000000;0.799517
8388.000000;0.799186
8387.000000;0.798784
8386.000000;0.798352
8385.000000;0.798029
8384.000000;0.797940
8383.000000;0.798012
8382.000000;0.798045
8381.000000;0.797969
8380.000000;0.797857
8379.000000;0.797701
8378.000000;0.797374
8377.000000;0.796883
8376.000000;0.796464
8375.000000;0.796293
8374.000000;0.796271
8373.000000;0.796166
8372.000000;0.795877
8371.000000;0.795476
8370.000000;0.795110
8369.000000;0.794946
8368.000000;0.795088
8367.000000;0.795422
8366.000000;0.795628
8365.000000;0.795452
8364.000000;0.794942
8363.000000;0.794365
8362.000000;0.793954
8361.000000;0.793776
8360.000000;0.793750
8359.000000;0.793726
8358.000000;0.793589
8357.000000;0.793367
8356.000000;0.793205
8355.000000;0.793196
8354.000000;0.793274
8353.000000;0.793287
8352.000000;0.793140
8351.000000;0.792849
8350.000000;0.792487
8349.000000;0.792113
8348.000000;0.791749
8347.000000;0.791411
8346.000000;0.791148
8345.000000;0.790998
8344.000000;0.790897
8343.000000;0.790706
8342.000000;0.790386
8341.000000;0.790047
8340.000000;0.789770
8339.000000;0.789488
8338.000000;0.789142
8337.000000;0.788852
8336.000000;0.788790
8335.000000;0.788937
8334.000000;0.789111
8333.000000;0.789183
8332.000000;0.789130
8331.000000;0.788958
8330.000000;0.788722
8329.000000;0.788572
8328.000000;0.788593
8327.000000;0.788630
8326.000000;0.788436
8325.000000;0.788009
8324.000000;0.787576
8323.000000;0.787274
8322.000000;0.787017
8321.000000;0.786713
8320.000000;0.786407
8319.000000;0.786159
8318.000000;0.785939
8317.000000;0.785705
8316.000000;0.785484
8315.000000;0.785319
8314.000000;0.785224
8313.000000;0.785216
8312.000000;0.785283
8311.000000;0.785341
8310.000000;0.785306
8309.000000;0.785199
8308.000000;0.785055
8307.000000;0.784790
8306.000000;0.784325
8305.000000;0.783784
8304.000000;0.783392
8303.000000;0.783177
8302.000000;0.782987
8301.000000;0.782788
8300.000000;0.782714
8299.000000;0.782769
8298.000000;0.782758
8297.000000;0.782576
8296.000000;0.782361
8295.000000;0.782234
8294.000000;0.782067
8293.000000;0.781677
8292.000000;0.781099
8291.000000;0.780537
8290.000000;0.780151
8289.000000;0.779996
8288.000000;0.780047
8287.000000;0.780189
8286.000000;0.780250
8285.000000;0.780154
8284.000000;0.779967
8283.000000;0.779751
8282.000000;0.779479
8281.000000;0.779149
8280.000000;0.778837
8279.000000;0.778586
8278.000000;0.778344
8277.000000;0.778110
8276.000000;0.777980
8275.000000;0.777977
8274.000000;0.777946
8273.000000;0.777760
8272.000000;0.777517
8271.000000;0.777395
8270.000000;0.777400
8269.000000;0.777364
8268.000000;0.777162
8267.000000;0.776821
8266.000000;0.776440
8265.000000;0.776089
8264.000000;0.775783
8263.000000;0.775495
8262.000000;0.775222
8261.000000;0.775060
8260.000000;0.775111
8259.000000;0.775292
8258.000000;0.775346
8257.000000;0.775116
8256.000000;0.774728
8255.000000;0.774410
8254.000000;0.774215
8253.000000;0.774036
8252.000000;0.773813
8251.000000;0.773608
8250.000000;0.773479
8249.000000;0.773381
8248.000000;0.773201
8247.000000;0.772871
8246.000000;0.772420
8245.000000;0.771970
8244.000000;0.771637
8243.000000;0.771443
8242.000000;0.771346
8241.000000;0.771335
8240.000000;0.771412
8239.000000;0.771493
8238.000000;0.771434
8237.000000;0.771202
8236.000000;0.770938
8235.000000;0.770793
8234.000000;0.770777
8233.000000;0.770786
8232.000000;0.770699
8231.000000;0.770409
8230.000000;0.769869
8229.000000;0.769205
8228.000000;0.768684
8227.000000;0.768473
8226.000000;0.768464
8225.000000;0.768423
8224.000000;0.768254
8223.000000;0.768032
8222.000000;0.767836
8221.000000;0.767647
8220.000000;0.767437
8219.000000;0.767229
8218.000000;0.767031
8217.000000;0.766790
8216.000000;0.766445
8215.000000;0.766049
8214.000000;0.765767
8213.000000;0.765740
8212.000000;0.765925
8211.000000;0.766104
8210.000000;0.766063
8209.000000;0.765768
8208.000000;0.765371
8207.000000;0.765073
8206.000000;0.764981
8205.000000;0.765029
8204.000000;0.765015
8203.000000;0.764747
8202.000000;0.764219
8201.000000;0.763624
8200.000000;0.763154
8199.000000;0.762837
8198.000000;0.762624
8197.000000;0.762532
8196.000000;0.762588
8195.000000;0.762677
8194.000000;0.762581
8193.000000;0.762217
8192.000000;0.761720
8191.000000;0.761293
8190.000000;0.761051
8189.000000;0.760996
8188.000000;0.761044
8187.000000;0.761047
8186.000000;0.760891
8185.000000;0.760594
8184.000000;0.760249
8183.000000;0.759908
8182.000000;0.759606
8181.000000;0.759458
8180.000000;0.759573
8179.000000;0.759855
8178.000000;0.760035
8177.000000;0.759966
8176.000000;0.759752
8175.000000;0.759540
8174.000000;0.759318
8173.000000;0.759011
8172.000000;0.758664
8171.000000;0.758397
8170.000000;0.758231
8169.000000;0.758073
8168.000000;0.757843
8167.000000;0.757563
8166.000000;0.757302
8165.000000;0.757106
8164.000000;0.756962
8163.000000;0.756820
8162.000000;0.756640
8161.000000;0.756406
8160.000000;0.756091
8159.000000;0.755645
8158.000000;0.755083
8157.000000;0.754564
8156.000000;0.754296
8155.000000;0.754351
8154.000000;0.754606
8153.000000;0.754850
8152.000000;0.754902
8151.000000;0.754670
8150.000000;0.754209
8149.000000;0.753736
8148.000000;0.753467
8147.000000;0.753426
8146.000000;0.753465
8145.000000;0.753465
8144.000000;0.753409
8143.000000;0.753274
8142.000000;0.752997
8141.000000;0.752601
8140.000000;0.752216
8139.000000;0.751922
8138.000000;0.751664
8137.000000;0.751377
8136.000000;0.751101
8135.000000;0.750888
8134.000000;0.750695
8133.000000;0.750457
8132.000000;0.750200
8131.000000;0.750014
8130.000000;0.749955
8129.000000;0.750021
8128.000000;0.750168
8127.000000;0.750284
8126.000000;0.750213
8125.000000;0.749886
8124.000000;0.749393
8123.000000;0.748908
8122.000000;0.748559
8121.000000;0.748389
8120.000000;0.748353
8119.000000;0.748313
8118.000000;0.748111
8117.000000;0.747718
8116.000000;0.747270
8115.000000;0.746909
8114.000000;0.746648
8113.000000;0.746426
8112.000000;0.746218
8111.000000;0.746022
8110.000000;0.745785
8109.000000;0.745449
8108.000000;0.745033
8107.000000;0.744623
8106.000000;0.744295
8105.000000;0.744096
8104.000000;0.744042
8103.000000;0.744052
8102.000000;0.743944
8101.000000;0.743596
8100.000000;0.743127
8099.000000;0.742807
8098.000000;0.742770
8097.000000;0.742867
8096.000000;0.742842
8095.000000;0.742596
8094.000000;0.742241
8093.000000;0.741928
8092.000000;0.741709
8091.000000;0.741566
8090.000000;0.741498
8089.000000;0.741493
8088.000000;0.741445
8087.000000;0.741205
8086.000000;0.740768
8085.000000;0.740340
8084.000000;0.740154
8083.000000;0.740227
8082.000000;0.740374
8081.000000;0.740409
8080.000000;0.740286
8079.000000;0.740044
8078.000000;0.739727
8077.000000;0.739375
8076.000000;0.739010
8075.000000;0.738626
8074.000000;0.738239
8073.000000;0.737959
8072.000000;0.737934
8071.000000;0.738150
8070.000000;0.738378
8069.000000;0.738347
8068.000000;0.737963
8067.000000;0.737336
8066.000000;0.736667
8065.000000;0.736141
8064.000000;0.735858
8063.000000;0.735763
8062.000000;0.735687
8061.000000;0.735504
8060.000000;0.735263
8059.000000;0.735107
8058.000000;0.735094
8057.000000;0.735126
8056.000000;0.735049
8055.000000;0.734785
8054.000000;0.734366
8053.000000;0.733902
8052.000000;0.733521
8051.000000;0.733304
8050.000000;0.733220
8049.000000;0.733153
8048.000000;0.733017
8047.000000;0.732839
8046.000000;0.732708
8045.000000;0.732649
8044.000000;0.732584
8043.000000;0.732428
8042.000000;0.732189
8041.000000;0.731941
8040.000000;0.731730
8039.000000;0.731533
8038.000000;0.731307
8037.000000;0.731023
8036.000000;0.730662
8035.000000;0.730251
8034.000000;0.729879
8033.000000;0.729629
8032.000000;0.729465
8031.000000;0.729258
8030.000000;0.728949
8029.000000;0.728630
8028.000000;0.728430
8027.000000;0.728381
8026.000000;0.728416
8025.000000;0.728426
8024.000000;0.728294
8023.000000;0.727924
8022.000000;0.727351
8021.000000;0.726797
8020.000000;0.726524
8019.000000;0.726611
8018.000000;0.726880
8017.000000;0.727052
8016.000000;0.726962
8015.000000;0.726662
8014.000000;0.726321
8013.000000;0.726052
8012.000000;0.725811
8011.000000;0.725510
8010.000000;0.725160
8009.000000;0.724850
8008.000000;0.724594
8007.000000;0.724314
8006.000000;0.723975
8005.000000;0.723636
8004.000000;0.723325
8003.000000;0.722981
8002.000000;0.722575
8001.000000;0.722216
8000.000000;0.722030
7999.000000;0.721997
7998.000000;0.721986
7997.000000;0.721907
7996.000000;0.721760
7995.000000;0.721589
7994.000000;0.721447
7993.000000;0.721372
7992.000000;0.721312
7991.000000;0.721149
7990.000000;0.720857
7989.000000;0.720569
7988.000000;0.720421
7987.000000;0.720378
7986.000000;0.720282
7985.000000;0.720041
7984.000000;0.719676
7983.000000;0.719274
7982.000000;0.718964
7981.000000;0.718856
7980.000000;0.718910
7979.000000;0.718896
7978.000000;0.718613
7977.000000;0.718110
7976.000000;0.717600
7975.000000;0.717219
7974.000000;0.716967
7973.000000;0.716843
7972.000000;0.716853
7971.000000;0.716919
7970.000000;0.716890
7969.000000;0.716684
7968.000000;0.716337
7967.000000;0.715911
7966.000000;0.715455
7965.000000;0.715037
7964.000000;0.714718
7963.000000;0.714491
7962.000000;0.714304
7961.000000;0.714144
7960.000000;0.714000
7959.000000;0.713822
7958.000000;0.713606
7957.000000;0.713472
7956.000000;0.713533
7955.000000;0.713696
7954.000000;0.713729
7953.000000;0.713527
7952.000000;0.713170
7951.000000;0.712752
7950.000000;0.712287
7949.000000;0.711809
7948.000000;0.711429
7947.000000;0.711215
7946.000000;0.711123
7945.000000;0.711079
7944.000000;0.711046
7943.000000;0.710985
7942.000000;0.710858
7941.000000;0.710686
7940.000000;0.710540
7939.000000;0.710418
7938.000000;0.710245
7937.000000;0.709992
7936.000000;0.709725
7935.000000;0.709492
7934.000000;0.709274
7933.000000;0.709073
7932.000000;0.708942
7931.000000;0.708871
7930.000000;0.708760
7929.000000;0.708550
7928.000000;0.708309
7927.000000;0.708094
7926.000000;0.707836
7925.000000;0.707457
7924.000000;0.707048
7923.000000;0.706790
7922.000000;0.706717
7921.000000;0.706653
7920.000000;0.706423
7919.000000;0.706059
7918.000000;0.705755
7917.000000;0.705639
7916.000000;0.705647
7915.000000;0.705613
7914.000000;0.705452
7913.000000;0.705192
7912.000000;0.704890
7911.000000;0.704560
7910.000000;0.704233
7909.000000;0.703987
7908.000000;0.703864
7907.000000;0.703785
7906.000000;0.703633
7905.000000;0.703394
7904.000000;0.703141
7903.000000;0.702927
7902.000000;0.702751
7901.000000;0.702612
7900.000000;0.702523
7899.000000;0.702465
7898.000000;0.702391
7897.000000;0.702285
7896.000000;0.702147
7895.000000;0.701945
7894.000000;0.701653
7893.000000;0.701329
7892.000000;0.701068
7891.000000;0.700876
7890.000000;0.700653
7889.000000;0.700326
7888.000000;0.699929
7887.000000;0.699538
7886.000000;0.699205
7885.000000;0.698962
7884.000000;0.698841
7883.000000;0.698839
7882.000000;0.698883
7881.000000;0.698877
7880.000000;0.698749
7879.000000;0.698485
7878.000000;0.698152
7877.000000;0.697857
7876.000000;0.697656
7875.000000;0.697491
7874.000000;0.697276
7873.000000;0.697019
7872.000000;0.696811
7871.000000;0.696691
7870.000000;0.696602
7869.000000;0.696474
7868.000000;0.696308
7867.000000;0.696146
7866.000000;0.695996
7865.000000;0.695816
7864.000000;0.695551
7863.000000;0.695197
7862.000000;0.694838
7861.000000;0.694596
7860.000000;0.694516
7859.000000;0.694519
7858.000000;0.694497
7857.000000;0.694424
7856.000000;0.694321
7855.000000;0.694184
7854.000000;0.693984
7853.000000;0.693741
7852.000000;0.693514
7851.000000;0.693339
7850.000000;0.693202
7849.000000;0.693046
7848.000000;0.692777
7847.000000;0.692335
7846.000000;0.691808
7845.000000;0.691428
7844.000000;0.691337
7843.000000;0.691396
7842.000000;0.691333
7841.000000;0.691046
7840.000000;0.690682
7839.000000;0.690416
7838.000000;0.690281
7837.000000;0.690221
7836.000000;0.690189
7835.000000;0.690144
7834.000000;0.690033
7833.000000;0.689824
7832.000000;0.689541
7831.000000;0.689245
7830.000000;0.688998
7829.000000;0.688845
7828.000000;0.688768
7827.000000;0.688685
7826.000000;0.688525
7825.000000;0.688309
7824.000000;0.688106
7823.000000;0.687936
7822.000000;0.687772
7821.000000;0.687617
7820.000000;0.687487
7819.000000;0.687357
7818.000000;0.687178
7817.000000;0.686960
7816.000000;0.686753
7815.000000;0.686560
7814.000000;0.686353
7813.000000;0.686184
7812.000000;0.686148
7811.000000;0.686218
7810.000000;0.686206
7809.000000;0.685959
7808.000000;0.685531
7807.000000;0.685109
7806.000000;0.684818
7805.000000;0.684649
7804.000000;0.684529
7803.000000;0.684414
7802.000000;0.684296
7801.000000;0.684183
7800.000000;0.684071
7799.000000;0.683953
7798.000000;0.683844
7797.000000;0.683767
7796.000000;0.683702
7795.000000;0.683577
7794.000000;0.683354
7793.000000;0.683101
7792.000000;0.682929
7791.000000;0.682859
7790.000000;0.682801
7789.000000;0.682663
7788.000000;0.682427
7787.000000;0.682155
7786.000000;0.681937
7785.000000;0.681833
7784.000000;0.681834
7783.000000;0.681879
7782.000000;0.681937
7781.000000;0.682025
7780.000000;0.682121
7779.000000;0.682115
7778.000000;0.681906
7777.000000;0.681506
7776.000000;0.681014
7775.000000;0.680531
7774.000000;0.680160
7773.000000;0.680004
7772.000000;0.680055
7771.000000;0.680121
7770.000000;0.679987
7769.000000;0.679643
7768.000000;0.679257
7767.000000;0.678947
7766.000000;0.678697
7765.000000;0.678474
7764.000000;0.678301
7763.000000;0.678170
7762.000000;0.678016
7761.000000;0.677818
7760.000000;0.677660
7759.000000;0.677618
7758.000000;0.677652
7757.000000;0.677667
7756.000000;0.677619
7755.000000;0.677509
7754.000000;0.677324
7753.000000;0.677052
7752.000000;0.676739
7751.000000;0.676492
7750.000000;0.676398
7749.000000;0.676448
7748.000000;0.676534
7747.000000;0.676519
7746.000000;0.676344
7745.000000;0.676091
7744.000000;0.675918
7743.000000;0.675927
7742.000000;0.676082
7741.000000;0.676235
7740.000000;0.676228
7739.000000;0.676012
7738.000000;0.675701
7737.000000;0.675478
7736.000000;0.675405
7735.000000;0.675341
7734.000000;0.675104
7733.000000;0.674693
7732.000000;0.674286
7731.000000;0.674041
7730.000000;0.673962
7729.000000;0.673966
7728.000000;0.674010
7727.000000;0.674110
7726.000000;0.674258
7725.000000;0.674374
7724.000000;0.674361
7723.000000;0.674191
7722.000000;0.673942
7721.000000;0.673721
7720.000000;0.673555
7719.000000;0.673402
7718.000000;0.673249
7717.000000;0.673141
7716.000000;0.673108
7715.000000;0.673105
7714.000000;0.673071
7713.000000;0.673004
7712.000000;0.672921
7711.000000;0.672819
7710.000000;0.672713
7709.000000;0.672645
7708.000000;0.672617
7707.000000;0.672556
7706.000000;0.672415
7705.000000;0.672239
7704.000000;0.672076
7703.000000;0.671888
7702.000000;0.671640
7701.000000;0.671407
7700.000000;0.671302
7699.000000;0.671311
7698.000000;0.671324
7697.000000;0.671310
7696.000000;0.671339
7695.000000;0.671428
7694.000000;0.671484
7693.000000;0.671423
7692.000000;0.671278
7691.000000;0.671143
7690.000000;0.671068
7689.000000;0.671037
7688.000000;0.671004
7687.000000;0.670913
7686.000000;0.670731
7685.000000;0.670474
7684.000000;0.670190
7683.000000;0.669931
7682.000000;0.669748
7681.000000;0.669687
7680.000000;0.669739
7679.000000;0.669834
7678.000000;0.669919
7677.000000;0.670011
7676.000000;0.670115
7675.000000;0.670158
7674.000000;0.670066
7673.000000;0.669879
7672.000000;0.669708
7671.000000;0.669598
7670.000000;0.669529
7669.000000;0.669513
7668.000000;0.669581
7667.000000;0.669691
7666.000000;0.669722
7665.000000;0.669611
7664.000000;0.669408
7663.000000;0.669200
7662.000000;0.669033
7661.000000;0.668922
7660.000000;0.668874
7659.000000;0.668879
7658.000000;0.668909
7657.000000;0.668942
7656.000000;0.668943
7655.000000;0.668853
7654.000000;0.668664
7653.000000;0.668478
7652.000000;0.668421
7651.000000;0.668474
7650.000000;0.668478
7649.000000;0.668334
7648.000000;0.668125
7647.000000;0.668022
7646.000000;0.668114
7645.000000;0.668354
7644.000000;0.668635
7643.000000;0.668865
7642.000000;0.668992
7641.000000;0.668998
7640.000000;0.668890
7639.000000;0.668703
7638.000000;0.668513
7637.000000;0.668397
7636.000000;0.668361
7635.000000;0.668330
7634.000000;0.668250
7633.000000;0.668155
7632.000000;0.668109
7631.000000;0.668122
7630.000000;0.668172
7629.000000;0.668262
7628.000000;0.668388
7627.000000;0.668483
7626.000000;0.668460
7625.000000;0.668297
7624.000000;0.668049
7623.000000;0.667802
7622.000000;0.667645
7621.000000;0.667651
7620.000000;0.667801
7619.000000;0.667970
7618.000000;0.668048
7617.000000;0.668068
7616.000000;0.668122
7615.000000;0.668219
7614.000000;0.668288
7613.000000;0.668297
7612.000000;0.668288
7611.000000;0.668285
7610.000000;0.668286
7609.000000;0.668318
7608.000000;0.668420
7607.000000;0.668569
7606.000000;0.668689
7605.000000;0.668753
7604.000000;0.668786
7603.000000;0.668785
7602.000000;0.668706
7601.000000;0.668563
7600.000000;0.668455
7599.000000;0.668465
7598.000000;0.668581
7597.000000;0.668739
7596.000000;0.668890
7595.000000;0.669014
7594.000000;0.669125
7593.000000;0.669260
7592.000000;0.669431
7591.000000;0.669588
7590.000000;0.669673
7589.000000;0.669701
7588.000000;0.669723
7587.000000;0.669726
7586.000000;0.669659
7585.000000;0.669556
7584.000000;0.669554
7583.000000;0.669745
7582.000000;0.670052
7581.000000;0.670290
7580.000000;0.670327
7579.000000;0.670185
7578.000000;0.670031
7577.000000;0.670056
7576.000000;0.670338
7575.000000;0.670774
7574.000000;0.671172
7573.000000;0.671400
7572.000000;0.671428
7571.000000;0.671295
7570.000000;0.671087
7569.000000;0.670921
7568.000000;0.670883
7567.000000;0.670971
7566.000000;0.671120
7565.000000;0.671292
7564.000000;0.671484
7563.000000;0.671684
7562.000000;0.671881
7561.000000;0.672082
7560.000000;0.672276
7559.000000;0.672392
7558.000000;0.672381
7557.000000;0.672316
7556.000000;0.672330
7555.000000;0.672444
7554.000000;0.672562
7553.000000;0.672623
7552.000000;0.672689
7551.000000;0.672831
7550.000000;0.673019
7549.000000;0.673172
7548.000000;0.673263
7547.000000;0.673318
7546.000000;0.673352
7545.000000;0.673372
7544.000000;0.673426
7543.000000;0.673574
7542.000000;0.673809
7541.000000;0.674036
7540.000000;0.674164
7539.000000;0.674202
7538.000000;0.674250
7537.000000;0.674394
7536.000000;0.674629
7535.000000;0.674890
7534.000000;0.675143
7533.000000;0.675400
7532.000000;0.675654
7531.000000;0.675867
7530.000000;0.676027
7529.000000;0.676174
7528.000000;0.676347
7527.000000;0.676541
7526.000000;0.676746
7525.000000;0.676960
7524.000000;0.677146
7523.000000;0.677227
7522.000000;0.677188
7521.000000;0.677138
7520.000000;0.677206
7519.000000;0.677413
7518.000000;0.677698
7517.000000;0.678017
7516.000000;0.678355
7515.000000;0.678672
7514.000000;0.678930
7513.000000;0.679155
7512.000000;0.679414
7511.000000;0.679729
7510.000000;0.680038
7509.000000;0.680262
7508.000000;0.680363
7507.000000;0.680384
7506.000000;0.680438
7505.000000;0.680633
7504.000000;0.680949
7503.000000;0.681237
7502.000000;0.681380
7501.000000;0.681433
7500.000000;0.681532
7499.000000;0.681707
7498.000000;0.681861
7497.000000;0.681915
7496.000000;0.681922
7495.000000;0.682016
7494.000000;0.682279
7493.000000;0.682656
7492.000000;0.682997
7491.000000;0.683156
7490.000000;0.683291
7489.000000;0.683311
7488.000000;0.683457
7487.000000;0.683714
7486.000000;0.683951
7485.000000;0.684110
7484.000000;0.684236
7483.000000;0.684419
7482.000000;0.684733
7481.000000;0.685180
7480.000000;0.685666
7479.000000;0.686044
7478.000000;0.686250
7477.000000;0.686351
7476.000000;0.686449
7475.000000;0.686571
7474.000000;0.686714
7473.000000;0.686914
7472.000000;0.687194
7471.000000;0.687478
7470.000000;0.687657
7469.000000;0.687734
7468.000000;0.687811
7467.000000;0.687943
7466.000000;0.688093
7465.000000;0.688223
7464.000000;0.688354
7463.000000;0.688524
7462.000000;0.688726
7461.000000;0.688921
7460.000000;0.689081
7459.000000;0.689218
7458.000000;0.689389
7457.000000;0.689674
7456.000000;0.690089
7455.000000;0.690544
7454.000000;0.690922
7453.000000;0.691179
7452.000000;0.691353
7451.000000;0.691502
7450.000000;0.691685
7449.000000;0.691964
7448.000000;0.692349
7447.000000;0.692742
7446.000000;0.693012
7445.000000;0.693132
7444.000000;0.693190
7443.000000;0.693275
7442.000000;0.693401
7441.000000;0.693553
7440.000000;0.693747
7439.000000;0.694013
7438.000000;0.694336
7437.000000;0.694653
7436.000000;0.694919
7435.000000;0.695163
7434.000000;0.695475
7433.000000;0.695899
7432.000000;0.696353
7431.000000;0.696675
7430.000000;0.696792
7429.000000;0.696808
7428.000000;0.696920
7427.000000;0.697221
7426.000000;0.697616
7425.000000;0.697926
7424.000000;0.698066
7423.000000;0.698151
7422.000000;0.698424
7421.000000;0.699030
7420.000000;0.699825
7419.000000;0.700502
7418.000000;0.700908
7417.000000;0.701177
7416.000000;0.701511
7415.000000;0.701932
7414.000000;0.702305
7413.000000;0.702528
7412.000000;0.702630
7411.000000;0.702709
7410.000000;0.702860
7409.000000;0.703139
7408.000000;0.703542
7407.000000;0.703981
7406.000000;0.704303
7405.000000;0.704409
7404.000000;0.704381
7403.000000;0.704435
7402.000000;0.704747
7401.000000;0.705296
7400.000000;0.705886
7399.000000;0.706327
7398.000000;0.706602
7397.000000;0.706863
7396.000000;0.707303
7395.000000;0.707951
7394.000000;0.708524
7393.000000;0.708709
7392.000000;0.708646
7391.000000;0.708841
7390.000000;0.709561
7389.000000;0.710560
7388.000000;0.711491
7387.000000;0.712343
7386.000000;0.713247
7385.000000;0.714064
7384.000000;0.714577
7383.000000;0.714971
7382.000000;0.715648
7381.000000;0.716551
7380.000000;0.717185
7379.000000;0.717542
7378.000000;0.718462
7377.000000;0.720510
7376.000000;0.722838
7375.000000;0.723934
7374.000000;0.723456
7373.000000;0.722679
7372.000000;0.722931
7371.000000;0.724110
7370.000000;0.724988
7369.000000;0.724603
7368.000000;0.723121
7367.000000;0.721632
7366.000000;0.721216
7365.000000;0.721964
7364.000000;0.722939
7363.000000;0.723210
7362.000000;0.722713
7361.000000;0.722069
7360.000000;0.721859
7359.000000;0.722350
7358.000000;0.723729
7357.000000;0.725810
7356.000000;0.727503
7355.000000;0.727585
7354.000000;0.726351
7353.000000;0.725629
7352.000000;0.726699
7351.000000;0.728942
7350.000000;0.730734
7349.000000;0.731127
7348.000000;0.730469
7347.000000;0.729988
7346.000000;0.730984
7345.000000;0.733715
7344.000000;0.736962
7343.000000;0.739375
7342.000000;0.741323
7341.000000;0.744276
7340.000000;0.748253
7339.000000;0.751223
7338.000000;0.751712
7337.000000;0.750744
7336.000000;0.750086
7335.000000;0.749690
7334.000000;0.748107
7333.000000;0.744906
7332.000000;0.741375
7331.000000;0.739033
7330.000000;0.738478
7329.000000;0.739220
7328.000000;0.739888
7327.000000;0.739367
7326.000000;0.738525
7325.000000;0.739699
7324.000000;0.743564
7323.000000;0.747619
7322.000000;0.749024
7321.000000;0.747996
7320.000000;0.747056
7319.000000;0.747499
7318.000000;0.748041
7317.000000;0.746919
7316.000000;0.744048
7315.000000;0.740812
7314.000000;0.738625
7313.000000;0.738075
7312.000000;0.738717
7311.000000;0.739468
7310.000000;0.739949
7309.000000;0.741291
7308.000000;0.744476
7307.000000;0.748310
7306.000000;0.750484
7305.000000;0.750640
7304.000000;0.750904
7303.000000;0.752939
7302.000000;0.755795
7301.000000;0.757296
7300.000000;0.756547
7299.000000;0.754517
7298.000000;0.752894
7297.000000;0.753028
7296.000000;0.755219
7295.000000;0.758035
7294.000000;0.759162
7293.000000;0.757946
7292.000000;0.756627
7291.000000;0.757885
7290.000000;0.761510
7289.000000;0.764640
7288.000000;0.765004
7287.000000;0.763064
7286.000000;0.760995
7285.000000;0.760331
7284.000000;0.760833
7283.000000;0.761189
7282.000000;0.760485
7281.000000;0.759060
7280.000000;0.758019
7279.000000;0.758115
7278.000000;0.759104
7277.000000;0.760189
7276.000000;0.760978
7275.000000;0.761689
7274.000000;0.762624
7273.000000;0.763817
7272.000000;0.765157
7271.000000;0.766610
7270.000000;0.768286
7269.000000;0.770234
7268.000000;0.772170
7267.000000;0.773643
7266.000000;0.774611
7265.000000;0.775702
7264.000000;0.777578
7263.000000;0.780028
7262.000000;0.782065
7261.000000;0.783119
7260.000000;0.783780
7259.000000;0.785051
7258.000000;0.787161
7257.000000;0.789485
7256.000000;0.791513
7255.000000;0.793443
7254.000000;0.795686
7253.000000;0.798158
7252.000000;0.800395
7251.000000;0.802197
7250.000000;0.803865
7249.000000;0.805727
7248.000000;0.807781
7247.000000;0.809954
7246.000000;0.812693
7245.000000;0.816958
7244.000000;0.822932
7243.000000;0.829056
7242.000000;0.833377
7241.000000;0.835882
7240.000000;0.838517
7239.000000;0.842589
7238.000000;0.847037
7237.000000;0.849973
7236.000000;0.851417
7235.000000;0.853548
7234.000000;0.858087
7233.000000;0.864003
7232.000000;0.868396
7231.000000;0.869687
7230.000000;0.869491
7229.000000;0.870948
7228.000000;0.875386
7227.000000;0.880943
7226.000000;0.884697
7225.000000;0.885943
7224.000000;0.886565
7223.000000;0.888417
7222.000000;0.891362
7221.000000;0.893880
7220.000000;0.894858
7219.000000;0.894653
7218.000000;0.894807
7217.000000;0.896811
7216.000000;0.900781
7215.000000;0.905319
7214.000000;0.908879
7213.000000;0.911259
7212.000000;0.913568
7211.000000;0.916762
7210.000000;0.920597
7209.000000;0.924186
7208.000000;0.927252
7207.000000;0.930331
7206.000000;0.933939
7205.000000;0.938055
7204.000000;0.942348
7203.000000;0.946599
7202.000000;0.950895
7201.000000;0.955436
7200.000000;0.960127
7199.000000;0.964529
7198.000000;0.968393
7197.000000;0.972090
7196.000000;0.976163
7195.000000;0.980515
7194.000000;0.984409
7193.000000;0.987452
7192.000000;0.990188
7191.000000;0.993391
7190.000000;0.997164
7189.000000;1.001127
7188.000000;1.005204
7187.000000;1.009693
7186.000000;1.014739
7185.000000;1.020288
7184.000000;1.026468
7183.000000;1.033448
7182.000000;1.040773
7181.000000;1.047570
7180.000000;1.053714
7179.000000;1.060153
7178.000000;1.067607
7177.000000;1.075369
7176.000000;1.081879
7175.000000;1.086395
7174.000000;1.089736
7173.000000;1.093342
7172.000000;1.097882
7171.000000;1.102918
7170.000000;1.107658
7169.000000;1.111839
7168.000000;1.116103
7167.000000;1.121427
7166.000000;1.128142
7165.000000;1.135684
7164.000000;1.143406
7163.000000;1.151247
7162.000000;1.159139
7161.000000;1.166377
7160.000000;1.172364
7159.000000;1.177653
7158.000000;1.183409
7157.000000;1.189734
7156.000000;1.195241
7155.000000;1.198743
7154.000000;1.200920
7153.000000;1.203643
7152.000000;1.207776
7151.000000;1.212361
7150.000000;1.216077
7149.000000;1.218867
7148.000000;1.221975
7147.000000;1.226577
7146.000000;1.232613
7145.000000;1.239047
7144.000000;1.245205
7143.000000;1.251574
7142.000000;1.259202
7141.000000;1.268319
7140.000000;1.277561
7139.000000;1.285067
7138.000000;1.290613
7137.000000;1.296024
7136.000000;1.302865
7135.000000;1.310353
7134.000000;1.316416
7133.000000;1.320429
7132.000000;1.323794
7131.000000;1.327809
7130.000000;1.332131
7129.000000;1.335713
7128.000000;1.338355
7127.000000;1.340746
7126.000000;1.343507
7125.000000;1.346952
7124.000000;1.351279
7123.000000;1.356334
7122.000000;1.361586
7121.000000;1.366906
7120.000000;1.372909
7119.000000;1.379967
7118.000000;1.387275
7117.000000;1.393686
7116.000000;1.399254
7115.000000;1.405101
7114.000000;1.411721
7113.000000;1.418138
7112.000000;1.423057
7111.000000;1.426457
7110.000000;1.429590
7109.000000;1.433483
7108.000000;1.437824
7107.000000;1.441475
7106.000000;1.443880
7105.000000;1.445716
7104.000000;1.448123
7103.000000;1.451587
7102.000000;1.455772
7101.000000;1.460172
7100.000000;1.464627
7099.000000;1.469078
7098.000000;1.473300
7097.000000;1.477256
7096.000000;1.481202
7095.000000;1.485171
7094.000000;1.488888
7093.000000;1.492394
7092.000000;1.496238
7091.000000;1.500738
7090.000000;1.505329
7089.000000;1.508998
7088.000000;1.511260
7087.000000;1.512548
7086.000000;1.513786
7085.000000;1.515647
7084.000000;1.518036
7083.000000;1.520291
7082.000000;1.522050
7081.000000;1.523847
7080.000000;1.526535
7079.000000;1.530224
7078.000000;1.534232
7077.000000;1.538040
7076.000000;1.541622
7075.000000;1.544831
7074.000000;1.547289
7073.000000;1.549038
7072.000000;1.550678
7071.000000;1.552776
7070.000000;1.555483
7069.000000;1.558627
7068.000000;1.561785
7067.000000;1.564409
7066.000000;1.566399
7065.000000;1.568427
7064.000000;1.571065
7063.000000;1.573748
7062.000000;1.575323
7061.000000;1.575542
7060.000000;1.575269
7059.000000;1.575292
7058.000000;1.575804
7057.000000;1.577027
7056.000000;1.579224
7055.000000;1.581809
7054.000000;1.583551
7053.000000;1.584090
7052.000000;1.584351
7051.000000;1.585287
7050.000000;1.587070
7049.000000;1.589568
7048.000000;1.592642
7047.000000;1.595706
7046.000000;1.597922
7045.000000;1.599327
7044.000000;1.600879
7043.000000;1.602934
7042.000000;1.604621
7041.000000;1.605218
7040.000000;1.605198
7039.000000;1.605316
7038.000000;1.605505
7037.000000;1.605428
7036.000000;1.605353
7035.000000;1.605637
7034.000000;1.605960
7033.000000;1.605854
7032.000000;1.605575
7031.000000;1.605780
7030.000000;1.606683
7029.000000;1.608053
7028.000000;1.609669
7027.000000;1.611317
7026.000000;1.612692
7025.000000;1.613789
7024.000000;1.615053
7023.000000;1.616694
7022.000000;1.618201
7021.000000;1.618995
7020.000000;1.619216
7019.000000;1.619395
7018.000000;1.619716
7017.000000;1.620063
7016.000000;1.620514
7015.000000;1.621253
7014.000000;1.622104
7013.000000;1.622514
7012.000000;1.622058
7011.000000;1.620841
7010.000000;1.619493
7009.000000;1.618781
7008.000000;1.618977
7007.000000;1.619521
7006.000000;1.619620
7005.000000;1.619254
7004.000000;1.619233
7003.000000;1.620228
7002.000000;1.622130
7001.000000;1.624377
7000.000000;1.626420
6999.000000;1.627785
6998.000000;1.628193
6997.000000;1.627909
6996.000000;1.627588
6995.000000;1.627611
6994.000000;1.627820
6993.000000;1.627943
6992.000000;1.627934
6991.000000;1.627817
6990.000000;1.627596
6989.000000;1.627360
6988.000000;1.627135
6987.000000;1.626640
6986.000000;1.625607
6985.000000;1.624330
6984.000000;1.623514
6983.000000;1.623515
6982.000000;1.624083
6981.000000;1.624820
6980.000000;1.625468
6979.000000;1.625777
6978.000000;1.625594
6977.000000;1.625092
6976.000000;1.624533
6975.000000;1.623891
6974.000000;1.623097
6973.000000;1.622452
6972.000000;1.622281
6971.000000;1.622318
6970.000000;1.621994
6969.000000;1.621230
6968.000000;1.620401
6967.000000;1.619721
6966.000000;1.619316
6965.000000;1.619644
6964.000000;1.621049
6963.000000;1.622883
6962.000000;1.623885
6961.000000;1.623573
6960.000000;1.622560
6959.000000;1.621399
6958.000000;1.619988
6957.000000;1.618285
6956.000000;1.616757
6955.000000;1.615809
6954.000000;1.615334
6953.000000;1.615066
6952.000000;1.614966
6951.000000;1.615038
6950.000000;1.615146
6949.000000;1.615175
6948.000000;1.615024
6947.000000;1.614486
6946.000000;1.613575
6945.000000;1.612802
6944.000000;1.612534
6943.000000;1.612246
6942.000000;1.611186
6941.000000;1.609698
6940.000000;1.608991
6939.000000;1.609478
6938.000000;1.610161
6937.000000;1.609896
6936.000000;1.608544
6935.000000;1.606672
6934.000000;1.604859
6933.000000;1.603623
6932.000000;1.603307
6931.000000;1.603602
6930.000000;1.603683
6929.000000;1.603187
6928.000000;1.602603
6927.000000;1.602407
6926.000000;1.602348
6925.000000;1.601947
6924.000000;1.601221
6923.000000;1.600467
6922.000000;1.599660
6921.000000;1.598531
6920.000000;1.597217
6919.000000;1.596424
6918.000000;1.596724
6917.000000;1.597746
6916.000000;1.598249
6915.000000;1.597212
6914.000000;1.594921
6913.000000;1.592661
6912.000000;1.591313
6911.000000;1.590753
6910.000000;1.590713
6909.000000;1.591425
6908.000000;1.592852
6907.000000;1.593917
6906.000000;1.593437
6905.000000;1.591522
6904.000000;1.589238
6903.000000;1.587183
6902.000000;1.585267
6901.000000;1.583605
6900.000000;1.582636
6899.000000;1.582388
6898.000000;1.582456
6897.000000;1.582741
6896.000000;1.583430
6895.000000;1.584196
6894.000000;1.584334
6893.000000;1.583823
6892.000000;1.583386
6891.000000;1.583323
6890.000000;1.583086
6889.000000;1.582167
6888.000000;1.580671
6887.000000;1.578827
6886.000000;1.576733
6885.000000;1.574801
6884.000000;1.573658
6883.000000;1.573255
6882.000000;1.572711
6881.000000;1.571402
6880.000000;1.569688
6879.000000;1.568286
6878.000000;1.567416
6877.000000;1.566799
6876.000000;1.566037
6875.000000;1.564820
6874.000000;1.563211
6873.000000;1.561839
6872.000000;1.561315
6871.000000;1.561454
6870.000000;1.561580
6869.000000;1.561490
6868.000000;1.561456
6867.000000;1.561311
6866.000000;1.560457
6865.000000;1.558924
6864.000000;1.557508
6863.000000;1.556554
6862.000000;1.555461
6861.000000;1.553801
6860.000000;1.552172
6859.000000;1.551420
6858.000000;1.551540
6857.000000;1.551829
6856.000000;1.551741
6855.000000;1.551162
6854.000000;1.550190
6853.000000;1.549058
6852.000000;1.547958
6851.000000;1.546702
6850.000000;1.544873
6849.000000;1.542515
6848.000000;1.540301
6847.000000;1.538806
6846.000000;1.537951
6845.000000;1.537328
6844.000000;1.536699
6843.000000;1.535969
6842.000000;1.535084
6841.000000;1.534238
6840.000000;1.533775
6839.000000;1.533579
6838.000000;1.532925
6837.000000;1.531278
6836.000000;1.528956
6835.000000;1.526635
6834.000000;1.524456
6833.000000;1.522037
6832.000000;1.519265
6831.000000;1.516701
6830.000000;1.515107
6829.000000;1.514675
6828.000000;1.514750
6827.000000;1.514318
6826.000000;1.512838
6825.000000;1.510587
6824.000000;1.508178
6823.000000;1.505901
6822.000000;1.503689
6821.000000;1.501544
6820.000000;1.499669
6819.000000;1.498194
6818.000000;1.496984
6817.000000;1.495749
6816.000000;1.494236
6815.000000;1.492354
6814.000000;1.490192
6813.000000;1.487870
6812.000000;1.485334
6811.000000;1.482504
6810.000000;1.479679
6809.000000;1.477398
6808.000000;1.475727
6807.000000;1.474073
6806.000000;1.471932
6805.000000;1.469456
6804.000000;1.467015
6803.000000;1.464658
6802.000000;1.462457
6801.000000;1.460918
6800.000000;1.460381
6799.000000;1.460253
6798.000000;1.459463
6797.000000;1.457589
6796.000000;1.455058
6795.000000;1.452362
6794.000000;1.449654
6793.000000;1.447015
6792.000000;1.444538
6791.000000;1.442165
6790.000000;1.439840
6789.000000;1.437712
6788.000000;1.435754
6787.000000;1.433419
6786.000000;1.430264
6785.000000;1.426747
6784.000000;1.423770
6783.000000;1.421520
6782.000000;1.419411
6781.000000;1.417111
6780.000000;1.414915
6779.000000;1.412969
6778.000000;1.410865
6777.000000;1.408267
6776.000000;1.405416
6775.000000;1.402716
6774.000000;1.400238
6773.000000;1.397879
6772.000000;1.395638
6771.000000;1.393473
6770.000000;1.391216
6769.000000;1.388859
6768.000000;1.386614
6767.000000;1.384488
6766.000000;1.382071
6765.000000;1.379010
6764.000000;1.375547
6763.000000;1.372367
6762.000000;1.369941
6761.000000;1.368111
6760.000000;1.366236
6759.000000;1.363766
6758.000000;1.360759
6757.000000;1.357783
6756.000000;1.355238
6755.000000;1.352940
6754.000000;1.350482
6753.000000;1.347769
6752.000000;1.344971
6751.000000;1.342160
6750.000000;1.339346
6749.000000;1.336681
6748.000000;1.334265
6747.000000;1.331862
6746.000000;1.329227
6745.000000;1.326607
6744.000000;1.324482
6743.000000;1.322834
6742.000000;1.321072
6741.000000;1.318727
6740.000000;1.315896
6739.000000;1.312968
6738.000000;1.310219
6737.000000;1.307711
6736.000000;1.305278
6735.000000;1.302609
6734.000000;1.299614
6733.000000;1.296694
6732.000000;1.294345
6731.000000;1.292516
6730.000000;1.290637
6729.000000;1.288333
6728.000000;1.285781
6727.000000;1.283303
6726.000000;1.280913
6725.000000;1.278383
6724.000000;1.275568
6723.000000;1.272584
6722.000000;1.269755
6721.000000;1.267369
6720.000000;1.265335
6719.000000;1.263171
6718.000000;1.260529
6717.000000;1.257600
6716.000000;1.254836
6715.000000;1.252399
6714.000000;1.250132
6713.000000;1.247898
6712.000000;1.245627
6711.000000;1.243166
6710.000000;1.240435
6709.000000;1.237658
6708.000000;1.235130
6707.000000;1.232784
6706.000000;1.230397
6705.000000;1.227966
6704.000000;1.225691
6703.000000;1.223544
6702.000000;1.221175
6701.000000;1.218431
6700.000000;1.215642
6699.000000;1.213079
6698.000000;1.210907
6697.000000;1.208760
6696.000000;1.206744
6695.000000;1.204476
6694.000000;1.201556
6693.000000;1.198390
6692.000000;1.195559
6691.000000;1.193271
6690.000000;1.191100
6689.000000;1.188676
6688.000000;1.186123
6687.000000;1.183726
6686.000000;1.181434
6685.000000;1.178945
6684.000000;1.176137
6683.000000;1.173224
6682.000000;1.170556
6681.000000;1.168332
6680.000000;1.166443
6679.000000;1.164564
6678.000000;1.162471
6677.000000;1.160235
6676.000000;1.158003
6675.000000;1.155706
6674.000000;1.153189
6673.000000;1.150537
6672.000000;1.148016
6671.000000;1.145700
6670.000000;1.143417
6669.000000;1.141082
6668.000000;1.138832
6667.000000;1.136777
6666.000000;1.134801
6665.000000;1.132691
6664.000000;1.130327
6663.000000;1.127735
6662.000000;1.125124
6661.000000;1.122808
6660.000000;1.120887
6659.000000;1.119034
6658.000000;1.116812
6657.000000;1.114195
6656.000000;1.111558
6655.000000;1.109166
6654.000000;1.106933
6653.000000;1.104683
6652.000000;1.102358
6651.000000;1.099934
6650.000000;1.097403
6649.000000;1.094943
6648.000000;1.092836
6647.000000;1.091086
6646.000000;1.089317
6645.000000;1.087195
6644.000000;1.084785
6643.000000;1.082381
6642.000000;1.080140
6641.000000;1.078017
6640.000000;1.075936
6639.000000;1.073868
6638.000000;1.071797
6637.000000;1.069719
6636.000000;1.067639
6635.000000;1.065530
6634.000000;1.063340
6633.000000;1.061048
6632.000000;1.058664
6631.000000;1.056197
6630.000000;1.053701
6629.000000;1.051307
6628.000000;1.049077
6627.000000;1.046877
6626.000000;1.044523
6625.000000;1.042061
6624.000000;1.039743
6623.000000;1.037725
6622.000000;1.035923
6621.000000;1.034168
6620.000000;1.032340
6619.000000;1.030332
6618.000000;1.028061
6617.000000;1.025600
6616.000000;1.023187
6615.000000;1.021040
6614.000000;1.019202
6613.000000;1.017554
6612.000000;1.015872
6611.000000;1.013905
6610.000000;1.011556
6609.000000;1.009016
6608.000000;1.006623
6607.000000;1.004520
6606.000000;1.002568
6605.000000;1.000610
6604.000000;0.998692
6603.000000;0.996950
6602.000000;0.995380
6601.000000;0.993789
6600.000000;0.991964
6599.000000;0.989869
6598.000000;0.987691
6597.000000;0.985698
6596.000000;0.983995
6595.000000;0.982417
6594.000000;0.980695
6593.000000;0.978695
6592.000000;0.976484
6591.000000;0.974213
6590.000000;0.972010
6589.000000;0.969957
6588.000000;0.968057
6587.000000;0.966253
6586.000000;0.964498
6585.000000;0.962786
6584.000000;0.961063
6583.000000;0.959202
6582.000000;0.957142
6581.000000;0.954991
6580.000000;0.952918
6579.000000;0.950992
6578.000000;0.949219
6577.000000;0.947615
6576.000000;0.946121
6575.000000;0.944526
6574.000000;0.942642
6573.000000;0.940543
6572.000000;0.938493
6571.000000;0.936649
6570.000000;0.934944
6569.000000;0.933238
6568.000000;0.931469
6567.000000;0.929647
6566.000000;0.927795
6565.000000;0.925918
6564.000000;0.924004
6563.000000;0.922062
6562.000000;0.920179
6561.000000;0.918467
6560.000000;0.916896
6559.000000;0.915282
6558.000000;0.913495
6557.000000;0.911593
6556.000000;0.909708
6555.000000;0.907895
6554.000000;0.906177
6553.000000;0.904603
6552.000000;0.903124
6551.000000;0.901533
6550.000000;0.899696
6549.000000;0.897763
6548.000000;0.895992
6547.000000;0.894405
6546.000000;0.892793
6545.000000;0.891004
6544.000000;0.889091
6543.000000;0.887206
6542.000000;0.885484
6541.000000;0.883994
6540.000000;0.882648
6539.000000;0.881183
6538.000000;0.879366
6537.000000;0.877246
6536.000000;0.875101
6535.000000;0.873171
6534.000000;0.871501
6533.000000;0.870008
6532.000000;0.868570
6531.000000;0.867103
6530.000000;0.865632
6529.000000;0.864262
6528.000000;0.862987
6527.000000;0.861625
6526.000000;0.860040
6525.000000;0.858334
6524.000000;0.856684
6523.000000;0.855081
6522.000000;0.853390
6521.000000;0.851599
6520.000000;0.849836
6519.000000;0.848178
6518.000000;0.846598
6517.000000;0.845091
6516.000000;0.843683
6515.000000;0.842328
6514.000000;0.840925
6513.000000;0.839438
6512.000000;0.837898
6511.000000;0.836309
6510.000000;0.834675
6509.000000;0.833073
6508.000000;0.831573
6507.000000;0.830112
6506.000000;0.828600
6505.000000;0.827087
6504.000000;0.825699
6503.000000;0.824413
6502.000000;0.823070
6501.000000;0.821583
6500.000000;0.820009
6499.000000;0.818413
6498.000000;0.816814
6497.000000;0.815257
6496.000000;0.813801
6495.000000;0.812425
6494.000000;0.811054
6493.000000;0.809678
6492.000000;0.808336
6491.000000;0.807004
6490.000000;0.805625
6489.000000;0.804226
6488.000000;0.802889
6487.000000;0.801599
6486.000000;0.800256
6485.000000;0.798819
6484.000000;0.797339
6483.000000;0.795855
6482.000000;0.794376
6481.000000;0.792935
6480.000000;0.791550
6479.000000;0.790130
6478.000000;0.788578
6477.000000;0.786963
6476.000000;0.785469
6475.000000;0.784164
6474.000000;0.782938
6473.000000;0.781686
6472.000000;0.780417
6471.000000;0.779181
6470.000000;0.777986
6469.000000;0.776817
6468.000000;0.775632
6467.000000;0.774357
6466.000000;0.772977
6465.000000;0.771605
6464.000000;0.770367
6463.000000;0.769215
6462.000000;0.768000
6461.000000;0.766677
6460.000000;0.765331
6459.000000;0.764007
6458.000000;0.762663
6457.000000;0.761305
6456.000000;0.760026
6455.000000;0.758865
6454.000000;0.757723
6453.000000;0.756483
6452.000000;0.755116
6451.000000;0.753666
6450.000000;0.752202
6449.000000;0.750809
6448.000000;0.749531
6447.000000;0.748325
6446.000000;0.747127
6445.000000;0.745951
6444.000000;0.744845
6443.000000;0.743766
6442.000000;0.742607
6441.000000;0.741349
6440.000000;0.740083
6439.000000;0.738882
6438.000000;0.737745
6437.000000;0.736657
6436.000000;0.735610
6435.000000;0.734561
6434.000000;0.733444
6433.000000;0.732253
6432.000000;0.731039
6431.000000;0.729843
6430.000000;0.728688
6429.000000;0.727587
6428.000000;0.726497
6427.000000;0.725312
6426.000000;0.723991
6425.000000;0.722660
6424.000000;0.721479
6423.000000;0.720427
6422.000000;0.719347
6421.000000;0.718167
6420.000000;0.716962
6419.000000;0.715806
6418.000000;0.714687
6417.000000;0.713580
6416.000000;0.712477
6415.000000;0.711363
6414.000000;0.710229
6413.000000;0.709120
6412.000000;0.708076
6411.000000;0.707034
6410.000000;0.705897
6409.000000;0.704684
6408.000000;0.703515
6407.000000;0.702457
6406.000000;0.701467
6405.000000;0.700488
6404.000000;0.699485
6403.000000;0.698421
6402.000000;0.697304
6401.000000;0.696234
6400.000000;0.695304
6399.000000;0.694440
6398.000000;0.693475
6397.000000;0.692359
6396.000000;0.691190
6395.000000;0.690058
6394.000000;0.688973
6393.000000;0.687957
6392.000000;0.687039
6391.000000;0.686151
6390.000000;0.685155
6389.000000;0.684006
6388.000000;0.682809
6387.000000;0.681688
6386.000000;0.680700
6385.000000;0.679868
6384.000000;0.679158
6383.000000;0.678424
6382.000000;0.677502
6381.000000;0.676393
6380.000000;0.675257
6379.000000;0.674207
6378.000000;0.673217
6377.000000;0.672243
6376.000000;0.671305
6375.000000;0.670391
6374.000000;0.669418
6373.000000;0.668352
6372.000000;0.667277
6371.000000;0.666287
6370.000000;0.665376
6369.000000;0.664489
6368.000000;0.663599
6367.000000;0.662691
6366.000000;0.661743
6365.000000;0.660780
6364.000000;0.659879
6363.000000;0.659064
6362.000000;0.658255
6361.000000;0.657363
6360.000000;0.656400
6359.000000;0.655456
6358.000000;0.654583
6357.000000;0.653746
6356.000000;0.652855
6355.000000;0.651849
6354.000000;0.650785
6353.000000;0.649799
6352.000000;0.648972
6351.000000;0.648231
6350.000000;0.647449
6349.000000;0.646580
6348.000000;0.645652
6347.000000;0.644679
6346.000000;0.643664
6345.000000;0.642671
6344.000000;0.641772
6343.000000;0.640957
6342.000000;0.640162
6341.000000;0.639380
6340.000000;0.638649
6339.000000;0.637941
6338.000000;0.637184
6337.000000;0.636375
6336.000000;0.635581
6335.000000;0.634815
6334.000000;0.634024
6333.000000;0.633208
6332.000000;0.632431
6331.000000;0.631701
6330.000000;0.630925
6329.000000;0.630034
6328.000000;0.629061
6327.000000;0.628083
6326.000000;0.627146
6325.000000;0.626266
6324.000000;0.625439
6323.000000;0.624641
6322.000000;0.623856
6321.000000;0.623110
6320.000000;0.622415
6319.000000;0.621703
6318.000000;0.620908
6317.000000;0.620087
6316.000000;0.619351
6315.000000;0.618699
6314.000000;0.618014
6313.000000;0.617231
6312.000000;0.616390
6311.000000;0.615522
6310.000000;0.614615
6309.000000;0.613707
6308.000000;0.612902
6307.000000;0.612234
6306.000000;0.611613
6305.000000;0.610945
6304.000000;0.610229
6303.000000;0.609487
6302.000000;0.608706
6301.000000;0.607887
6300.000000;0.607104
6299.000000;0.606420
6298.000000;0.605810
6297.000000;0.605197
6296.000000;0.604528
6295.000000;0.603800
6294.000000;0.603051
6293.000000;0.602343
6292.000000;0.601699
6291.000000;0.601059
6290.000000;0.600336
6289.000000;0.599534
6288.000000;0.598734
6287.000000;0.597974
6286.000000;0.597218
6285.000000;0.596447
6284.000000;0.595717
6283.000000;0.595078
6282.000000;0.594511
6281.000000;0.593953
6280.000000;0.593355
6279.000000;0.592691
6278.000000;0.591966
6277.000000;0.591219
6276.000000;0.590476
6275.000000;0.589713
6274.000000;0.588896
6273.000000;0.588067
6272.000000;0.587311
6271.000000;0.586647
6270.000000;0.586017
6269.000000;0.585373
6268.000000;0.584717
6267.000000;0.584051
6266.000000;0.583373
6265.000000;0.582717
6264.000000;0.582124
6263.000000;0.581578
6262.000000;0.581017
6261.000000;0.580422
6260.000000;0.579810
6259.000000;0.579157
6258.000000;0.578408
6257.000000;0.577591
6256.000000;0.576819
6255.000000;0.576175
6254.000000;0.575638
6253.000000;0.575137
6252.000000;0.574603
6251.000000;0.573974
6250.000000;0.573225
6249.000000;0.572422
6248.000000;0.571673
6247.000000;0.571030
6246.000000;0.570454
6245.000000;0.569899
6244.000000;0.569347
6243.000000;0.568787
6242.000000;0.568229
6241.000000;0.567715
6240.000000;0.567270
6239.000000;0.566829
6238.000000;0.566306
6237.000000;0.565717
6236.000000;0.565142
6235.000000;0.564583
6234.000000;0.563948
6233.000000;0.563192
6232.000000;0.562391
6231.000000;0.561640
6230.000000;0.560966
6229.000000;0.560361
6228.000000;0.559812
6227.000000;0.559277
6226.000000;0.558689
6225.000000;0.558028
6224.000000;0.557336
6223.000000;0.556658
6222.000000;0.556030
6221.000000;0.555501
6220.000000;0.555088
6219.000000;0.554700
6218.000000;0.554205
6217.000000;0.553583
6216.000000;0.552935
6215.000000;0.552335
6214.000000;0.551762
6213.000000;0.551192
6212.000000;0.550649
6211.000000;0.550149
6210.000000;0.549663
6209.000000;0.549175
6208.000000;0.548712
6207.000000;0.548271
6206.000000;0.547804
6205.000000;0.547298
6204.000000;0.546792
6203.000000;0.546281
6202.000000;0.545699
6201.000000;0.545022
6200.000000;0.544328
6199.000000;0.543702
6198.000000;0.543147
6197.000000;0.542623
6196.000000;0.542107
6195.000000;0.541577
6194.000000;0.541002
6193.000000;0.540396
6192.000000;0.539820
6191.000000;0.539306
6190.000000;0.538816
6189.000000;0.538305
6188.000000;0.537780
6187.000000;0.537251
6186.000000;0.536697
6185.000000;0.536121
6184.000000;0.535580
6183.000000;0.535115
6182.000000;0.534685
6181.000000;0.534209
6180.000000;0.533658
6179.000000;0.533076
6178.000000;0.532539
6177.000000;0.532098
6176.000000;0.531738
6175.000000;0.531383
6174.000000;0.530953
6173.000000;0.530443
6172.000000;0.529901
6171.000000;0.529357
6170.000000;0.528808
6169.000000;0.528268
6168.000000;0.527763
6167.000000;0.527289
6166.000000;0.526818
6165.000000;0.526351
6164.000000;0.525904
6163.000000;0.525438
6162.000000;0.524890
6161.000000;0.524285
6160.000000;0.523725
6159.000000;0.523273
6158.000000;0.522898
6157.000000;0.522554
6156.000000;0.522228
6155.000000;0.521885
6154.000000;0.521446
6153.000000;0.520872
6152.000000;0.520214
6151.000000;0.519552
6150.000000;0.518926
6149.000000;0.518344
6148.000000;0.517811
6147.000000;0.517306
6146.000000;0.516791
6145.000000;0.516267
6144.000000;0.515781
6143.000000;0.515358
6142.000000;0.514971
6141.000000;0.514585
6140.000000;0.514198
6139.000000;0.513817
6138.000000;0.513454
6137.000000;0.513133
6136.000000;0.512862
6135.000000;0.512575
6134.000000;0.512175
6133.000000;0.511665
6132.000000;0.511147
6131.000000;0.510699
6130.000000;0.510281
6129.000000;0.509826
6128.000000;0.509343
6127.000000;0.508894
6126.000000;0.508504
6125.000000;0.508141
6124.000000;0.507763
6123.000000;0.507351
6122.000000;0.506922
6121.000000;0.506514
6120.000000;0.506137
6119.000000;0.505746
6118.000000;0.505297
6117.000000;0.504814
6116.000000;0.504349
6115.000000;0.503882
6114.000000;0.503332
6113.000000;0.502689
6112.000000;0.502068
6111.000000;0.501581
6110.000000;0.501235
6109.000000;0.500952
6108.000000;0.500659
6107.000000;0.500322
6106.000000;0.499951
6105.000000;0.499596
6104.000000;0.499303
6103.000000;0.499039
6102.000000;0.498710
6101.000000;0.498273
6100.000000;0.497783
6099.000000;0.497319
6098.000000;0.496888
6097.000000;0.496455
6096.000000;0.495999
6095.000000;0.495527
6094.000000;0.495058
6093.000000;0.494621
6092.000000;0.494239
6091.000000;0.493913
6090.000000;0.493617
6089.000000;0.493325
6088.000000;0.493009
6087.000000;0.492632
6086.000000;0.492194
6085.000000;0.491770
6084.000000;0.491447
6083.000000;0.491200
6082.000000;0.490905
6081.000000;0.490478
6080.000000;0.489953
6079.000000;0.489424
6078.000000;0.488952
6077.000000;0.488556
6076.000000;0.488227
6075.000000;0.487935
6074.000000;0.487651
6073.000000;0.487387
6072.000000;0.487154
6071.000000;0.486905
6070.000000;0.486564
6069.000000;0.486129
6068.000000;0.485686
6067.000000;0.485300
6066.000000;0.484964
6065.000000;0.484648
6064.000000;0.484342
6063.000000;0.484020
6062.000000;0.483640
6061.000000;0.483217
6060.000000;0.482831
6059.000000;0.482532
6058.000000;0.482278
6057.000000;0.481998
6056.000000;0.481680
6055.000000;0.481350
6054.000000;0.481024
6053.000000;0.480706
6052.000000;0.480397
6051.000000;0.480074
6050.000000;0.479698
6049.000000;0.479272
6048.000000;0.478868
6047.000000;0.478556
6046.000000;0.478328
6045.000000;0.478107
6044.000000;0.477824
6043.000000;0.477456
6042.000000;0.477030
6041.000000;0.476590
6040.000000;0.476177
6039.000000;0.475816
6038.000000;0.475527
6037.000000;0.475318
6036.000000;0.475155
6035.000000;0.474964
6034.000000;0.474721
6033.000000;0.474484
6032.000000;0.474297
6031.000000;0.474088
6030.000000;0.473747
6029.000000;0.473283
6028.000000;0.472822
6027.000000;0.472445
6026.000000;0.472114
6025.000000;0.471775
6024.000000;0.471449
6023.000000;0.471172
6022.000000;0.470921
6021.000000;0.470658
6020.000000;0.470393
6019.000000;0.470158
6018.000000;0.469949
6017.000000;0.469728
6016.000000;0.469469
6015.000000;0.469163
6014.000000;0.468820
6013.000000;0.468477
6012.000000;0.468171
6011.000000;0.467897
6010.000000;0.467615
6009.000000;0.467317
6008.000000;0.467040
6007.000000;0.466810
6006.000000;0.466596
6005.000000;0.466349
6004.000000;0.466048
6003.000000;0.465706
6002.000000;0.465373
6001.000000;0.465116
6000.000000;0.464956
5999.000000;0.464824
5998.000000;0.464630
5997.000000;0.464376
5996.000000;0.464154
5995.000000;0.464021
5994.000000;0.463926
5993.000000;0.463792
5992.000000;0.463594
5991.000000;0.463342
5990.000000;0.463046
5989.000000;0.462731
5988.000000;0.462437
5987.000000;0.462179
5986.000000;0.461937
5985.000000;0.461704
5984.000000;0.461501
5983.000000;0.461333
5982.000000;0.461156
5981.000000;0.460917
5980.000000;0.460599
5979.000000;0.460227
5978.000000;0.459843
5977.000000;0.459514
5976.000000;0.459295
5975.000000;0.459168
5974.000000;0.459049
5973.000000;0.458861
5972.000000;0.458590
5971.000000;0.458278
5970.000000;0.457989
5969.000000;0.457787
5968.000000;0.457679
5967.000000;0.457587
5966.000000;0.457432
5965.000000;0.457229
5964.000000;0.457053
5963.000000;0.456911
5962.000000;0.456732
5961.000000;0.456493
5960.000000;0.456271
5959.000000;0.456125
5958.000000;0.456013
5957.000000;0.455862
5956.000000;0.455676
5955.000000;0.455506
5954.000000;0.455378
5953.000000;0.455287
5952.000000;0.455233
5951.000000;0.455194
5950.000000;0.455108
5949.000000;0.454934
5948.000000;0.454708
5947.000000;0.454508
5946.000000;0.454372
5945.000000;0.454277
5944.000000;0.454188
5943.000000;0.454077
5942.000000;0.453918
5941.000000;0.453711
5940.000000;0.453492
5939.000000;0.453306
5938.000000;0.453159
5937.000000;0.453020
5936.000000;0.452867
5935.000000;0.452710
5934.000000;0.452578
5933.000000;0.452483
5932.000000;0.452401
5931.000000;0.452288
5930.000000;0.452135
5929.000000;0.451981
5928.000000;0.451858
5927.000000;0.451733
5926.000000;0.451561
5925.000000;0.451366
5924.000000;0.451222
5923.000000;0.451158
5922.000000;0.451121
5921.000000;0.451059
5920.000000;0.450962
5919.000000;0.450840
5918.000000;0.450699
5917.000000;0.450565
5916.000000;0.450463
5915.000000;0.450379
5914.000000;0.450259
5913.000000;0.450094
5912.000000;0.449937
5911.000000;0.449836
5910.000000;0.449766
5909.000000;0.449680
5908.000000;0.449564
5907.000000;0.449443
5906.000000;0.449336
5905.000000;0.449249
5904.000000;0.449175
5903.000000;0.449095
5902.000000;0.448988
5901.000000;0.448856
5900.000000;0.448727
5899.000000;0.448618
5898.000000;0.448536
5897.000000;0.448496
5896.000000;0.448504
5895.000000;0.448526
5894.000000;0.448498
5893.000000;0.448398
5892.000000;0.448272
5891.000000;0.448174
5890.000000;0.448117
5889.000000;0.448080
5888.000000;0.448044
5887.000000;0.447996
5886.000000;0.447941
5885.000000;0.447896
5884.000000;0.447859
5883.000000;0.447781
5882.000000;0.447618
5881.000000;0.447410
5880.000000;0.447256
5879.000000;0.447199
5878.000000;0.447197
5877.000000;0.447189
5876.000000;0.447164
5875.000000;0.447139
5874.000000;0.447119
5873.000000;0.447103
5872.000000;0.447102
5871.000000;0.447121
5870.000000;0.447150
5869.000000;0.447169
5868.000000;0.447157
5867.000000;0.447102
5866.000000;0.447018
5865.000000;0.446959
5864.000000;0.446964
5863.000000;0.447004
5862.000000;0.447011
5861.000000;0.446972
5860.000000;0.446944
5859.000000;0.446980
5858.000000;0.447072
5857.000000;0.447175
5856.000000;0.447251
5855.000000;0.447281
5854.000000;0.447277
5853.000000;0.447277
5852.000000;0.447316
5851.000000;0.447385
5850.000000;0.447455
5849.000000;0.447522
5848.000000;0.447587
5847.000000;0.447621
5846.000000;0.447598
5845.000000;0.447560
5844.000000;0.447571
5843.000000;0.447632
5842.000000;0.447678
5841.000000;0.447689
5840.000000;0.447713
5839.000000;0.447784
5838.000000;0.447864
5837.000000;0.447902
5836.000000;0.447913
5835.000000;0.447960
5834.000000;0.448088
5833.000000;0.448294
5832.000000;0.448530
5831.000000;0.448722
5830.000000;0.448823
5829.000000;0.448858
5828.000000;0.448894
5827.000000;0.448961
5826.000000;0.449052
5825.000000;0.449171
5824.000000;0.449333
5823.000000;0.449514
5822.000000;0.449665
5821.000000;0.449786
5820.000000;0.449941
5819.000000;0.450160
5818.000000;0.450392
5817.000000;0.450571
5816.000000;0.450697
5815.000000;0.450817
5814.000000;0.450960
5813.000000;0.451123
5812.000000;0.451297
5811.000000;0.451472
5810.000000;0.451647
5809.000000;0.451826
5808.000000;0.452013
5807.000000;0.452193
5806.000000;0.452344
5805.000000;0.452461
5804.000000;0.452564
5803.000000;0.452681
5802.000000;0.452837
5801.000000;0.453046
5800.000000;0.453279
5799.000000;0.453479
5798.000000;0.453627
5797.000000;0.453781
5796.000000;0.454003
5795.000000;0.454282
5794.000000;0.454566
5793.000000;0.454858
5792.000000;0.455187
5791.000000;0.455518
5790.000000;0.455761
5789.000000;0.455894
5788.000000;0.455997
5787.000000;0.456164
5786.000000;0.456418
5785.000000;0.456728
5784.000000;0.457051
5783.000000;0.457341
5782.000000;0.457567
5781.000000;0.457749
5780.000000;0.457949
5779.000000;0.458209
5778.000000;0.458522
5777.000000;0.458859
5776.000000;0.459182
5775.000000;0.459449
5774.000000;0.459652
5773.000000;0.459845
5772.000000;0.460101
5771.000000;0.460441
5770.000000;0.460851
5769.000000;0.461324
5768.000000;0.461838
5767.000000;0.462295
5766.000000;0.462602
5765.000000;0.462785
5764.000000;0.462976
5763.000000;0.463249
5762.000000;0.463561
5761.000000;0.463849
5760.000000;0.464130
5759.000000;0.464444
5758.000000;0.464793
5757.000000;0.465148
5756.000000;0.465498
5755.000000;0.465857
5754.000000;0.466243
5753.000000;0.466658
5752.000000;0.467082
5751.000000;0.467474
5750.000000;0.467826
5749.000000;0.468190
5748.000000;0.468608
5747.000000;0.469051
5746.000000;0.469461
5745.000000;0.469845
5744.000000;0.470249
5743.000000;0.470681
5742.000000;0.471122
5741.000000;0.471605
5740.000000;0.472182
5739.000000;0.472819
5738.000000;0.473396
5737.000000;0.473850
5736.000000;0.474222
5735.000000;0.474574
5734.000000;0.474929
5733.000000;0.475306
5732.000000;0.475733
5731.000000;0.476200
5730.000000;0.476672
5729.000000;0.477150
5728.000000;0.477675
5727.000000;0.478243
5726.000000;0.478806
5725.000000;0.479362
5724.000000;0.479953
5723.000000;0.480573
5722.000000;0.481146
5721.000000;0.481639
5720.000000;0.482101
5719.000000;0.482571
5718.000000;0.483029
5717.000000;0.483475
5716.000000;0.483962
5715.000000;0.484517
5714.000000;0.485090
5713.000000;0.485644
5712.000000;0.486216
5711.000000;0.486845
5710.000000;0.487485
5709.000000;0.488074
5708.000000;0.488621
5707.000000;0.489180
5706.000000;0.489773
5705.000000;0.490392
5704.000000;0.491031
5703.000000;0.491676
5702.000000;0.492282
5701.000000;0.492809
5700.000000;0.493281
5699.000000;0.493778
5698.000000;0.494367
5697.000000;0.495055
5696.000000;0.495764
5695.000000;0.496429
5694.000000;0.497013
5693.000000;0.497707
5692.000000;0.498462
5691.000000;0.499169
5690.000000;0.499770
5689.000000;0.500232
5688.000000;0.500708
5687.000000;0.501304
5686.000000;0.502018
5685.000000;0.502778
5684.000000;0.503528
5683.000000;0.504208
5682.000000;0.504767
5681.000000;0.505237
5680.000000;0.505733
5679.000000;0.506326
5678.000000;0.506964
5677.000000;0.507561
5676.000000;0.508117
5675.000000;0.508707
5674.000000;0.509394
5673.000000;0.510164
5672.000000;0.510927
5671.000000;0.511566
5670.000000;0.512039
5669.000000;0.512439
5668.000000;0.512915
5667.000000;0.513538
5666.000000;0.514266
5665.000000;0.515030
5664.000000;0.515780
5663.000000;0.516464
5662.000000;0.517037
5661.000000;0.517524
5660.000000;0.517996
5659.000000;0.518490
5658.000000;0.519019
5657.000000;0.519625
5656.000000;0.520337
5655.000000;0.521075
5654.000000;0.521703
5653.000000;0.522190
5652.000000;0.522634
5651.000000;0.523124
5650.000000;0.523651
5649.000000;0.524189
5648.000000;0.524743
5647.000000;0.525312
5646.000000;0.525868
5645.000000;0.526420
5644.000000;0.526996
5643.000000;0.527544
5642.000000;0.527961
5641.000000;0.528241
5640.000000;0.528517
5639.000000;0.528908
5638.000000;0.529420
5637.000000;0.530014
5636.000000;0.530661
5635.000000;0.531289
5634.000000;0.531801
5633.000000;0.532203
5632.000000;0.532616
5631.000000;0.533096
5630.000000;0.533544
5629.000000;0.533872
5628.000000;0.534150
5627.000000;0.534502
5626.000000;0.534931
5625.000000;0.535335
5624.000000;0.535656
5623.000000;0.535913
5622.000000;0.536158
5621.000000;0.536453
5620.000000;0.536847
5619.000000;0.537299
5618.000000;0.537691
5617.000000;0.537970
5616.000000;0.538227
5615.000000;0.538573
5614.000000;0.539000
5613.000000;0.539424
5612.000000;0.539809
5611.000000;0.540159
5610.000000;0.540459
5609.000000;0.540695
5608.000000;0.540911
5607.000000;0.541170
5606.000000;0.541479
5605.000000;0.541803
5604.000000;0.542114
5603.000000;0.542403
5602.000000;0.542656
5601.000000;0.542875
5600.000000;0.543072
5599.000000;0.543240
5598.000000;0.543372
5597.000000;0.543511
5596.000000;0.543719
5595.000000;0.543977
5594.000000;0.544189
5593.000000;0.544295
5592.000000;0.544325
5591.000000;0.544315
5590.000000;0.544267
5589.000000;0.544224
5588.000000;0.544261
5587.000000;0.544370
5586.000000;0.544441
5585.000000;0.544409
5584.000000;0.544350
5583.000000;0.544350
5582.000000;0.544391
5581.000000;0.544413
5580.000000;0.544413
5579.000000;0.544410
5578.000000;0.544381
5577.000000;0.544327
5576.000000;0.544326
5575.000000;0.544433
5574.000000;0.544586
5573.000000;0.544694
5572.000000;0.544755
5571.000000;0.544815
5570.000000;0.544850
5569.000000;0.544810
5568.000000;0.544742
5567.000000;0.544748
5566.000000;0.544841
5565.000000;0.544928
5564.000000;0.544943
5563.000000;0.544905
5562.000000;0.544841
5561.000000;0.544739
5560.000000;0.544580
5559.000000;0.544370
5558.000000;0.544126
5557.000000;0.543879
5556.000000;0.543711
5555.000000;0.543735
5554.000000;0.543993
5553.000000;0.544411
5552.000000;0.544883
5551.000000;0.545368
5550.000000;0.545874
5549.000000;0.546344
5548.000000;0.546641
5547.000000;0.546666
5546.000000;0.546450
5545.000000;0.546108
5544.000000;0.545708
5543.000000;0.545235
5542.000000;0.544676
5541.000000;0.544101
5540.000000;0.543651
5539.000000;0.543434
5538.000000;0.543446
5537.000000;0.543592
5536.000000;0.543796
5535.000000;0.544059
5534.000000;0.544385
5533.000000;0.544703
5532.000000;0.544897
5531.000000;0.544882
5530.000000;0.544636
5529.000000;0.544152
5528.000000;0.543465
5527.000000;0.542698
5526.000000;0.542051
5525.000000;0.541710
5524.000000;0.541746
5523.000000;0.542065
5522.000000;0.542499
5521.000000;0.542932
5520.000000;0.543393
5519.000000;0.543978
5518.000000;0.544660
5517.000000;0.545248
5516.000000;0.545562
5515.000000;0.545550
5514.000000;0.545243
5513.000000;0.544654
5512.000000;0.543881
5511.000000;0.543263
5510.000000;0.543176
5509.000000;0.543625
5508.000000;0.544238
5507.000000;0.544750
5506.000000;0.545308
5505.000000;0.546149
5504.000000;0.547104
5503.000000;0.547698
5502.000000;0.547733
5501.000000;0.547421
5500.000000;0.546915
5499.000000;0.546061
5498.000000;0.544799
5497.000000;0.543681
5496.000000;0.543645
5495.000000;0.545033
5494.000000;0.547223
5493.000000;0.549411
5492.000000;0.551524
5491.000000;0.554033
5490.000000;0.556896
5489.000000;0.559267
5488.000000;0.560428
5487.000000;0.560499
5486.000000;0.559896
5485.000000;0.558514
5484.000000;0.556018
5483.000000;0.552722
5482.000000;0.549544
5481.000000;0.547043
5480.000000;0.545061
5479.000000;0.543706
5478.000000;0.543827
5477.000000;0.545945
5476.000000;0.549316
5475.000000;0.552546
5474.000000;0.555089
5473.000000;0.557418
5472.000000;0.559678
5471.000000;0.561163
5470.000000;0.561393
5469.000000;0.560835
5468.000000;0.560160
5467.000000;0.559432
5466.000000;0.558440
5465.000000;0.557574
5464.000000;0.557833
5463.000000;0.559723
5462.000000;0.562542
5461.000000;0.564979
5460.000000;0.566309
5459.000000;0.566869
5458.000000;0.567271
5457.000000;0.567478
5456.000000;0.567040
5455.000000;0.565875
5454.000000;0.564415
5453.000000;0.563163
5452.000000;0.562350
5451.000000;0.561913
5450.000000;0.561862
5449.000000;0.562738
5448.000000;0.565322
5447.000000;0.569580
5446.000000;0.574183
5445.000000;0.577987
5444.000000;0.581548
5443.000000;0.585934
5442.000000;0.590496
5441.000000;0.593318
5440.000000;0.593695
5439.000000;0.592996
5438.000000;0.592749
5437.000000;0.592899
5436.000000;0.592619
5435.000000;0.591867
5434.000000;0.591311
5433.000000;0.591621
5432.000000;0.593216
5431.000000;0.596028
5430.000000;0.599458
5429.000000;0.602834
5428.000000;0.605774
5427.000000;0.608032
5426.000000;0.609184
5425.000000;0.608892
5424.000000;0.607406
5423.000000;0.605355
5422.000000;0.603064
5421.000000;0.600362
5420.000000;0.597057
5419.000000;0.593489
5418.000000;0.590884
5417.000000;0.590979
5416.000000;0.594610
5415.000000;0.600857
5414.000000;0.608053
5413.000000;0.615644
5412.000000;0.624268
5411.000000;0.633673
5410.000000;0.641877
5409.000000;0.647190
5408.000000;0.649923
5407.000000;0.651091
5406.000000;0.650443
5405.000000;0.647255
5404.000000;0.642376
5403.000000;0.637919
5402.000000;0.635121
5401.000000;0.633724
5400.000000;0.633487
5399.000000;0.634726
5398.000000;0.637539
5397.000000;0.641816
5396.000000;0.647550
5395.000000;0.654543
5394.000000;0.661902
5393.000000;0.668615
5392.000000;0.674607
5391.000000;0.680244
5390.000000;0.685229
5389.000000;0.689014
5388.000000;0.691903
5387.000000;0.694788
5386.000000;0.697803
5385.000000;0.700342
5384.000000;0.702482
5383.000000;0.705251
5382.000000;0.709014
5381.000000;0.713136
5380.000000;0.717633
5379.000000;0.723315
5378.000000;0.730197
5377.000000;0.737235
5376.000000;0.743930
5375.000000;0.751119
5374.000000;0.759393
5373.000000;0.767686
5372.000000;0.774537
5371.000000;0.779755
5370.000000;0.783984
5369.000000;0.787419
5368.000000;0.789966
5367.000000;0.792392
5366.000000;0.796115
5365.000000;0.801799
5364.000000;0.808953
5363.000000;0.817041
5362.000000;0.826007
5361.000000;0.835664
5360.000000;0.845365
5359.000000;0.854531
5358.000000;0.863393
5357.000000;0.872888
5356.000000;0.883857
5355.000000;0.896442
5354.000000;0.910065
5353.000000;0.924010
5352.000000;0.938129
5351.000000;0.952738
5350.000000;0.967552
5349.000000;0.981613
5348.000000;0.994866
5347.000000;1.008661
5346.000000;1.023902
5345.000000;1.039524
5344.000000;1.053778
5343.000000;1.066871
5342.000000;1.081103
5341.000000;1.097701
5340.000000;1.115330
5339.000000;1.132335
5338.000000;1.148633
5337.000000;1.164650
5336.000000;1.179915
5335.000000;1.193877
5334.000000;1.207138
5333.000000;1.220762
5332.000000;1.234724
5331.000000;1.248286
5330.000000;1.261589
5329.000000;1.275755
5328.000000;1.291512
5327.000000;1.308573
5326.000000;1.326519
5325.000000;1.345171
5324.000000;1.363741
5323.000000;1.381050
5322.000000;1.397166
5321.000000;1.413346
5320.000000;1.430104
5319.000000;1.446655
5318.000000;1.462545
5317.000000;1.478483
5316.000000;1.495198
5315.000000;1.512636
5314.000000;1.530607
5313.000000;1.549114
5312.000000;1.567723
5311.000000;1.585877
5310.000000;1.603722
5309.000000;1.621434
5308.000000;1.638096
5307.000000;1.652702
5306.000000;1.666058
5305.000000;1.679782
5304.000000;1.693592
5303.000000;1.705680
5302.000000;1.715800
5301.000000;1.725797
5300.000000;1.736576
5299.000000;1.746656
5298.000000;1.754530
5297.000000;1.760617
5296.000000;1.765893
5295.000000;1.770495
5294.000000;1.774908
5293.000000;1.780538
5292.000000;1.787583
5291.000000;1.794052
5290.000000;1.798263
5289.000000;1.801281
5288.000000;1.805427
5287.000000;1.811148
5286.000000;1.816750
5285.000000;1.820474
5284.000000;1.821939
5283.000000;1.821964
5282.000000;1.821704
5281.000000;1.821965
5280.000000;1.823001
5279.000000;1.824780
5278.000000;1.827050
5277.000000;1.828785
5276.000000;1.828262
5275.000000;1.824751
5274.000000;1.819935
5273.000000;1.816512
5272.000000;1.815569
5271.000000;1.816325
5270.000000;1.817919
5269.000000;1.820069
5268.000000;1.822586
5267.000000;1.825668
5266.000000;1.830241
5265.000000;1.836662
5264.000000;1.843224
5263.000000;1.847455
5262.000000;1.848914
5261.000000;1.849086
5260.000000;1.848651
5259.000000;1.847123
5258.000000;1.844918
5257.000000;1.843323
5256.000000;1.842203
5255.000000;1.839839
5254.000000;1.835732
5253.000000;1.831857
5252.000000;1.830352
5251.000000;1.831416
5250.000000;1.834136
5249.000000;1.837542
5248.000000;1.840400
5247.000000;1.841634
5246.000000;1.841576
5245.000000;1.841623
5244.000000;1.842133
5243.000000;1.842189
5242.000000;1.841424
5241.000000;1.840369
5240.000000;1.838683
5239.000000;1.835034
5238.000000;1.829443
5237.000000;1.823991
5236.000000;1.820463
5235.000000;1.818775
5234.000000;1.818280
5233.000000;1.818822
5232.000000;1.819815
5231.000000;1.819859
5230.000000;1.818526
5229.000000;1.817478
5228.000000;1.818564
5227.000000;1.821655
5226.000000;1.825129
5225.000000;1.827649
5224.000000;1.828636
5223.000000;1.828032
5222.000000;1.826614
5221.000000;1.825635
5220.000000;1.825304
5219.000000;1.824332
5218.000000;1.821940
5217.000000;1.819347
5216.000000;1.818000
5215.000000;1.817553
5214.000000;1.816794
5213.000000;1.815677
5212.000000;1.815000
5211.000000;1.814761
5210.000000;1.814608
5209.000000;1.815279
5208.000000;1.817705
5207.000000;1.821084
5206.000000;1.823620
5205.000000;1.824876
5204.000000;1.825730
5203.000000;1.826357
5202.000000;1.825890
5201.000000;1.824003
5200.000000;1.821440
5199.000000;1.818816
5198.000000;1.816088
5197.000000;1.813356
5196.000000;1.811023
5195.000000;1.808984
5194.000000;1.806684
5193.000000;1.804254
5192.000000;1.802735
5191.000000;1.802836
5190.000000;1.804031
5189.000000;1.805076
5188.000000;1.805150
5187.000000;1.804424
5186.000000;1.803813
5185.000000;1.803995
5184.000000;1.804625
5183.000000;1.804868
5182.000000;1.804670
5181.000000;1.804819
5180.000000;1.805622
5179.000000;1.806313
5178.000000;1.806287
5177.000000;1.806173
5176.000000;1.806886
5175.000000;1.808161
5174.000000;1.808791
5173.000000;1.807942
5172.000000;1.805659
5171.000000;1.802633
5170.000000;1.800067
5169.000000;1.799123
5168.000000;1.799809
5167.000000;1.800846
5166.000000;1.801154
5165.000000;1.800855
5164.000000;1.800311
5163.000000;1.799092
5162.000000;1.796896
5161.000000;1.794803
5160.000000;1.794421
5159.000000;1.795932
5158.000000;1.797679
5157.000000;1.797699
5156.000000;1.795471
5155.000000;1.792382
5154.000000;1.790631
5153.000000;1.791263
5152.000000;1.793013
5151.000000;1.793598
5150.000000;1.792358
5149.000000;1.790850
5148.000000;1.790720
5147.000000;1.792071
5146.000000;1.794151
5145.000000;1.796491
5144.000000;1.798722
5143.000000;1.800191
5142.000000;1.800498
5141.000000;1.799897
5140.000000;1.798686
5139.000000;1.796946
5138.000000;1.795263
5137.000000;1.794743
5136.000000;1.795659
5135.000000;1.796853
5134.000000;1.797145
5133.000000;1.796614
5132.000000;1.795990
5131.000000;1.795634
5130.000000;1.795711
5129.000000;1.796425
5128.000000;1.797304
5127.000000;1.797122
5126.000000;1.795463
5125.000000;1.793613
5124.000000;1.793057
5123.000000;1.793778
5122.000000;1.794713
5121.000000;1.795130
5120.000000;1.794866
5119.000000;1.794028
5118.000000;1.793266
5117.000000;1.793652
5116.000000;1.795447
5115.000000;1.797498
5114.000000;1.798559
5113.000000;1.798639
5112.000000;1.798399
5111.000000;1.797911
5110.000000;1.796903
5109.000000;1.795671
5108.000000;1.794802
5107.000000;1.794364
5106.000000;1.793998
5105.000000;1.793444
5104.000000;1.792595
5103.000000;1.791580
5102.000000;1.790935
5101.000000;1.791071
5100.000000;1.791468
5099.000000;1.791257
5098.000000;1.790747
5097.000000;1.791270
5096.000000;1.793258
5095.000000;1.795594
5094.000000;1.797227
5093.000000;1.798180
5092.000000;1.798433
5091.000000;1.797396
5090.000000;1.795424
5089.000000;1.794333
5088.000000;1.795192
5087.000000;1.796746
5086.000000;1.797195
5085.000000;1.796554
5084.000000;1.795919
5083.000000;1.795485
5082.000000;1.794876
5081.000000;1.794663
5080.000000;1.795904
5079.000000;1.798386
5078.000000;1.800595
5077.000000;1.801427
5076.000000;1.801104
5075.000000;1.800444
5074.000000;1.799909
5073.000000;1.799327
5072.000000;1.798142
5071.000000;1.796146
5070.000000;1.794046
5069.000000;1.792763
5068.000000;1.792137
5067.000000;1.791280
5066.000000;1.790383
5065.000000;1.790813
5064.000000;1.792874
5063.000000;1.794814
5062.000000;1.794914
5061.000000;1.793514
5060.000000;1.792061
5059.000000;1.791334
5058.000000;1.791618
5057.000000;1.793386
5056.000000;1.796545
5055.000000;1.799751
5054.000000;1.801562
5053.000000;1.801645
5052.000000;1.800119
5051.000000;1.796881
5050.000000;1.792653
5049.000000;1.789473
5048.000000;1.788920
5047.000000;1.790569
5046.000000;1.792863
5045.000000;1.794764
5044.000000;1.795861
5043.000000;1.795826
5042.000000;1.794941
5041.000000;1.794324
5040.000000;1.794483
5039.000000;1.794389
5038.000000;1.793018
5037.000000;1.790982
5036.000000;1.789520
5035.000000;1.788757
5034.000000;1.788092
5033.000000;1.787543
5032.000000;1.787513
5031.000000;1.787798
5030.000000;1.787911
5029.000000;1.787893
5028.000000;1.787960
5027.000000;1.787913
5026.000000;1.787726
5025.000000;1.787907
5024.000000;1.788424
5023.000000;1.788278
5022.000000;1.787120
5021.000000;1.786235
5020.000000;1.786795
5019.000000;1.788000
5018.000000;1.788201
5017.000000;1.787202
5016.000000;1.786119
5015.000000;1.785526
5014.000000;1.784965
5013.000000;1.783827
5012.000000;1.781739
5011.000000;1.778735
5010.000000;1.775954
5009.000000;1.775250
5008.000000;1.776906
5007.000000;1.778509
5006.000000;1.777596
5005.000000;1.775018
5004.000000;1.773849
5003.000000;1.775235
5002.000000;1.776946
5001.000000;1.776244
5000.000000;1.773040
4999.000000;1.769752
4998.000000;1.768542
4997.000000;1.769468
4996.000000;1.770695
4995.000000;1.770058
4994.000000;1.767271
4993.000000;1.763755
4992.000000;1.761030
4991.000000;1.759681
4990.000000;1.759773
4989.000000;1.761069
4988.000000;1.762490
4987.000000;1.762443
4986.000000;1.760488
4985.000000;1.757908
4984.000000;1.756074
4983.000000;1.755174
4982.000000;1.754893
4981.000000;1.755110
4980.000000;1.755256
4979.000000;1.754099
4978.000000;1.751164
4977.000000;1.747541
4976.000000;1.744510
4975.000000;1.742164
4974.000000;1.740096
4973.000000;1.738488
4972.000000;1.737632
4971.000000;1.737203
4970.000000;1.736802
4969.000000;1.736440
4968.000000;1.735849
4967.000000;1.734284
4966.000000;1.731770
4965.000000;1.729529
4964.000000;1.728248
4963.000000;1.726976
4962.000000;1.724710
4961.000000;1.722092
4960.000000;1.720372
4959.000000;1.719543
4958.000000;1.718724
4957.000000;1.717704
4956.000000;1.716919
4955.000000;1.716335
4954.000000;1.715468
4953.000000;1.714184
4952.000000;1.712616
4951.000000;1.710671
4950.000000;1.708357
4949.000000;1.706189
4948.000000;1.704591
4947.000000;1.703349
4946.000000;1.702178
4945.000000;1.701184
4944.000000;1.700210
4943.000000;1.698522
4942.000000;1.695855
4941.000000;1.692994
4940.000000;1.690607
4939.000000;1.688334
4938.000000;1.685774
4937.000000;1.683503
4936.000000;1.682189
4935.000000;1.681420
4934.000000;1.680246
4933.000000;1.678339
4932.000000;1.675879
4931.000000;1.672943
4930.000000;1.669812
4929.000000;1.667159
4928.000000;1.665107
4927.000000;1.662752
4926.000000;1.659400
4925.000000;1.655669
4924.000000;1.652594
4923.000000;1.650327
4922.000000;1.648497
4921.000000;1.647069
4920.000000;1.645982
4919.000000;1.644602
4918.000000;1.642460
4917.000000;1.640000
4916.000000;1.637764
4915.000000;1.635399
4914.000000;1.632328
4913.000000;1.628899
4912.000000;1.625970
4911.000000;1.623748
4910.000000;1.621801
4909.000000;1.619803
4908.000000;1.617612
4907.000000;1.615022
4906.000000;1.612126
4905.000000;1.609494
4904.000000;1.607360
4903.000000;1.605133
4902.000000;1.602250
4901.000000;1.599017
4900.000000;1.596060
4899.000000;1.593497
4898.000000;1.591180
4897.000000;1.589141
4896.000000;1.587179
4895.000000;1.584631
4894.000000;1.581220
4893.000000;1.577614
4892.000000;1.574521
4891.000000;1.571781
4890.000000;1.568913
4889.000000;1.565922
4888.000000;1.562968
4887.000000;1.559891
4886.000000;1.556756
4885.000000;1.554237
4884.000000;1.552696
4883.000000;1.551430
4882.000000;1.549535
4881.000000;1.547067
4880.000000;1.544652
4879.000000;1.542432
4878.000000;1.540094
4877.000000;1.537505
4876.000000;1.534646
4875.000000;1.531322
4874.000000;1.527530
4873.000000;1.523783
4872.000000;1.520551
4871.000000;1.517802
4870.000000;1.515401
4869.000000;1.513364
4868.000000;1.511311
4867.000000;1.508446
4866.000000;1.504681
4865.000000;1.501067
4864.000000;1.498467
4863.000000;1.496422
4862.000000;1.493982
4861.000000;1.491032
4860.000000;1.488050
4859.000000;1.485135
4858.000000;1.482080
4857.000000;1.479004
4856.000000;1.476162
4855.000000;1.473475
4854.000000;1.470788
4853.000000;1.468200
4852.000000;1.465638
4851.000000;1.462688
4850.000000;1.459379
4849.000000;1.456505
4848.000000;1.454463
4847.000000;1.452385
4846.000000;1.449202
4845.000000;1.445109
4844.000000;1.441165
4843.000000;1.437885
4842.000000;1.435021
4841.000000;1.432320
4840.000000;1.429731
4839.000000;1.427124
4838.000000;1.424513
4837.000000;1.422276
4836.000000;1.420541
4835.000000;1.418658
4834.000000;1.415929
4833.000000;1.412592
4832.000000;1.409464
4831.000000;1.406875
4830.000000;1.404527
4829.000000;1.402074
4828.000000;1.399259
4827.000000;1.395827
4826.000000;1.391904
4825.000000;1.388204
4824.000000;1.385246
4823.000000;1.382683
4822.000000;1.379919
4821.000000;1.377058
4820.000000;1.374630
4819.000000;1.372667
4818.000000;1.370686
4817.000000;1.368348
4816.000000;1.365544
4815.000000;1.362107
4814.000000;1.358065
4813.000000;1.353989
4812.000000;1.350488
4811.000000;1.347503
4810.000000;1.344598
4809.000000;1.341729
4808.000000;1.339183
4807.000000;1.336957
4806.000000;1.334754
4805.000000;1.332497
4804.000000;1.330341
4803.000000;1.328205
4802.000000;1.325771
4801.000000;1.322890
4800.000000;1.319708
4799.000000;1.316472
4798.000000;1.313480
4797.000000;1.310983
4796.000000;1.308822
4795.000000;1.306394
4794.000000;1.303327
4793.000000;1.299977
4792.000000;1.296959
4791.000000;1.294456
4790.000000;1.292272
4789.000000;1.290219
4788.000000;1.288110
4787.000000;1.285721
4786.000000;1.283159
4785.000000;1.280891
4784.000000;1.279021
4783.000000;1.276902
4782.000000;1.273951
4781.000000;1.270487
4780.000000;1.267247
4779.000000;1.264407
4778.000000;1.261633
4777.000000;1.258810
4776.000000;1.256129
4775.000000;1.253625
4774.000000;1.251185
4773.000000;1.248889
4772.000000;1.246877
4771.000000;1.244946
4770.000000;1.242713
4769.000000;1.240086
4768.000000;1.237233
4767.000000;1.234256
4766.000000;1.231258
4765.000000;1.228559
4764.000000;1.226418
4763.000000;1.224621
4762.000000;1.222673
4761.000000;1.220292
4760.000000;1.217549
4759.000000;1.214707
4758.000000;1.212169
4757.000000;1.210267
4756.000000;1.208804
4755.000000;1.207086
4754.000000;1.204734
4753.000000;1.202157
4752.000000;1.199900
4751.000000;1.197875
4750.000000;1.195668
4749.000000;1.193231
4748.000000;1.190819
4747.000000;1.188529
4746.000000;1.186377
4745.000000;1.184535
4744.000000;1.183013
4743.000000;1.181342
4742.000000;1.179120
4741.000000;1.176653
4740.000000;1.174553
4739.000000;1.172879
4738.000000;1.171191
4737.000000;1.169239
4736.000000;1.167067
4735.000000;1.164605
4734.000000;1.161778
4733.000000;1.158958
4732.000000;1.156713
4731.000000;1.155064
4730.000000;1.153442
4729.000000;1.151439
4728.000000;1.149173
4727.000000;1.146922
4726.000000;1.144837
4725.000000;1.143061
4724.000000;1.141704
4723.000000;1.140565
4722.000000;1.139181
4721.000000;1.137250
4720.000000;1.134845
4719.000000;1.132249
4718.000000;1.129798
4717.000000;1.127779
4716.000000;1.126192
4715.000000;1.124671
4714.000000;1.122910
4713.000000;1.121043
4712.000000;1.119350
4711.000000;1.117737
4710.000000;1.115882
4709.000000;1.113783
4708.000000;1.111756
4707.000000;1.109924
4706.000000;1.108107
4705.000000;1.106247
4704.000000;1.104584
4703.000000;1.103306
4702.000000;1.102289
4701.000000;1.101257
4700.000000;1.100031
4699.000000;1.098585
4698.000000;1.097020
4697.000000;1.095496
4696.000000;1.094079
4695.000000;1.092679
4694.000000;1.091234
4693.000000;1.089826
4692.000000;1.088481
4691.000000;1.087012
4690.000000;1.085261
4689.000000;1.083387
4688.000000;1.081714
4687.000000;1.080397
4686.000000;1.079390
4685.000000;1.078552
4684.000000;1.077619
4683.000000;1.076272
4682.000000;1.074508
4681.000000;1.072777
4680.000000;1.071514
4679.000000;1.070657
4678.000000;1.069850
4677.000000;1.068920
4676.000000;1.067872
4675.000000;1.066626
4674.000000;1.065112
4673.000000;1.063537
4672.000000;1.062212
4671.000000;1.061152
4670.000000;1.060116
4669.000000;1.058976
4668.000000;1.057821
4667.000000;1.056744
4666.000000;1.055776
4665.000000;1.054951
4664.000000;1.054232
4663.000000;1.053431
4662.000000;1.052411
4661.000000;1.051262
4660.000000;1.050112
4659.000000;1.048913
4658.000000;1.047637
4657.000000;1.046505
4656.000000;1.045769
4655.000000;1.045357
4654.000000;1.044946
4653.000000;1.044287
4652.000000;1.043289
4651.000000;1.041979
4650.000000;1.040602
4649.000000;1.039533
4648.000000;1.038841
4647.000000;1.038127
4646.000000;1.037079
4645.000000;1.035956
4644.000000;1.035201
4643.000000;1.034791
4642.000000;1.034342
4641.000000;1.033705
4640.000000;1.033023
4639.000000;1.032293
4638.000000;1.031336
4637.000000;1.030186
4636.000000;1.029163
4635.000000;1.028486
4634.000000;1.028089
4633.000000;1.027779
4632.000000;1.027343
4631.000000;1.026556
4630.000000;1.025391
4629.000000;1.024187
4628.000000;1.023334
4627.000000;1.022833
4626.000000;1.022404
4625.000000;1.021930
4624.000000;1.021511
4623.000000;1.021146
4622.000000;1.020715
4621.000000;1.020258
4620.000000;1.019954
4619.000000;1.019806
4618.000000;1.019611
4617.000000;1.019259
4616.000000;1.018793
4615.000000;1.018197
4614.000000;1.017410
4613.000000;1.016561
4612.000000;1.015931
4611.000000;1.015633
4610.000000;1.015533
4609.000000;1.015496
4608.000000;1.015477
4607.000000;1.015391
4606.000000;1.015138
4605.000000;1.014803
4604.000000;1.014605
4603.000000;1.014598
4602.000000;1.014597
4601.000000;1.014422
4600.000000;1.014048
4599.000000;1.013549
4598.000000;1.013071
4597.000000;1.012826
4596.000000;1.012927
4595.000000;1.013215
4594.000000;1.013419
4593.000000;1.013462
4592.000000;1.013467
4591.000000;1.013483
4590.000000;1.013411
4589.000000;1.013174
4588.000000;1.012833
4587.000000;1.012527
4586.000000;1.012408
4585.000000;1.012571
4584.000000;1.012922
4583.000000;1.013202
4582.000000;1.013281
4581.000000;1.013320
4580.000000;1.013482
4579.000000;1.013659
4578.000000;1.013667
4577.000000;1.013579
4576.000000;1.013608
4575.000000;1.013751
4574.000000;1.013861
4573.000000;1.013991
4572.000000;1.014360
4571.000000;1.014974
4570.000000;1.015543
4569.000000;1.015856
4568.000000;1.016025
4567.000000;1.016269
4566.000000;1.016638
4565.000000;1.017019
4564.000000;1.017327
4563.000000;1.017630
4562.000000;1.018097
4561.000000;1.018805
4560.000000;1.019591
4559.000000;1.020192
4558.000000;1.020573
4557.000000;1.020981
4556.000000;1.021607
4555.000000;1.022357
4554.000000;1.023084
4553.000000;1.023837
4552.000000;1.024736
4551.000000;1.025732
4550.000000;1.026692
4549.000000;1.027565
4548.000000;1.028335
4547.000000;1.028960
4546.000000;1.029518
4545.000000;1.030246
4544.000000;1.031258
4543.000000;1.032385
4542.000000;1.033484
4541.000000;1.034664
4540.000000;1.035995
4539.000000;1.037211
4538.000000;1.037998
4537.000000;1.038421
4536.000000;1.038790
4535.000000;1.039238
4534.000000;1.039737
4533.000000;1.040397
4532.000000;1.041422
4531.000000;1.042809
4530.000000;1.044329
4529.000000;1.045772
4528.000000;1.047020
4527.000000;1.047999
4526.000000;1.048765
4525.000000;1.049526
4524.000000;1.050363
4523.000000;1.051088
4522.000000;1.051567
4521.000000;1.052014
4520.000000;1.052708
4519.000000;1.053601
4518.000000;1.054486
4517.000000;1.055382
4516.000000;1.056444
4515.000000;1.057593
4514.000000;1.058596
4513.000000;1.059432
4512.000000;1.060281
4511.000000;1.061203
4510.000000;1.062127
4509.000000;1.063096
4508.000000;1.064236
4507.000000;1.065475
4506.000000;1.066554
4505.000000;1.067305
4504.000000;1.067789
4503.000000;1.068215
4502.000000;1.068891
4501.000000;1.070102
4500.000000;1.071809
4499.000000;1.073572
4498.000000;1.075001
4497.000000;1.076153
4496.000000;1.077298
4495.000000;1.078459
4494.000000;1.079486
4493.000000;1.080405
4492.000000;1.081378
4491.000000;1.082408
4490.000000;1.083400
4489.000000;1.084426
4488.000000;1.085644
4487.000000;1.087020
4486.000000;1.088401
4485.000000;1.089803
4484.000000;1.091344
4483.000000;1.092933
4482.000000;1.094304
4481.000000;1.095360
4480.000000;1.096294
4479.000000;1.097389
4478.000000;1.098838
4477.000000;1.100679
4476.000000;1.102741
4475.000000;1.104751
4474.000000;1.106618
4473.000000;1.108491
4472.000000;1.110426
4471.000000;1.112211
4470.000000;1.113673
4469.000000;1.114935
4468.000000;1.116163
4467.000000;1.117354
4466.000000;1.118579
4465.000000;1.120150
4464.000000;1.122239
4463.000000;1.124597
4462.000000;1.126941
4461.000000;1.129349
4460.000000;1.131936
4459.000000;1.134413
4458.000000;1.136407
4457.000000;1.138020
4456.000000;1.139660
4455.000000;1.141475
4454.000000;1.143350
4453.000000;1.145300
4452.000000;1.147440
4451.000000;1.149667
4450.000000;1.151773
4449.000000;1.153788
4448.000000;1.155885
4447.000000;1.158025
4446.000000;1.160041
4445.000000;1.161968
4444.000000;1.163961
4443.000000;1.165996
4442.000000;1.167963
4441.000000;1.169953
4440.000000;1.172132
4439.000000;1.174449
4438.000000;1.176750
4437.000000;1.179065
4436.000000;1.181499
4435.000000;1.184004
4434.000000;1.186508
4433.000000;1.189073
4432.000000;1.191685
4431.000000;1.194141
4430.000000;1.196462
4429.000000;1.199107
4428.000000;1.202363
4427.000000;1.205820
4426.000000;1.208879
4425.000000;1.211526
4424.000000;1.214161
4423.000000;1.216901
4422.000000;1.219573
4421.000000;1.222189
4420.000000;1.224883
4419.000000;1.227494
4418.000000;1.229739
4417.000000;1.231704
4416.000000;1.233717
4415.000000;1.235881
4414.000000;1.238170
4413.000000;1.240825
4412.000000;1.244108
4411.000000;1.247742
4410.000000;1.251096
4409.000000;1.253931
4408.000000;1.256577
4407.000000;1.259425
4406.000000;1.262623
4405.000000;1.266188
4404.000000;1.269997
4403.000000;1.273704
4402.000000;1.277013
4401.000000;1.279956
4400.000000;1.282663
4399.000000;1.285058
4398.000000;1.287136
4397.000000;1.289286
4396.000000;1.291930
4395.000000;1.295014
4394.000000;1.298251
4393.000000;1.301618
4392.000000;1.305206
4391.000000;1.308769
4390.000000;1.311928
4389.000000;1.314719
4388.000000;1.317560
4387.000000;1.320739
4386.000000;1.324190
4385.000000;1.327605
4384.000000;1.330565
4383.000000;1.332895
4382.000000;1.335107
4381.000000;1.338101
4380.000000;1.342139
4379.000000;1.346527
4378.000000;1.350588
4377.000000;1.354374
4376.000000;1.358057
4375.000000;1.361322
4374.000000;1.364021
4373.000000;1.366830
4372.000000;1.370476
4371.000000;1.374735
4370.000000;1.378838
4369.000000;1.382474
4368.000000;1.385798
4367.000000;1.388926
4366.000000;1.392113
4365.000000;1.395939
4364.000000;1.400570
4363.000000;1.405259
4362.000000;1.409298
4361.000000;1.413022
4360.000000;1.417147
4359.000000;1.421638
4358.000000;1.426047
4357.000000;1.430445
4356.000000;1.435098
4355.000000;1.439700
4354.000000;1.443854
4353.000000;1.447846
4352.000000;1.451985
4351.000000;1.455795
4350.000000;1.458928
4349.000000;1.462253
4348.000000;1.466735
4347.000000;1.471686
4346.000000;1.475575
4345.000000;1.478402
4344.000000;1.481772
4343.000000;1.486563
4342.000000;1.491866
4341.000000;1.496422
4340.000000;1.500074
4339.000000;1.503502
4338.000000;1.507392
4337.000000;1.512117
4336.000000;1.517507
4335.000000;1.522743
4334.000000;1.527106
4333.000000;1.530880
4332.000000;1.535019
4331.000000;1.540099
4330.000000;1.546017
4329.000000;1.552310
4328.000000;1.558189
4327.000000;1.562876
4326.000000;1.566621
4325.000000;1.570750
4324.000000;1.575875
4323.000000;1.580853
4322.000000;1.584506
4321.000000;1.587581
4320.000000;1.591662
4319.000000;1.596845
4318.000000;1.601922
4317.000000;1.606383
4316.000000;1.610821
4315.000000;1.615668
4314.000000;1.620925
4313.000000;1.626827
4312.000000;1.633356
4311.000000;1.639339
4310.000000;1.643435
4309.000000;1.646055
4308.000000;1.649083
4307.000000;1.653780
4306.000000;1.659930
4305.000000;1.666657
4304.000000;1.673009
4303.000000;1.678141
4302.000000;1.682139
4301.000000;1.686402
4300.000000;1.692199
4299.000000;1.699222
4298.000000;1.706346
4297.000000;1.713107
4296.000000;1.719374
4295.000000;1.724590
4294.000000;1.728814
4293.000000;1.733503
4292.000000;1.739623
4291.000000;1.746024
4290.000000;1.751302
4289.000000;1.756181
4288.000000;1.762119
4287.000000;1.768562
4286.000000;1.773868
4285.000000;1.778157
4284.000000;1.782914
4283.000000;1.788363
4282.000000;1.793409
4281.000000;1.797696
4280.000000;1.801670
4279.000000;1.805210
4278.000000;1.808356
4277.000000;1.812673
4276.000000;1.819562
4275.000000;1.827650
4274.000000;1.834117
4273.000000;1.838442
4272.000000;1.842545
4271.000000;1.847598
4270.000000;1.853181
4269.000000;1.859177
4268.000000;1.865944
4267.000000;1.872699
4266.000000;1.878079
4265.000000;1.882321
4264.000000;1.887036
4263.000000;1.893098
4262.000000;1.900397
4261.000000;1.908828
4260.000000;1.917586
4259.000000;1.924544
4258.000000;1.928740
4257.000000;1.932329
4256.000000;1.937554
4255.000000;1.943280
4254.000000;1.947291
4253.000000;1.950445
4252.000000;1.954969
4251.000000;1.959942
4250.000000;1.962573
4249.000000;1.963496
4248.000000;1.966684
4247.000000;1.973901
4246.000000;1.982686
4245.000000;1.990122
4244.000000;1.995878
4243.000000;2.001011
4242.000000;2.006121
4241.000000;2.011480
4240.000000;2.016660
4239.000000;2.020431
4238.000000;2.023157
4237.000000;2.028312
4236.000000;2.038906
4235.000000;2.053101
4234.000000;2.066089
4233.000000;2.075929
4232.000000;2.083937
4231.000000;2.090239
4230.000000;2.093427
4229.000000;2.094192
4228.000000;2.095476
4227.000000;2.099154
4226.000000;2.105514
4225.000000;2.114970
4224.000000;2.127062
4223.000000;2.138567
4222.000000;2.145859
4221.000000;2.148863
4220.000000;2.150159
4219.000000;2.151374
4218.000000;2.153211
4217.000000;2.156843
4216.000000;2.161852
4215.000000;2.165051
4214.000000;2.165078
4213.000000;2.165939
4212.000000;2.171906
4211.000000;2.181250
4210.000000;2.189253
4209.000000;2.195537
4208.000000;2.203342
4207.000000;2.213123
4206.000000;2.222518
4205.000000;2.231485
4204.000000;2.241343
4203.000000;2.249726
4202.000000;2.253160
4201.000000;2.253269
4200.000000;2.253830
4199.000000;2.254203
4198.000000;2.252454
4197.000000;2.252260
4196.000000;2.259319
4195.000000;2.272465
4194.000000;2.284440
4193.000000;2.291242
4192.000000;2.295149
4191.000000;2.298604
4190.000000;2.302403
4189.000000;2.308994
4188.000000;2.319979
4187.000000;2.330721
4186.000000;2.334509
4185.000000;2.332890
4184.000000;2.334427
4183.000000;2.342886
4182.000000;2.354130
4181.000000;2.364705
4180.000000;2.375239
4179.000000;2.384833
4178.000000;2.390490
4177.000000;2.392560
4176.000000;2.394131
4175.000000;2.395525
4174.000000;2.395794
4173.000000;2.397983
4172.000000;2.406165
4171.000000;2.418520
4170.000000;2.429196
4169.000000;2.435856
4168.000000;2.439254
4167.000000;2.438141
4166.000000;2.432212
4165.000000;2.427029
4164.000000;2.429745
4163.000000;2.441089
4162.000000;2.454405
4161.000000;2.463365
4160.000000;2.467984
4159.000000;2.471071
4158.000000;2.475952
4157.000000;2.487421
4156.000000;2.505472
4155.000000;2.520206
4154.000000;2.522025
4153.000000;2.514664
4152.000000;2.507557
4151.000000;2.502411
4150.000000;2.497172
4149.000000;2.495347
4148.000000;2.501233
4147.000000;2.511181
4146.000000;2.519021
4145.000000;2.526628
4144.000000;2.538723
4143.000000;2.551265
4142.000000;2.557140
4141.000000;2.559524
4140.000000;2.565952
4139.000000;2.574783
4138.000000;2.580021
4137.000000;2.584749
4136.000000;2.597031
4135.000000;2.614565
4134.000000;2.626146
4133.000000;2.629627
4132.000000;2.631988
4131.000000;2.632418
4130.000000;2.628109
4129.000000;2.630316
4128.000000;2.650634
4127.000000;2.677896
4126.000000;2.685448
4125.000000;2.667062
4124.000000;2.643914
4123.000000;2.632328
4122.000000;2.632545
4121.000000;2.641095
4120.000000;2.655175
4119.000000;2.666221
4118.000000;2.665340
4117.000000;2.658914
4116.000000;2.662766
4115.000000;2.681388
4114.000000;2.705794
4113.000000;2.728301
4112.000000;2.747670
4111.000000;2.760551
4110.000000;2.759456
4109.000000;2.745000
4108.000000;2.727733
4107.000000;2.712729
4106.000000;2.697370
4105.000000;2.684593
4104.000000;2.682755
4103.000000;2.692922
4102.000000;2.709138
4101.000000;2.727492
4100.000000;2.746534
4099.000000;2.761418
4098.000000;2.768260
4097.000000;2.771941
4096.000000;2.777846
4095.000000;2.781374
4094.000000;2.777916
4093.000000;2.776496
4092.000000;2.787944
4091.000000;2.806316
4090.000000;2.813603
4089.000000;2.802679
4088.000000;2.782831
4087.000000;2.764979
4086.000000;2.756870
4085.000000;2.763644
4084.000000;2.779408
4083.000000;2.786113
4082.000000;2.773469
4081.000000;2.753196
4080.000000;2.740813
4079.000000;2.735233
4078.000000;2.730495
4077.000000;2.733877
4076.000000;2.755562
4075.000000;2.788894
4074.000000;2.813203
4073.000000;2.819757
4072.000000;2.817351
4071.000000;2.811859
4070.000000;2.809100
4069.000000;2.823288
4068.000000;2.859184
4067.000000;2.894717
4066.000000;2.902788
4065.000000;2.893496
4064.000000;2.894186
4063.000000;2.901180
4062.000000;2.889079
4061.000000;2.856680
4060.000000;2.825407
4059.000000;2.804290
4058.000000;2.790969
4057.000000;2.790343
4056.000000;2.809859
4055.000000;2.844188
4054.000000;2.880082
4053.000000;2.914566
4052.000000;2.948151
4051.000000;2.962343
4050.000000;2.943145
4049.000000;2.915621
4048.000000;2.906307
4047.000000;2.907102
4046.000000;2.898938
4045.000000;2.882951
4044.000000;2.871457
4043.000000;2.864169
4042.000000;2.850650
4041.000000;2.836917
4040.000000;2.840200
4039.000000;2.856110
4038.000000;2.862341
4037.000000;2.856802
4036.000000;2.863126
4035.000000;2.891278
4034.000000;2.923838
4033.000000;2.948113
4032.000000;2.968364
4031.000000;2.976984
4030.000000;2.961824
4029.000000;2.939404
4028.000000;2.936751
4027.000000;2.957607
4026.000000;2.984271
4025.000000;3.003125
4024.000000;3.012395
4023.000000;3.006481
4022.000000;2.986297
4021.000000;2.978919
4020.000000;3.012495
4019.000000;3.078490
4018.000000;3.133204
4017.000000;3.143351
4016.000000;3.118366
4015.000000;3.085451
4014.000000;3.049925
4013.000000;3.015063
4012.000000;3.002607
4011.000000;3.021290
4010.000000;3.064413
4009.000000;3.136760
4008.000000;3.244054
4007.000000;3.324923
4006.000000;3.280982
4005.000000;3.159237
4004.000000;3.054153
4003.000000;2.990637
4002.000000;2.954347
4001.000000;2.937019
4000.000000;2.943969
3999.000000;2.974577
3998.000000;3.011766
3997.000000;3.039616
3996.000000;3.065885
3995.000000;3.095714
3994.000000;3.115119
3993.000000;3.116876
3992.000000;3.092567
3991.000000;3.046310
3990.000000;3.011726
3989.000000;3.007925
3988.000000;3.026070
3987.000000;3.042360
3986.000000;3.045501
3985.000000;3.048040
3984.000000;3.067339
3983.000000;3.106254
3982.000000;3.146303
3981.000000;3.168551
3980.000000;3.163967
3979.000000;3.128614
3978.000000;3.084520
3977.000000;3.075855
3976.000000;3.126592
3975.000000;3.207129
3974.000000;3.245686
3973.000000;3.225579
3972.000000;3.194878
3971.000000;3.172641
3970.000000;3.155965
3969.000000;3.151252
3968.000000;3.157832
3967.000000;3.159048
3966.000000;3.160659
3965.000000;3.180686
3964.000000;3.194346
3963.000000;3.175642
3962.000000;3.140391
3961.000000;3.104627
3960.000000;3.076418
3959.000000;3.066812
3958.000000;3.091682
3957.000000;3.170151
3956.000000;3.295094
3955.000000;3.389380
3954.000000;3.374185
3953.000000;3.302840
3952.000000;3.256325
3951.000000;3.243878
3950.000000;3.245414
3949.000000;3.251912
3948.000000;3.277041
3947.000000;3.335363
3946.000000;3.400781
3945.000000;3.440228
3944.000000;3.462354
3943.000000;3.448755
3942.000000;3.368488
3941.000000;3.261330
3940.000000;3.200389
3939.000000;3.243398
3938.000000;3.374328
3937.000000;3.483875
3936.000000;3.511068
3935.000000;3.467196
3934.000000;3.384407
3933.000000;3.325893
3932.000000;3.317594
3931.000000;3.337505
3930.000000;3.356964
3929.000000;3.362999
3928.000000;3.369694
3927.000000;3.356779
3926.000000;3.307048
3925.000000;3.286441
3924.000000;3.334863
3923.000000;3.429624
3922.000000;3.568335
3921.000000;3.828237
3920.000000;4.144694
3919.000000;4.078457
3918.000000;3.806519
3917.000000;3.630493
3916.000000;3.585090
3915.000000;3.591588
3914.000000;3.603256
3913.000000;3.627067
3912.000000;3.673799
3911.000000;3.704332
3910.000000;3.716525
3909.000000;3.791905
3908.000000;3.791017
3907.000000;3.709613
3906.000000;3.856969
3905.000000;4.090701
3904.000000;3.946766
3903.000000;3.868375
3902.000000;3.859402
3901.000000;3.904827
3900.000000;4.040132
3899.000000;4.194353
3898.000000;4.208621
3897.000000;4.105174
3896.000000;4.021465
3895.000000;4.012775
3894.000000;4.059525
3893.000000;4.058022
3892.000000;3.959722
3891.000000;3.919459
3890.000000;3.837877
3889.000000;3.656844
3888.000000;3.578539
3887.000000;3.670450
3886.000000;3.894218
3885.000000;4.162167
3884.000000;4.404313
3883.000000;4.595524
3882.000000;4.541848
3881.000000;4.339328
3880.000000;4.308482
3879.000000;4.328019
3878.000000;4.660434
3877.000000;4.255662
3876.000000;3.819452
3875.000000;3.780209
3874.000000;3.886375
3873.000000;4.194895
3872.000000;4.680998
3871.000000;4.139784
3870.000000;4.205999
3869.000000;4.829936
3868.000000;4.660832
3867.000000;4.390935
3866.000000;4.308783
3865.000000;4.390610
3864.000000;4.449162
3863.000000;4.471914
3862.000000;4.377260
3861.000000;4.348816
3860.000000;4.821181
3859.000000;4.621213
3858.000000;4.098119
3857.000000;3.928987
3856.000000;3.872049
3855.000000;4.003513
3854.000000;4.475824
3853.000000;4.922670
3852.000000;4.708261
3851.000000;4.744619
3850.000000;4.868144
3849.000000;5.073968
3848.000000;5.448078
3847.000000;5.261517
3846.000000;4.779313
3845.000000;4.448161
3844.000000;4.242390
3843.000000;4.158823
3842.000000;4.038183
3841.000000;3.908156
3840.000000;3.895940
3839.000000;3.975458
3838.000000;4.077966
3837.000000;4.148220
3836.000000;4.162155
3835.000000;4.121268
3834.000000;4.196344
3833.000000;4.467702
3832.000000;4.667871
3831.000000;4.694961
3830.000000;4.576500
3829.000000;4.454558
3828.000000;4.402634
3827.000000;4.489643
3826.000000;4.445984
3825.000000;4.440803
3824.000000;5.132281
3823.000000;4.237303
3822.000000;3.938599
3821.000000;4.064142
3820.000000;4.267155
3819.000000;4.393085
3818.000000;4.279135
3817.000000;4.251969
3816.000000;4.375330
3815.000000;4.461512
3814.000000;4.343245
3813.000000;4.169573
3812.000000;4.015270
3811.000000;3.986467
3810.000000;4.003958
3809.000000;3.817060
3808.000000;3.597189
3807.000000;3.566424
3806.000000;3.715642
3805.000000;3.970260
3804.000000;4.358133
3803.000000;4.256227
3802.000000;4.189578
3801.000000;4.435718
3800.000000;4.669975
3799.000000;4.270606
3798.000000;3.937187
3797.000000;3.972669
3796.000000;4.227322
3795.000000;4.436871
3794.000000;4.655687
3793.000000;4.509983
3792.000000;4.034478
3791.000000;3.810414
3790.000000;3.742356
3789.000000;3.728314
3788.000000;3.724809
3787.000000;3.723065
3786.000000;3.679858
3785.000000;3.602580
3784.000000;3.599350
3783.000000;3.640215
3782.000000;3.852439
3781.000000;4.215122
3780.000000;3.949743
3779.000000;3.856925
3778.000000;4.038816
3777.000000;4.337414
3776.000000;4.289437
3775.000000;4.123931
3774.000000;3.995941
3773.000000;3.816665
3772.000000;3.662021
3771.000000;3.756449
3770.000000;4.076559
3769.000000;3.890178
3768.000000;3.760787
3767.000000;3.801471
3766.000000;3.956654
3765.000000;4.172465
3764.000000;4.248772
3763.000000;4.291735
3762.000000;4.553690
3761.000000;4.630302
3760.000000;4.304740
3759.000000;4.223199
3758.000000;4.141864
3757.000000;4.055234
3756.000000;4.129687
3755.000000;4.432798
3754.000000;4.286721
3753.000000;4.064461
3752.000000;4.124506
3751.000000;4.333542
3750.000000;4.620311
3749.000000;4.649861
3748.000000;4.664254
3747.000000;4.875465
3746.000000;4.864792
3745.000000;4.812142
3744.000000;4.875573
3743.000000;4.974110
3742.000000;4.913574
3741.000000;4.677920
3740.000000;4.537322
3739.000000;4.584896
3738.000000;5.208788
3737.000000;4.291506
3736.000000;4.157739
3735.000000;4.576117
3734.000000;4.416722
3733.000000;4.260108
3732.000000;4.222874
3731.000000;4.243483
3730.000000;4.269170
3729.000000;4.236440
3728.000000;4.158643
3727.000000;4.160642
3726.000000;4.235403
3725.000000;4.261370
3724.000000;4.015245
3723.000000;3.891962
3722.000000;4.148885
3721.000000;4.127898
3720.000000;3.811235
3719.000000;3.725115
3718.000000;3.709896
3717.000000;3.909717
3716.000000;4.012656
3715.000000;3.694519
3714.000000;3.594787
3713.000000;3.909962
3712.000000;4.881898
3711.000000;4.112565
3710.000000;3.958703
3709.000000;4.017276
3708.000000;4.245906
3707.000000;4.867110
3706.000000;5.018302
3705.000000;4.903371
3704.000000;4.628792
3703.000000;4.321029
3702.000000;4.059108
3701.000000;3.891999
3700.000000;3.877146
3699.000000;3.923145
3698.000000;3.903921
3697.000000;3.886590
3696.000000;3.952519
3695.000000;3.937561
3694.000000;3.982596
3693.000000;4.568406
3692.000000;4.599852
3691.000000;4.301486
3690.000000;4.306881
3689.000000;4.290100
3688.000000;4.512800
3687.000000;4.570748
3686.000000;4.378251
3685.000000;4.191886
3684.000000;4.128144
3683.000000;4.149539
3682.000000;4.303604
3681.000000;4.594351
3680.000000;3.905187
3679.000000;3.544029
3678.000000;3.470609
3677.000000;3.552761
3676.000000;3.736999
3675.000000;3.951481
3674.000000;4.128379
3673.000000;4.205740
3672.000000;4.305866
3671.000000;4.580829
3670.000000;5.034131
3669.000000;5.167661
3668.000000;4.924359
3667.000000;4.465426
3666.000000;4.217893
3665.000000;4.172287
3664.000000;4.031725
3663.000000;3.755329
3662.000000;3.564670
3661.000000;3.527607
3660.000000;3.616667
3659.000000;3.679060
3658.000000;3.932029
3657.000000;4.286981
3656.000000;3.910158
3655.000000;3.846045
3654.000000;4.007731
3653.000000;4.121947
3652.000000;4.076067
3651.000000;4.242401
3650.000000;4.410904
3649.000000;4.274597
3648.000000;4.309405
3647.000000;4.453309
3646.000000;4.853889
3645.000000;4.741405
3644.000000;4.425201
3643.000000;4.337130
3642.000000;4.273188
3641.000000;4.500056
3640.000000;4.369995
3639.000000;3.934087
3638.000000;3.817400
3637.000000;3.803359
3636.000000;3.719333
3635.000000;3.645372
3634.000000;3.628468
3633.000000;3.584343
3632.000000;3.517261
3631.000000;3.523755
3630.000000;3.655299
3629.000000;3.875515
3628.000000;4.082838
3627.000000;4.221082
3626.000000;4.444623
3625.000000;4.551467
3624.000000;4.222018
3623.000000;4.013465
3622.000000;3.876663
3621.000000;3.913817
3620.000000;4.065499
3619.000000;4.474342
3618.000000;4.364931
3617.000000;3.910944
3616.000000;3.788587
3615.000000;3.790686
3614.000000;3.901072
3613.000000;4.092850
3612.000000;4.210827
3611.000000;4.055122
3610.000000;3.987322
3609.000000;4.202354
3608.000000;4.657697
3607.000000;4.712318
3606.000000;4.559593
3605.000000;4.505861
3604.000000;4.698256
3603.000000;4.698251
3602.000000;4.348945
3601.000000;4.073827
3600.000000;3.727847
3599.000000;3.556992
3598.000000;3.693035
3597.000000;3.930737
3596.000000;3.618368
3595.000000;3.434399
3594.000000;3.373538
3593.000000;3.358971
3592.000000;3.416195
3591.000000;3.660257
3590.000000;4.225078
3589.000000;4.069655
3588.000000;3.915151
3587.000000;3.884513
3586.000000;3.810735
3585.000000;3.802415
3584.000000;3.888488
3583.000000;4.331751
3582.000000;4.326243
3581.000000;3.881942
3580.000000;3.685641
3579.000000;3.584313
3578.000000;3.569007
3577.000000;3.784306
3576.000000;4.149895
3575.000000;3.721948
3574.000000;3.756662
3573.000000;4.241576
3572.000000;3.876537
3571.000000;3.641827
3570.000000;3.594436
3569.000000;3.636783
3568.000000;3.777286
3567.000000;3.867184
3566.000000;3.745251
3565.000000;3.520876
3564.000000;3.346044
3563.000000;3.347222
3562.000000;3.537793
3561.000000;3.772284
3560.000000;3.735093
3559.000000;3.554516
3558.000000;3.483143
3557.000000;3.537583
3556.000000;3.630174
3555.000000;3.710784
3554.000000;3.786493
3553.000000;3.807042
3552.000000;3.787504
3551.000000;3.812961
3550.000000;3.793146
3549.000000;3.593089
3548.000000;3.427239
3547.000000;3.368063
3546.000000;3.395016
3545.000000;3.463970
3544.000000;3.371554
3543.000000;3.170508
3542.000000;3.117699
3541.000000;3.223509
3540.000000;3.420001
3539.000000;3.715149
3538.000000;4.212701
3537.000000;5.059360
3536.000000;4.332103
3535.000000;3.774826
3534.000000;3.542403
3533.000000;3.457032
3532.000000;3.447079
3531.000000;3.553965
3530.000000;3.826380
3529.000000;4.334633
3528.000000;4.648534
3527.000000;4.460998
3526.000000;3.970173
3525.000000;3.861527
3524.000000;4.173282
3523.000000;3.678811
3522.000000;3.482701
3521.000000;3.474475
3520.000000;3.524136
3519.000000;3.562738
3518.000000;3.467346
3517.000000;3.451743
3516.000000;3.563361
3515.000000;3.611194
3514.000000;3.496035
3513.000000;3.547580
3512.000000;3.762370
3511.000000;3.716161
3510.000000;3.657368
3509.000000;3.961815
3508.000000;4.133450
3507.000000;3.593749
3506.000000;3.388916
3505.000000;3.387399
3504.000000;3.459846
3503.000000;3.537681
3502.000000;3.600988
3501.000000;3.640141
3500.000000;3.448911
3499.000000;3.282255
3498.000000;3.310289
3497.000000;3.517793
3496.000000;3.863058
3495.000000;3.893995
3494.000000;3.658380
3493.000000;3.599109
3492.000000;3.679163
3491.000000;3.938652
3490.000000;4.047671
3489.000000;3.730506
3488.000000;3.590546
3487.000000;3.557424
3486.000000;3.578919
3485.000000;3.545309
3484.000000;3.437729
3483.000000;3.401107
3482.000000;3.481071
3481.000000;3.562914
3480.000000;3.449435
3479.000000;3.305264
3478.000000;3.270537
3477.000000;3.349403
3476.000000;3.500193
3475.000000;3.632016
3474.000000;3.789170
3473.000000;4.188907
3472.000000;4.656036
3471.000000;4.240934
3470.000000;3.896970
3469.000000;3.627815
3468.000000;3.447864
3467.000000;3.397173
3466.000000;3.490688
3465.000000;3.915163
3464.000000;4.224809
3463.000000;3.642852
3462.000000;3.594470
3461.000000;3.657322
3460.000000;3.691861
3459.000000;3.602496
3458.000000;3.475217
3457.000000;3.438601
3456.000000;3.479070
3455.000000;3.533975
3454.000000;3.523173
3453.000000;3.494763
3452.000000;3.557530
3451.000000;3.740301
3450.000000;3.739694
3449.000000;3.613277
3448.000000;3.584879
3447.000000;3.690516
3446.000000;3.995493
3445.000000;4.114206
3444.000000;4.121737
3443.000000;3.942224
3442.000000;3.654994
3441.000000;3.737669
3440.000000;4.301500
3439.000000;3.897717
3438.000000;4.007085
3437.000000;4.169046
3436.000000;3.621914
3435.000000;3.524635
3434.000000;3.562370
3433.000000;3.844345
3432.000000;3.904866
3431.000000;3.576039
3430.000000;3.530969
3429.000000;3.587618
3428.000000;3.637661
3427.000000;3.626843
3426.000000;3.574481
3425.000000;3.528737
3424.000000;3.538189
3423.000000;3.599457
3422.000000;3.727776
3421.000000;4.121491
3420.000000;4.082551
3419.000000;3.664346
3418.000000;3.481832
3417.000000;3.434660
3416.000000;3.467078
3415.000000;3.493507
3414.000000;3.487138
3413.000000;3.492196
3412.000000;3.552161
3411.000000;3.726522
3410.000000;3.938007
3409.000000;3.891620
3408.000000;3.912143
3407.000000;3.886533
3406.000000;3.732122
3405.000000;3.643817
3404.000000;3.584376
3403.000000;3.594573
3402.000000;3.697135
3401.000000;4.135856
3400.000000;4.122519
3399.000000;3.701393
3398.000000;3.585295
3397.000000;3.534729
3396.000000;3.507436
3395.000000;3.514570
3394.000000;3.583251
3393.000000;3.669753
3392.000000;3.728908
3391.000000;3.803538
3390.000000;3.788905
3389.000000;3.660786
3388.000000;3.591756
3387.000000;3.609790
3386.000000;3.698982
3385.000000;4.044806
3384.000000;4.535308
3383.000000;3.744007
3382.000000;3.551425
3381.000000;3.486978
3380.000000;3.480986
3379.000000;3.519700
3378.000000;3.655250
3377.000000;3.673096
3376.000000;3.560336
3375.000000;3.515930
3374.000000;3.488677
3373.000000;3.477871
3372.000000;3.485829
3371.000000;3.517742
3370.000000;3.550934
3369.000000;3.602015
3368.000000;3.706628
3367.000000;3.806228
3366.000000;3.885016
3365.000000;4.111467
3364.000000;4.241603
3363.000000;3.899876
3362.000000;3.832771
3361.000000;3.928626
3360.000000;3.931997
3359.000000;3.785787
3358.000000;3.659712
3357.000000;3.498098
3356.000000;3.372496
3355.000000;3.354031
3354.000000;3.456115
3353.000000;3.724695
3352.000000;4.063965
3351.000000;4.132813
3350.000000;3.894001
3349.000000;3.539724
3348.000000;3.370508
3347.000000;3.329457
3346.000000;3.344804
3345.000000;3.402756
3344.000000;3.542642
3343.000000;3.839575
3342.000000;3.839104
3341.000000;3.598970
3340.000000;3.456707
3339.000000;3.395004
3338.000000;3.450915
3337.000000;3.674837
3336.000000;3.683482
3335.000000;3.521139
3334.000000;3.596820
3333.000000;3.935900
3332.000000;4.401658
3331.000000;4.497462
3330.000000;3.984435
3329.000000;3.818501
3328.000000;4.001050
3327.000000;4.164887
3326.000000;3.806164
3325.000000;3.655642
3324.000000;3.655465
3323.000000;3.933901
3322.000000;4.263357
3321.000000;3.837562
3320.000000;3.722606
3319.000000;4.137810
3318.000000;3.797803
3317.000000;3.545586
3316.000000;3.619834
3315.000000;3.537544
3314.000000;3.428029
3313.000000;3.447872
3312.000000;3.549537
3311.000000;3.716688
3310.000000;4.003985
3309.000000;3.892929
3308.000000;3.745538
3307.000000;3.705721
3306.000000;3.662695
3305.000000;3.593438
3304.000000;3.590843
3303.000000;3.847736
3302.000000;4.405031
3301.000000;3.930603
3300.000000;3.804765
3299.000000;3.886639
3298.000000;4.244938
3297.000000;4.272788
3296.000000;4.081702
3295.000000;3.810931
3294.000000;3.683714
3293.000000;3.808953
3292.000000;4.175242
3291.000000;3.917414
3290.000000;3.567099
3289.000000;3.431021
3288.000000;3.429423
3287.000000;3.548534
3286.000000;3.768235
3285.000000;3.893252
3284.000000;3.848332
3283.000000;3.798855
3282.000000;3.701295
3281.000000;3.653329
3280.000000;3.763267
3279.000000;3.903487
3278.000000;3.683719
3277.000000;3.536439
3276.000000;3.533253
3275.000000;3.662477
3274.000000;3.642176
3273.000000;3.445743
3272.000000;3.370337
3271.000000;3.367324
3270.000000;3.414353
3269.000000;3.518760
3268.000000;3.934465
3267.000000;4.007217
3266.000000;3.693339
3265.000000;3.742981
3264.000000;4.022440
3263.000000;4.108679
3262.000000;3.872981
3261.000000;3.743446
3260.000000;3.663215
3259.000000;3.716193
3258.000000;3.977565
3257.000000;3.918932
3256.000000;3.932963
3255.000000;3.924575
3254.000000;3.706020
3253.000000;3.570785
3252.000000;3.529548
3251.000000;3.600219
3250.000000;3.788399
3249.000000;4.031683
3248.000000;3.976475
3247.000000;4.246887
3246.000000;4.559851
3245.000000;3.810242
3244.000000;3.662087
3243.000000;3.574735
3242.000000;3.555402
3241.000000;3.586595
3240.000000;3.666231
3239.000000;3.809992
3238.000000;3.825664
3237.000000;3.688059
3236.000000;3.576808
3235.000000;3.527023
3234.000000;3.619439
3233.000000;3.789158
3232.000000;3.763509
3231.000000;3.758477
3230.000000;4.133102
3229.000000;4.146147
3228.000000;3.908525
3227.000000;3.790633
3226.000000;3.636419
3225.000000;3.531782
3224.000000;3.494858
3223.000000;3.520853
3222.000000;3.597130
3221.000000;3.678505
3220.000000;3.711531
3219.000000;3.782411
3218.000000;3.925791
3217.000000;3.915421
3216.000000;3.683969
3215.000000;3.549914
3214.000000;3.617245
3213.000000;3.844073
3212.000000;3.830937
3211.000000;3.694708
3210.000000;3.657097
3209.000000;3.687631
3208.000000;3.805709
3207.000000;3.880438
3206.000000;3.867676
3205.000000;3.798580
3204.000000;3.831585
3203.000000;3.707170
3202.000000;3.521793
3201.000000;3.518550
3200.000000;3.707999
3199.000000;3.774421
3198.000000;3.614490
3197.000000;3.550247
3196.000000;3.528481
3195.000000;3.567086
3194.000000;3.700390
3193.000000;3.922928
3192.000000;3.812061
3191.000000;3.488376
3190.000000;3.334885
3189.000000;3.298331
3188.000000;3.351538
3187.000000;3.495359
3186.000000;3.737631
3185.000000;3.861353
3184.000000;3.807108
3183.000000;3.775998
3182.000000;3.747233
3181.000000;3.647751
3180.000000;3.600526
3179.000000;3.691777
3178.000000;3.727627
3177.000000;3.712525
3176.000000;3.839311
3175.000000;4.054560
3174.000000;4.231052
3173.000000;4.446670
3172.000000;3.709028
3171.000000;3.493408
3170.000000;3.544690
3169.000000;3.887612
3168.000000;4.044757
3167.000000;3.772539
3166.000000;4.056870
3165.000000;4.489335
3164.000000;3.789238
3163.000000;3.602464
3162.000000;3.502405
3161.000000;3.514785
3160.000000;3.561943
3159.000000;3.501249
3158.000000;3.443171
3157.000000;3.446399
3156.000000;3.434365
3155.000000;3.409728
3154.000000;3.425449
3153.000000;3.524280
3152.000000;3.743277
3151.000000;4.078729
3150.000000;4.673757
3149.000000;4.176064
3148.000000;4.071923
3147.000000;3.893491
3146.000000;3.974638
3145.000000;4.155393
3144.000000;3.755071
3143.000000;3.633689
3142.000000;3.630953
3141.000000;3.838397
3140.000000;4.287340
3139.000000;3.979628
3138.000000;3.962717
3137.000000;4.163277
3136.000000;4.095525
3135.000000;3.954810
3134.000000;3.752906
3133.000000;3.619179
3132.000000;3.892365
3131.000000;4.171477
3130.000000;4.262315
3129.000000;4.113741
3128.000000;3.687986
3127.000000;3.605042
3126.000000;3.695355
3125.000000;3.862733
3124.000000;3.873975
3123.000000;3.737692
3122.000000;3.631774
3121.000000;3.595395
3120.000000;3.596214
3119.000000;3.544509
3118.000000;3.470738
3117.000000;3.412967
3116.000000;3.414941
3115.000000;3.592992
3114.000000;3.961171
3113.000000;3.840137
3112.000000;3.937131
3111.000000;3.946081
3110.000000;3.747742
3109.000000;3.810657
3108.000000;3.742741
3107.000000;3.599523
3106.000000;3.638425
3105.000000;3.905105
3104.000000;4.206204
3103.000000;4.112806
3102.000000;3.892107
3101.000000;3.689707
3100.000000;3.568008
3099.000000;3.549510
3098.000000;3.600773
3097.000000;3.697344
3096.000000;3.671445
3095.000000;3.420635
3094.000000;3.306087
3093.000000;3.320730
3092.000000;3.412340
3091.000000;3.552612
3090.000000;3.692172
3089.000000;3.730742
3088.000000;3.672953
3087.000000;3.773070
3086.000000;4.111464
3085.000000;3.792447
3084.000000;3.592532
3083.000000;3.611638
3082.000000;3.685063
3081.000000;3.835511
3080.000000;4.208552
3079.000000;3.928812
3078.000000;3.650887
3077.000000;3.615848
3076.000000;3.597584
3075.000000;3.593234
3074.000000;3.663588
3073.000000;3.815712
3072.000000;3.922900
3071.000000;3.969536
3070.000000;3.894323
3069.000000;3.766774
3068.000000;3.731516
3067.000000;3.714285
3066.000000;3.603785
3065.000000;3.529047
3064.000000;3.562273
3063.000000;3.630252
3062.000000;3.640213
3061.000000;3.657153
3060.000000;3.739952
3059.000000;3.749656
3058.000000;3.626013
3057.000000;3.558191
3056.000000;3.599676
3055.000000;3.651297
3054.000000;3.698502
3053.000000;3.744909
3052.000000;3.718976
3051.000000;3.770627
3050.000000;4.247382
3049.000000;3.791567
3048.000000;3.457147
3047.000000;3.366170
3046.000000;3.370443
3045.000000;3.495636
3044.000000;3.782162
3043.000000;4.061596
3042.000000;4.006345
3041.000000;3.888483
3040.000000;3.796378
3039.000000;3.808885
3038.000000;4.042321
3037.000000;3.854088
3036.000000;3.650907
3035.000000;3.685804
3034.000000;3.826654
3033.000000;4.076403
3032.000000;4.146102
3031.000000;3.807719
3030.000000;3.592029
3029.000000;3.441778
3028.000000;3.387180
3027.000000;3.456707
3026.000000;3.576372
3025.000000;3.649077
3024.000000;3.744531
3023.000000;3.925669
3022.000000;3.878923
3021.000000;3.665538
3020.000000;3.530111
3019.000000;3.511346
3018.000000;3.651728
3017.000000;4.000523
3016.000000;3.985717
3015.000000;3.774647
3014.000000;3.721295
3013.000000;3.781264
3012.000000;3.628661
3011.000000;3.459896
3010.000000;3.481542
3009.000000;3.613161
3008.000000;3.684980
3007.000000;3.650789
3006.000000;3.585468
3005.000000;3.520437
3004.000000;3.453926
3003.000000;3.452935
3002.000000;3.554149
3001.000000;3.691883
3000.000000;3.591231
2999.000000;3.413693
2998.000000;3.363755
2997.000000;3.359385
2996.000000;3.328967
2995.000000;3.328031
2994.000000;3.432030
2993.000000;3.572431
2992.000000;3.529599
2991.000000;3.507768
2990.000000;3.624863
2989.000000;3.740899
2988.000000;3.673894
2987.000000;3.605099
2986.000000;3.679848
2985.000000;3.690121
2984.000000;3.556135
2983.000000;3.499962
2982.000000;3.514434
2981.000000;3.649061
2980.000000;3.966057
2979.000000;3.914838
2978.000000;3.664140
2977.000000;3.542573
2976.000000;3.428436
2975.000000;3.339550
2974.000000;3.333138
2973.000000;3.407590
2972.000000;3.494224
2971.000000;3.472521
2970.000000;3.388781
2969.000000;3.366487
2968.000000;3.414053
2967.000000;3.531613
2966.000000;3.733058
2965.000000;3.878283
2964.000000;3.954500
2963.000000;3.922255
2962.000000;3.692547
2961.000000;3.607010
2960.000000;3.719261
2959.000000;3.841090
2958.000000;3.804143
2957.000000;3.771634
2956.000000;3.661426
2955.000000;3.502292
2954.000000;3.384004
2953.000000;3.319655
2952.000000;3.300602
2951.000000;3.335335
2950.000000;3.403983
2949.000000;3.403447
2948.000000;3.342369
2947.000000;3.306675
2946.000000;3.329220
2945.000000;3.394366
2944.000000;3.394295
2943.000000;3.361660
2942.000000;3.426210
2941.000000;3.593171
2940.000000;3.731350
2939.000000;3.776564
2938.000000;3.831537
2937.000000;3.791956
2936.000000;3.728082
2935.000000;3.769150
2934.000000;3.808451
2933.000000;3.791278
2932.000000;3.849781
2931.000000;3.964126
2930.000000;3.991566
2929.000000;4.118058
2928.000000;4.089187
2927.000000;3.748091
2926.000000;3.731976
2925.000000;4.131426
2924.000000;4.032762
2923.000000;3.535415
2922.000000;3.361046
2921.000000;3.318148
2920.000000;3.417883
2919.000000;3.618566
2918.000000;3.944797
2917.000000;4.149458
2916.000000;3.751419
2915.000000;3.566994
2914.000000;3.549856
2913.000000;3.712721
2912.000000;4.173034
2911.000000;3.951421
2910.000000;3.754317
2909.000000;3.716856
2908.000000;3.580154
2907.000000;3.466836
2906.000000;3.463994
2905.000000;3.621640
2904.000000;4.075368
2903.000000;3.883192
2902.000000;3.516244
2901.000000;3.528560
2900.000000;3.674701
2899.000000;3.470173
2898.000000;3.349484
2897.000000;3.444133
2896.000000;3.655348
2895.000000;3.850427
2894.000000;3.963866
2893.000000;4.112776
2892.000000;4.335672
2891.000000;4.280239
2890.000000;4.127074
2889.000000;4.102756
2888.000000;3.986903
2887.000000;3.866945
2886.000000;3.774610
2885.000000;3.766392
2884.000000;3.869545
2883.000000;3.827745
2882.000000;3.839021
2881.000000;4.262046
2880.000000;4.223116
2879.000000;3.967867
2878.000000;4.305942
2877.000000;4.041858
2876.000000;3.628728
2875.000000;3.417951
2874.000000;3.274529
2873.000000;3.225757
2872.000000;3.329602
2871.000000;3.718289
2870.000000;3.669183
2869.000000;3.318110
2868.000000;3.288950
2867.000000;3.415287
2866.000000;3.695797
2865.000000;3.815353
2864.000000;3.693236
2863.000000;3.712954
2862.000000;3.781837
2861.000000;4.049974
2860.000000;4.322158
2859.000000;3.851157
2858.000000;3.694770
2857.000000;3.756178
2856.000000;3.924922
2855.000000;4.189301
2854.000000;4.138704
2853.000000;4.012061
2852.000000;3.891361
2851.000000;3.725803
2850.000000;3.701920
2849.000000;3.905649
2848.000000;4.151655
2847.000000;4.140449
2846.000000;4.291142
2845.000000;4.280423
2844.000000;4.028166
2843.000000;3.837834
2842.000000;3.672865
2841.000000;3.557803
2840.000000;3.506089
2839.000000;3.612681
2838.000000;4.174992
2837.000000;4.023717
2836.000000;3.641159
2835.000000;3.578978
2834.000000;3.624014
2833.000000;4.047317
2832.000000;4.236448
2831.000000;3.900670
2830.000000;3.915814
2829.000000;4.056214
2828.000000;3.989527
2827.000000;3.829079
2826.000000;3.835557
2825.000000;3.766777
2824.000000;3.615953
2823.000000;3.513637
2822.000000;3.485984
2821.000000;3.603452
2820.000000;3.745142
2819.000000;3.580034
2818.000000;3.427171
2817.000000;3.368006
2816.000000;3.362995
2815.000000;3.435302
2814.000000;3.596588
2813.000000;3.782322
2812.000000;3.851385
2811.000000;3.921780
2810.000000;3.849584
2809.000000;3.584109
2808.000000;3.408758
2807.000000;3.323763
2806.000000;3.282838
2805.000000;3.275128
2804.000000;3.312550
2803.000000;3.384143
2802.000000;3.490195
2801.000000;3.652374
2800.000000;3.805809
2799.000000;3.816433
2798.000000;3.821222
2797.000000;3.851576
2796.000000;3.626027
2795.000000;3.452158
2794.000000;3.483561
2793.000000;3.707002
2792.000000;4.000535
2791.000000;4.128831
2790.000000;4.211254
2789.000000;4.058854
2788.000000;3.857703
2787.000000;3.810500
2786.000000;4.009593
2785.000000;4.382619
2784.000000;4.352679
2783.000000;4.134057
2782.000000;3.770449
2781.000000;3.544016
2780.000000;3.465201
2779.000000;3.437440
2778.000000;3.442771
2777.000000;3.485293
2776.000000;3.576430
2775.000000;3.705822
2774.000000;3.755350
2773.000000;3.759584
2772.000000;3.812935
2771.000000;3.890609
2770.000000;3.831930
2769.000000;3.909492
2768.000000;4.393987
2767.000000;4.068735
2766.000000;3.989419
2765.000000;4.488336
2764.000000;4.383769
2763.000000;4.153985
2762.000000;4.173326
2761.000000;3.973253
2760.000000;3.699862
2759.000000;3.555380
2758.000000;3.585423
2757.000000;3.796190
2756.000000;3.954584
2755.000000;3.919764
2754.000000;4.143642
2753.000000;4.426436
2752.000000;3.896253
2751.000000;3.614494
2750.000000;3.471688
2749.000000;3.459531
2748.000000;3.585526
2747.000000;3.919091
2746.000000;4.574504
2745.000000;4.170618
2744.000000;4.240143
2743.000000;4.233141
2742.000000;3.933793
2741.000000;3.856518
2740.000000;3.782941
2739.000000;3.774235
2738.000000;3.934280
2737.000000;4.245932
2736.000000;4.205605
2735.000000;4.152201
2734.000000;3.892700
2733.000000;3.561036
2732.000000;3.457669
2731.000000;3.505361
2730.000000;3.625963
2729.000000;3.770533
2728.000000;3.901624
2727.000000;3.962200
2726.000000;3.826071
2725.000000;3.646178
2724.000000;3.521026
2723.000000;3.401459
2722.000000;3.303891
2721.000000;3.277919
2720.000000;3.313607
2719.000000;3.402751
2718.000000;3.509718
2717.000000;3.687886
2716.000000;3.881222
2715.000000;3.671921
2714.000000;3.560281
2713.000000;3.572936
2712.000000;3.555249
2711.000000;3.535624
2710.000000;3.594023
2709.000000;3.844099
2708.000000;4.143727
2707.000000;4.508636
2706.000000;4.527304
2705.000000;3.851282
2704.000000;3.580810
2703.000000;3.517210
2702.000000;3.555920
2701.000000;3.696584
2700.000000;3.857474
2699.000000;3.671115
2698.000000;3.474990
2697.000000;3.463048
2696.000000;3.517998
2695.000000;3.723098
2694.000000;4.267863
2693.000000;3.788676
2692.000000;3.583968
2691.000000;3.581822
2690.000000;3.759079
2689.000000;4.254193
2688.000000;3.675975
2687.000000;3.465856
2686.000000;3.476597
2685.000000;3.551504
2684.000000;3.776139
2683.000000;4.022769
2682.000000;4.480112
2681.000000;4.702831
2680.000000;3.973288
2679.000000;3.791829
2678.000000;3.675261
2677.000000;3.638893
2676.000000;3.773907
2675.000000;3.813193
2674.000000;3.722782
2673.000000;3.695764
2672.000000;3.793648
2671.000000;3.967540
2670.000000;3.918417
2669.000000;3.834978
2668.000000;3.852195
2667.000000;3.847943
2666.000000;3.814663
2665.000000;3.774239
2664.000000;3.723974
2663.000000;3.615980
2662.000000;3.540955
2661.000000;3.558788
2660.000000;3.738373
2659.000000;3.941454
2658.000000;3.770386
2657.000000;3.624520
2656.000000;3.538640
2655.000000;3.509405
2654.000000;3.563273
2653.000000;3.625851
2652.000000;3.632024
2651.000000;3.758123
2650.000000;3.960443
2649.000000;3.810246
2648.000000;3.639810
2647.000000;3.694876
2646.000000;4.062284
2645.000000;4.212292
2644.000000;4.139998
2643.000000;4.065141
2642.000000;4.008411
2641.000000;3.985646
2640.000000;3.776952
2639.000000;3.823368
2638.000000;4.158921
2637.000000;4.059170
2636.000000;3.793282
2635.000000;3.693279
2634.000000;3.720585
2633.000000;3.858415
2632.000000;3.963691
2631.000000;3.854624
2630.000000;3.686018
2629.000000;3.669783
2628.000000;3.771394
2627.000000;3.804714
2626.000000;3.921780
2625.000000;4.153242
2624.000000;4.082648
2623.000000;3.861762
2622.000000;3.650450
2621.000000;3.536993
2620.000000;3.580850
2619.000000;3.668975
2618.000000;3.741046
2617.000000;4.100245
2616.000000;4.215222
2615.000000;3.760666
2614.000000;3.650196
2613.000000;3.740089
2612.000000;3.782508
2611.000000;3.694519
2610.000000;3.613992
2609.000000;3.538875
2608.000000;3.558255
2607.000000;3.699616
2606.000000;3.877584
2605.000000;4.012967
2604.000000;4.006048
2603.000000;3.873541
2602.000000;3.729147
2601.000000;3.764444
2600.000000;3.916367
2599.000000;3.796450
2598.000000;3.745325
2597.000000;3.883253
2596.000000;3.846177
2595.000000;3.677849
2594.000000;3.577639
2593.000000;3.513986
2592.000000;3.434400
2591.000000;3.337155
2590.000000;3.257550
2589.000000;3.214926
2588.000000;3.232560
2587.000000;3.335824
2586.000000;3.563886
2585.000000;3.860242
2584.000000;3.853212
2583.000000;3.656399
2582.000000;3.619396
2581.000000;3.670773
2580.000000;3.990462
2579.000000;4.596172
2578.000000;3.714057
2577.000000;3.508311
2576.000000;3.520843
2575.000000;3.598475
2574.000000;3.656023
2573.000000;3.678066
2572.000000;3.809971
2571.000000;3.952533
2570.000000;3.907749
2569.000000;3.789907
2568.000000;3.818625
2567.000000;3.755384
2566.000000;3.610427
2565.000000;3.619451
2564.000000;3.872286
2563.000000;4.507520
2562.000000;4.704551
2561.000000;4.494915
2560.000000;4.437228
2559.000000;4.295545
2558.000000;4.036585
2557.000000;3.975655
2556.000000;4.281544
2555.000000;4.206381
2554.000000;3.832578
2553.000000;3.609142
2552.000000;3.447220
2551.000000;3.344494
2550.000000;3.302256
2549.000000;3.322078
2548.000000;3.404844
2547.000000;3.547312
2546.000000;3.960832
2545.000000;4.496164
2544.000000;4.092311
2543.000000;4.127709
2542.000000;4.007159
2541.000000;4.133809
2540.000000;4.249063
2539.000000;3.740398
2538.000000;3.568045
2537.000000;3.592158
2536.000000;3.692829
2535.000000;3.747323
2534.000000;3.660414
2533.000000;3.637780
2532.000000;3.695396
2531.000000;3.670351
2530.000000;3.620913
2529.000000;3.737853
2528.000000;3.940431
2527.000000;3.958832
2526.000000;4.174608
2525.000000;3.949180
2524.000000;3.718247
2523.000000;3.793029
2522.000000;3.927476
2521.000000;3.967512
2520.000000;3.871373
2519.000000;3.815749
2518.000000;3.824078
2517.000000;3.707172
2516.000000;3.551301
2515.000000;3.506039
2514.000000;3.710787
2513.000000;4.249883
2512.000000;4.002948
2511.000000;3.877557
2510.000000;3.908269
2509.000000;3.727303
2508.000000;3.629697
2507.000000;3.721961
2506.000000;3.954457
2505.000000;3.688235
2504.000000;3.473631
2503.000000;3.478132
2502.000000;3.635834
2501.000000;3.891946
2500.000000;3.787467
2499.000000;3.587666
2498.000000;3.558629
2497.000000;3.623061
2496.000000;3.686477
2495.000000;3.797909
2494.000000;4.222001
2493.000000;4.248686
2492.000000;3.984096
2491.000000;4.097569
2490.000000;3.937094
2489.000000;3.719176
2488.000000;3.569718
2487.000000;3.518242
2486.000000;3.623192
2485.000000;3.815338
2484.000000;3.809357
2483.000000;3.685290
2482.000000;3.592902
2481.000000;3.492960
2480.000000;3.428981
2479.000000;3.430149
2478.000000;3.487646
2477.000000;3.649124
2476.000000;4.084326
2475.000000;4.257932
2474.000000;3.940597
2473.000000;4.022530
2472.000000;4.456111
2471.000000;4.127994
2470.000000;3.843263
2469.000000;3.880581
2468.000000;3.773419
2467.000000;3.659270
2466.000000;3.864912
2465.000000;3.816661
2464.000000;3.621097
2463.000000;3.643142
2462.000000;3.660616
2461.000000;3.644104
2460.000000;3.672269
2459.000000;3.650723
2458.000000;3.673951
2457.000000;4.442623
2456.000000;3.920060
2455.000000;3.492909
2454.000000;3.480142
2453.000000;3.630305
2452.000000;4.165531
2451.000000;3.994177
2450.000000;3.608703
2449.000000;3.479355
2448.000000;3.439362
2447.000000;3.434461
2446.000000;3.434130
2445.000000;3.477096
2444.000000;3.607687
2443.000000;3.791965
2442.000000;3.851452
2441.000000;3.824618
2440.000000;3.945498
2439.000000;4.103385
2438.000000;4.055027
2437.000000;3.973315
2436.000000;3.946182
2435.000000;4.285820
2434.000000;4.210675
2433.000000;3.767253
2432.000000;3.616366
2431.000000;3.631006
2430.000000;3.758436
2429.000000;3.844337
2428.000000;3.949092
2427.000000;3.800777
2426.000000;3.693954
2425.000000;3.889831
2424.000000;4.039527
2423.000000;3.756405
2422.000000;3.578107
2421.000000;3.507842
2420.000000;3.524599
2419.000000;3.576171
2418.000000;3.590847
2417.000000;3.624170
2416.000000;3.785725
2415.000000;4.049017
2414.000000;4.035878
2413.000000;3.980100
2412.000000;4.147272
2411.000000;4.440334
2410.000000;4.177277
2409.000000;3.822811
2408.000000;3.660721
2407.000000;3.583819
2406.000000;3.610643
2405.000000;4.230890
2404.000000;4.038992
2403.000000;3.661408
2402.000000;4.165385
2401.000000;4.029547
2400.000000;3.743172
2399.000000;3.884793
2398.000000;4.061879
2397.000000;3.920824
2396.000000;3.764154
2395.000000;3.721531
2394.000000;3.719217
2393.000000;3.786549
2392.000000;3.994237
2391.000000;4.279502
2390.000000;4.353994
2389.000000;4.304920
2388.000000;3.982655
2387.000000;3.654590
2386.000000;3.485702
2385.000000;3.465654
2384.000000;3.840574
2383.000000;4.263031
2382.000000;3.725950
2381.000000;3.672215
2380.000000;3.605338
2379.000000;3.505471
2378.000000;3.395937
2377.000000;3.325897
2376.000000;3.356063
2375.000000;3.472230
2374.000000;3.624981
2373.000000;3.746113
2372.000000;3.990144
2371.000000;4.463486
2370.000000;3.825008
2369.000000;3.603246
2368.000000;3.558078
2367.000000;3.499965
2366.000000;3.443298
2365.000000;3.443083
2364.000000;3.497221
2363.000000;3.557372
2362.000000;3.840525
2361.000000;4.394690
2360.000000;4.010613
2359.000000;4.279167
2358.000000;4.510729
2357.000000;4.223283
2356.000000;4.064459
2355.000000;4.063551
2354.000000;4.326262
2353.000000;4.096242
2352.000000;3.838068
2351.000000;3.670287
2350.000000;3.502465
2349.000000;3.427944
2348.000000;3.547634
2347.000000;3.749928
2346.000000;3.608917
2345.000000;3.561921
2344.000000;3.647027
2343.000000;3.640817
2342.000000;3.593991
2341.000000;3.631032
2340.000000;3.725640
2339.000000;3.719547
2338.000000;3.601438
2337.000000;3.580111
2336.000000;3.647895
2335.000000;3.650457
2334.000000;3.698321
2333.000000;3.762469
2332.000000;3.666400
2331.000000;3.556894
2330.000000;3.563023
2329.000000;3.606811
2328.000000;3.634243
2327.000000;3.690987
2326.000000;3.701306
2325.000000;3.635524
2324.000000;3.665881
2323.000000;3.846784
2322.000000;4.263299
2321.000000;4.326598
2320.000000;3.872488
2319.000000;3.744890
2318.000000;3.931847
2317.000000;4.257586
2316.000000;4.121517
2315.000000;4.113139
2314.000000;4.131672
2313.000000;3.917922
2312.000000;3.755633
2311.000000;3.666562
2310.000000;3.590114
2309.000000;3.537762
2308.000000;3.534716
2307.000000;3.569028
2306.000000;3.688860
2305.000000;3.843405
2304.000000;3.744831
2303.000000;3.635378
2302.000000;3.723109
2301.000000;3.858131
2300.000000;3.811993
2299.000000;3.796773
2298.000000;4.055894
2297.000000;4.247771
2296.000000;3.837944
2295.000000;3.644578
2294.000000;3.641766
2293.000000;3.916980
2292.000000;4.273599
2291.000000;3.874976
2290.000000;3.850061
2289.000000;3.937626
2288.000000;3.804121
2287.000000;3.615480
2286.000000;3.542198
2285.000000;3.565895
2284.000000;3.653780
2283.000000;3.726946
2282.000000;3.636853
2281.000000;3.693871
2280.000000;3.989749
2279.000000;3.802135
2278.000000;3.696359
2277.000000;3.872210
2276.000000;3.921189
2275.000000;3.748340
2274.000000;3.651213
2273.000000;3.603063
2272.000000;3.612814
2271.000000;3.607353
2270.000000;3.526891
2269.000000;3.476426
2268.000000;3.557057
2267.000000;3.850822
2266.000000;4.023026
2265.000000;3.798036
2264.000000;3.638875
2263.000000;3.578762
2262.000000;3.601231
2261.000000;3.615222
2260.000000;3.577735
2259.000000;3.596519
2258.000000;3.816371
2257.000000;4.040393
2256.000000;3.769268
2255.000000;3.790230
2254.000000;4.120997
2253.000000;4.093976
2252.000000;3.900097
2251.000000;4.033324
2250.000000;3.993271
2249.000000;3.805563
2248.000000;3.670236
2247.000000;3.650549
2246.000000;3.689258
2245.000000;3.624015
2244.000000;3.580640
2243.000000;3.617035
2242.000000;3.706232
2241.000000;3.876186
2240.000000;4.219755
2239.000000;4.301909
2238.000000;3.954620
2237.000000;3.821868
2236.000000;3.750543
2235.000000;3.715597
2234.000000;3.856733
2233.000000;4.090483
2232.000000;3.829494
2231.000000;3.635680
2230.000000;3.601696
2229.000000;3.645799
2228.000000;3.655595
2227.000000;3.672823
2226.000000;3.706153
2225.000000;3.658783
2224.000000;3.846286
2223.000000;4.195244
2222.000000;3.646967
2221.000000;3.429179
2220.000000;3.392999
2219.000000;3.485811
2218.000000;3.786759
2217.000000;4.372379
2216.000000;4.107953
2215.000000;3.758116
2214.000000;3.548007
2213.000000;3.490723
2212.000000;3.611134
2211.000000;4.508956
2210.000000;3.897820
2209.000000;3.628860
2208.000000;3.523159
2207.000000;3.402667
2206.000000;3.353424
2205.000000;3.339521
2204.000000;3.348163
2203.000000;3.431986
2202.000000;3.618025
2201.000000;3.864039
2200.000000;4.303809
2199.000000;4.443075
2198.000000;3.959948
2197.000000;3.835173
2196.000000;3.694311
2195.000000;3.613224
2194.000000;3.660712
2193.000000;3.825606
2192.000000;4.241085
2191.000000;4.103240
2190.000000;3.709484
2189.000000;3.561029
2188.000000;3.552164
2187.000000;3.686580
2186.000000;3.960344
2185.000000;4.466940
2184.000000;4.051509
2183.000000;3.753926
2182.000000;3.576210
2181.000000;3.519829
2180.000000;3.641976
2179.000000;3.799729
2178.000000;3.651927
2177.000000;3.533098
2176.000000;3.517454
2175.000000;3.584238
2174.000000;3.664746
2173.000000;3.930393
2172.000000;4.375484
2171.000000;3.742928
2170.000000;3.614308
2169.000000;3.581852
2168.000000;3.561117
2167.000000;3.565050
2166.000000;3.708376
2165.000000;4.045420
2164.000000;4.210273
2163.000000;3.935413
2162.000000;3.819683
2161.000000;3.872001
2160.000000;4.270017
2159.000000;4.201547
2158.000000;4.071771
2157.000000;4.466670
2156.000000;4.573195
2155.000000;4.026964
2154.000000;3.743308
2153.000000;3.622343
2152.000000;3.670603
2151.000000;3.841897
2150.000000;3.939973
2149.000000;3.884248
2148.000000;3.756750
2147.000000;3.720112
2146.000000;3.782043
2145.000000;4.168013
2144.000000;4.764698
2143.000000;4.024330
2142.000000;3.995493
2141.000000;4.293496
2140.000000;4.170605
2139.000000;3.634036
2138.000000;3.567572
2137.000000;3.696544
2136.000000;4.085882
2135.000000;4.354340
2134.000000;4.297489
2133.000000;4.027886
2132.000000;3.773507
2131.000000;3.723786
2130.000000;3.895930
2129.000000;4.873935
2128.000000;4.336678
2127.000000;4.015057
2126.000000;3.906255
2125.000000;4.032397
2124.000000;3.947860
2123.000000;3.714118
2122.000000;3.735488
2121.000000;3.773527
2120.000000;3.750476
2119.000000;3.813332
2118.000000;4.004836
2117.000000;3.991803
2116.000000;3.618427
2115.000000;3.421559
2114.000000;3.362458
2113.000000;3.407461
2112.000000;3.526844
2111.000000;3.729894
2110.000000;4.026280
2109.000000;4.111903
2108.000000;4.369405
2107.000000;4.387702
2106.000000;4.019696
2105.000000;3.861948
2104.000000;3.892313
2103.000000;3.989115
2102.000000;4.212567
2101.000000;4.381925
2100.000000;4.019695
2099.000000;3.935983
2098.000000;4.113708
2097.000000;4.575354
2096.000000;3.780231
2095.000000;3.596920
2094.000000;3.623360
2093.000000;3.768781
2092.000000;3.834430
2091.000000;3.827234
2090.000000;3.923216
2089.000000;4.016896
2088.000000;3.908197
2087.000000;3.804631
2086.000000;3.724947
2085.000000;3.802665
2084.000000;3.875496
2083.000000;3.653834
2082.000000;3.493141
2081.000000;3.458055
2080.000000;3.526044
2079.000000;3.626434
2078.000000;3.739317
2077.000000;3.839524
2076.000000;3.721135
2075.000000;3.552786
2074.000000;3.431777
2073.000000;3.390332
2072.000000;3.439205
2071.000000;3.510161
2070.000000;3.523078
2069.000000;3.509495
2068.000000;3.502973
2067.000000;3.464654
2066.000000;3.421364
2065.000000;3.376356
2064.000000;3.316335
2063.000000;3.296981
2062.000000;3.361522
2061.000000;3.476611
2060.000000;3.566866
2059.000000;3.601296
2058.000000;3.636360
2057.000000;3.727540
2056.000000;3.857273
2055.000000;4.223796
2054.000000;4.381025
2053.000000;4.144990
2052.000000;4.109335
2051.000000;3.890842
2050.000000;3.711365
2049.000000;3.669326
2048.000000;3.706586
2047.000000;3.714961
2046.000000;3.821413
2045.000000;4.002610
2044.000000;4.058907
2043.000000;4.170861
2042.000000;4.224909
2041.000000;4.250865
2040.000000;4.452690
2039.000000;4.369742
2038.000000;4.013077
2037.000000;3.833638
2036.000000;3.892483
2035.000000;3.969991
2034.000000;3.857765
2033.000000;3.725388
2032.000000;3.699798
2031.000000;3.727858
2030.000000;3.680299
2029.000000;3.622151
2028.000000;3.663837
2027.000000;3.771202
2026.000000;3.782091
2025.000000;3.673280
2024.000000;3.565650
2023.000000;3.549501
2022.000000;3.650083
2021.000000;3.794399
2020.000000;3.917510
2019.000000;3.958419
2018.000000;4.301778
2017.000000;4.064965
2016.000000;3.893338
2015.000000;3.863312
2014.000000;3.726170
2013.000000;3.676726
2012.000000;3.833879
2011.000000;4.268267
2010.000000;3.904262
2009.000000;3.614529
2008.000000;3.546552
2007.000000;3.496733
2006.000000;3.495810
2005.000000;3.532607
2004.000000;3.571524
2003.000000;3.696606
2002.000000;4.092991
2001.000000;3.836007
2000.000000;3.627169
1999.000000;3.737918
1998.000000;3.942707
1997.000000;3.829519
1996.000000;3.691719
1995.000000;3.619959
1994.000000;3.531157
1993.000000;3.467460
1992.000000;3.477035
1991.000000;3.564664
1990.000000;3.726958
1989.000000;3.920142
1988.000000;3.940111
1987.000000;3.900649
1986.000000;4.218936
1985.000000;4.951431
1984.000000;4.429310
1983.000000;4.695505
1982.000000;4.153092
1981.000000;4.077269
1980.000000;4.042836
1979.000000;3.732517
1978.000000;3.587905
1977.000000;3.562667
1976.000000;3.560713
1975.000000;3.528078
1974.000000;3.455396
1973.000000;3.429898
1972.000000;3.461862
1971.000000;3.474508
1970.000000;3.535506
1969.000000;3.697747
1968.000000;3.737347
1967.000000;3.636210
1966.000000;3.596294
1965.000000;3.603746
1964.000000;3.587157
1963.000000;3.577533
1962.000000;3.655220
1961.000000;3.796450
1960.000000;3.782288
1959.000000;3.701545
1958.000000;3.754551
1957.000000;3.834458
1956.000000;3.759039
1955.000000;3.724082
1954.000000;3.933106
1953.000000;4.381785
1952.000000;4.899918
1951.000000;4.934895
1950.000000;4.129947
1949.000000;3.836831
1948.000000;3.816873
1947.000000;3.755171
1946.000000;3.632915
1945.000000;3.639847
1944.000000;3.592621
1943.000000;3.480212
1942.000000;3.476668
1941.000000;3.512341
1940.000000;3.454378
1939.000000;3.387792
1938.000000;3.421073
1937.000000;3.542515
1936.000000;3.665064
1935.000000;3.723948
1934.000000;3.739847
1933.000000;3.750184
1932.000000;3.771953
1931.000000;3.892289
1930.000000;4.236475
1929.000000;4.693494
1928.000000;4.245835
1927.000000;4.107163
1926.000000;4.361964
1925.000000;4.213385
1924.000000;4.047682
1923.000000;3.838412
1922.000000;3.606127
1921.000000;3.516575
1920.000000;3.533270
1919.000000;3.628253
1918.000000;4.082746
1917.000000;4.056508
1916.000000;3.643502
1915.000000;3.559837
1914.000000;3.565761
1913.000000;3.610395
1912.000000;3.761652
1911.000000;3.983267
1910.000000;3.963920
1909.000000;3.981485
1908.000000;4.365124
1907.000000;4.014213
1906.000000;3.662480
1905.000000;3.557020
1904.000000;3.501901
1903.000000;3.514403
1902.000000;3.657157
1901.000000;3.666397
1900.000000;3.558869
1899.000000;3.585198
1898.000000;3.599991
1897.000000;3.566540
1896.000000;3.638351
1895.000000;3.853865
1894.000000;4.133874
1893.000000;4.528792
1892.000000;4.526443
1891.000000;4.183463
1890.000000;3.931203
1889.000000;3.827963
1888.000000;3.870731
1887.000000;3.836633
1886.000000;3.685047
1885.000000;3.655522
1884.000000;3.809276
1883.000000;4.113461
1882.000000;4.508517
1881.000000;3.961033
1880.000000;3.860452
1879.000000;4.075935
1878.000000;4.446580
1877.000000;4.678570
1876.000000;4.072644
1875.000000;3.761988
1874.000000;3.759252
1873.000000;3.979063
1872.000000;4.267902
1871.000000;4.420713
1870.000000;4.401886
1869.000000;4.133876
1868.000000;4.049351
1867.000000;4.116198
1866.000000;3.890377
1865.000000;3.641772
1864.000000;3.514203
1863.000000;3.525462
1862.000000;3.708322
1861.000000;3.732306
1860.000000;3.656405
1859.000000;3.749606
1858.000000;3.954140
1857.000000;4.005499
1856.000000;3.707873
1855.000000;3.555983
1854.000000;3.593704
1853.000000;3.723805
1852.000000;3.860295
1851.000000;3.852544
1850.000000;3.659917
1849.000000;3.559930
1848.000000;3.676075
1847.000000;4.129722
1846.000000;4.943748
1845.000000;4.291407
1844.000000;3.890791
1843.000000;3.654602
1842.000000;3.532835
1841.000000;3.548701
1840.000000;3.682449
1839.000000;3.889088
1838.000000;4.060802
1837.000000;3.939492
1836.000000;3.873342
1835.000000;3.913270
1834.000000;3.808168
1833.000000;3.756817
1832.000000;3.864780
1831.000000;4.028476
1830.000000;3.951839
1829.000000;3.669449
1828.000000;3.537532
1827.000000;3.571648
1826.000000;3.687282
1825.000000;3.804898
1824.000000;3.866701
1823.000000;4.060701
1822.000000;4.464925
1821.000000;4.263024
1820.000000;4.144121
1819.000000;3.958991
1818.000000;3.857674
1817.000000;3.818944
1816.000000;3.720303
1815.000000;3.724487
1814.000000;3.879871
1813.000000;3.849616
1812.000000;3.725943
1811.000000;3.701208
1810.000000;3.632063
1809.000000;3.601184
1808.000000;3.706671
1807.000000;4.017721
1806.000000;4.583069
1805.000000;4.167817
1804.000000;3.982012
1803.000000;3.951646
1802.000000;3.962906
1801.000000;4.081021
1800.000000;4.446103
1799.000000;4.601535
1798.000000;4.329970
1797.000000;4.549669
1796.000000;5.212188
1795.000000;4.564840
1794.000000;3.931629
1793.000000;3.703753
1792.000000;3.665150
1791.000000;3.713305
1790.000000;3.721065
1789.000000;3.700360
1788.000000;3.799444
1787.000000;4.076296
1786.000000;4.308713
1785.000000;4.059095
1784.000000;3.862285
1783.000000;3.869623
1782.000000;4.001491
1781.000000;4.149437
1780.000000;4.139535
1779.000000;4.018365
1778.000000;4.121233
1777.000000;4.140316
1776.000000;4.098531
1775.000000;4.197690
1774.000000;4.102781
1773.000000;4.008814
1772.000000;4.052856
1771.000000;4.110618
1770.000000;4.004800
1769.000000;3.910027
1768.000000;3.894418
1767.000000;4.012009
1766.000000;4.151580
1765.000000;3.949008
1764.000000;3.827441
1763.000000;3.878308
1762.000000;4.167536
1761.000000;4.799413
1760.000000;4.568174
1759.000000;4.149881
1758.000000;4.027687
1757.000000;4.216402
1756.000000;4.354724
1755.000000;3.983609
1754.000000;3.816370
1753.000000;3.968240
1752.000000;4.300922
1751.000000;4.073321
1750.000000;3.860372
1749.000000;3.826606
1748.000000;3.887812
1747.000000;3.934694
1746.000000;3.920998
1745.000000;3.929887
1744.000000;3.996693
1743.000000;3.989893
1742.000000;3.969606
1741.000000;4.110263
1740.000000;4.182141
1739.000000;4.179364
1738.000000;3.983663
1737.000000;3.814381
1736.000000;3.911606
1735.000000;4.070035
1734.000000;4.682783
1733.000000;4.311447
1732.000000;3.782784
1731.000000;3.690213
1730.000000;3.618377
1729.000000;3.552754
1728.000000;3.561572
1727.000000;3.615920
1726.000000;3.578866
1725.000000;3.533400
1724.000000;3.608850
1723.000000;3.881743
1722.000000;4.065807
1721.000000;3.674549
1720.000000;3.530409
1719.000000;3.580950
1718.000000;3.700720
1717.000000;3.894460
1716.000000;4.179869
1715.000000;4.144021
1714.000000;3.928562
1713.000000;3.944488
1712.000000;3.997502
1711.000000;3.871113
1710.000000;3.907378
1709.000000;4.258103
1708.000000;4.380337
1707.000000;4.085079
1706.000000;3.928634
1705.000000;3.788943
1704.000000;3.667892
1703.000000;3.689069
1702.000000;3.847363
1701.000000;3.980127
1700.000000;3.971663
1699.000000;3.905368
1698.000000;3.885179
1697.000000;3.894121
1696.000000;3.886875
1695.000000;3.773574
1694.000000;3.654838
1693.000000;3.656247
1692.000000;3.703373
1691.000000;3.680878
1690.000000;3.651025
1689.000000;3.680889
1688.000000;3.845655
1687.000000;4.147650
1686.000000;4.359617
1685.000000;4.289401
1684.000000;4.211158
1683.000000;4.166732
1682.000000;3.978558
1681.000000;3.817596
1680.000000;3.762147
1679.000000;3.739577
1678.000000;3.765347
1677.000000;3.822885
1676.000000;3.852316
1675.000000;3.837288
1674.000000;3.853258
1673.000000;4.002356
1672.000000;4.018570
1671.000000;4.001617
1670.000000;4.278703
1669.000000;4.215406
1668.000000;4.308447
1667.000000;4.287321
1666.000000;3.788003
1665.000000;3.660753
1664.000000;3.716669
1663.000000;3.884901
1662.000000;4.083210
1661.000000;4.166346
1660.000000;4.048809
1659.000000;3.996718
1658.000000;4.138159
1657.000000;4.154326
1656.000000;4.542020
1655.000000;4.484000
1654.000000;4.087504
1653.000000;4.066790
1652.000000;4.100967
1651.000000;4.378155
1650.000000;4.231607
1649.000000;4.025927
1648.000000;4.082879
1647.000000;4.235362
1646.000000;4.231210
1645.000000;3.985071
1644.000000;3.862726
1643.000000;3.857006
1642.000000;3.847526
1641.000000;3.914159
1640.000000;3.990986
1639.000000;3.940105
1638.000000;3.939430
1637.000000;4.173656
1636.000000;4.352808
1635.000000;3.953815
1634.000000;3.812919
1633.000000;4.049565
1632.000000;4.534249
1631.000000;4.085322
1630.000000;4.115817
1629.000000;4.488665
1628.000000;4.308774
1627.000000;4.141616
1626.000000;3.787189
1625.000000;3.606062
1624.000000;3.649833
1623.000000;3.808921
1622.000000;3.928999
1621.000000;4.066210
1620.000000;4.090259
1619.000000;3.874654
1618.000000;3.760035
1617.000000;3.819150
1616.000000;3.886781
1615.000000;3.715827
1614.000000;3.677925
1613.000000;3.849226
1612.000000;4.242382
1611.000000;4.397430
1610.000000;3.798853
1609.000000;3.574070
1608.000000;3.562215
1607.000000;3.666415
1606.000000;3.933595
1605.000000;3.926243
1604.000000;3.575410
1603.000000;3.444604
1602.000000;3.465624
1601.000000;3.648637
1600.000000;4.028633
1599.000000;4.005114
1598.000000;3.891841
1597.000000;3.884668
1596.000000;3.886470
1595.000000;3.937703
1594.000000;3.870015
1593.000000;3.788271
1592.000000;3.723356
1591.000000;3.689937
1590.000000;3.752520
1589.000000;3.871279
1588.000000;3.894322
1587.000000;3.836159
1586.000000;3.881320
1585.000000;4.126939
1584.000000;4.480092
1583.000000;4.230291
1582.000000;3.906208
1581.000000;3.830095
1580.000000;4.027433
1579.000000;3.959899
1578.000000;3.753564
1577.000000;3.717662
1576.000000;3.664563
1575.000000;3.612284
1574.000000;3.593393
1573.000000;3.556311
1572.000000;3.528861
1571.000000;3.544236
1570.000000;3.607518
1569.000000;3.655729
1568.000000;3.710626
1567.000000;4.003963
1566.000000;3.892771
1565.000000;3.541742
1564.000000;3.430151
1563.000000;3.503392
1562.000000;3.848210
1561.000000;4.193234
1560.000000;4.010213
1559.000000;3.988756
1558.000000;4.049166
1557.000000;4.075917
1556.000000;4.309154
1555.000000;4.435376
1554.000000;4.337226
1553.000000;4.323339
1552.000000;3.922209
1551.000000;3.788996
1550.000000;3.822567
1549.000000;3.925100
1548.000000;3.885193
1547.000000;3.707636
1546.000000;3.682732
1545.000000;3.748878
1544.000000;3.980505
1543.000000;4.451195
1542.000000;4.239040
1541.000000;4.002654
1540.000000;4.027947
1539.000000;4.128134
1538.000000;4.234692
1537.000000;4.437492
1536.000000;4.993869
1535.000000;4.577935
1534.000000;3.948965
1533.000000;3.634027
1532.000000;3.621710
1531.000000;3.813702
1530.000000;3.877658
1529.000000;3.856328
1528.000000;3.784319
1527.000000;3.688754
1526.000000;3.815992
1525.000000;4.264086
1524.000000;4.181346
1523.000000;3.935559
1522.000000;3.919868
1521.000000;3.917341
1520.000000;3.890040
1519.000000;3.890858
1518.000000;3.865537
1517.000000;3.781669
1516.000000;3.802908
1515.000000;3.954039
1514.000000;3.955507
1513.000000;3.889476
1512.000000;3.865283
1511.000000;4.038634
1510.000000;4.581489
1509.000000;4.070887
1508.000000;3.819684
1507.000000;3.876959
1506.000000;4.101080
1505.000000;4.138022
1504.000000;4.015254
1503.000000;4.128917
1502.000000;4.189476
1501.000000;4.112597
1500.000000;4.052081
1499.000000;4.016826
1498.000000;3.936525
1497.000000;3.919393
1496.000000;4.080220
1495.000000;4.102201
1494.000000;4.134681
1493.000000;4.270871
1492.000000;4.168677
1491.000000;4.084730
1490.000000;3.888243
1489.000000;3.711681
1488.000000;3.740875
1487.000000;3.874971
1486.000000;3.954252
1485.000000;4.022522
1484.000000;3.759877
1483.000000;3.537705
1482.000000;3.541474
1481.000000;3.704572
1480.000000;3.909267
1479.000000;3.919658
1478.000000;3.803617
1477.000000;3.761156
1476.000000;3.822324
1475.000000;3.987430
1474.000000;4.167051
1473.000000;4.283923
1472.000000;4.420532
1471.000000;4.001644
1470.000000;3.717032
1469.000000;3.659071
1468.000000;3.672053
1467.000000;3.717177
1466.000000;3.823096
1465.000000;3.877683
1464.000000;3.735565
1463.000000;3.673003
1462.000000;3.879445
1461.000000;4.449877
1460.000000;4.396137
1459.000000;3.895151
1458.000000;3.633956
1457.000000;3.544031
1456.000000;3.577231
1455.000000;3.661966
1454.000000;3.784664
1453.000000;3.936809
1452.000000;3.975085
1451.000000;3.818431
1450.000000;3.875762
1449.000000;4.115752
1448.000000;3.822126
1447.000000;3.617624
1446.000000;3.649197
1445.000000;3.863574
1444.000000;4.054103
1443.000000;4.019759
1442.000000;4.091355
1441.000000;3.947387
1440.000000;3.775973
1439.000000;3.819717
1438.000000;3.951822
1437.000000;3.995802
1436.000000;3.992180
1435.000000;4.137609
1434.000000;4.323791
1433.000000;4.055732
1432.000000;3.943017
1431.000000;4.161746
1430.000000;3.811708
1429.000000;3.511718
1428.000000;3.445798
1427.000000;3.475444
1426.000000;3.536801
1425.000000;3.720305
1424.000000;3.992407
1423.000000;3.793682
1422.000000;3.722139
1421.000000;3.695384
1420.000000;3.529664
1419.000000;3.367224
1418.000000;3.313681
1417.000000;3.417510
1416.000000;3.626315
1415.000000;3.928012
1414.000000;4.356584
1413.000000;4.319337
1412.000000;3.934963
1411.000000;3.736145
1410.000000;3.657078
1409.000000;3.530943
1408.000000;3.422418
1407.000000;3.373824
1406.000000;3.336414
1405.000000;3.354329
1404.000000;3.432090
1403.000000;3.665546
1402.000000;4.371278
1401.000000;4.274867
1400.000000;3.946825
1399.000000;3.621622
1398.000000;3.489693
1397.000000;3.574375
1396.000000;3.895531
1395.000000;4.206756
1394.000000;3.694761
1393.000000;3.540620
1392.000000;3.466167
1391.000000;3.387214
1390.000000;3.443804
1389.000000;3.840460
1388.000000;4.317935
1387.000000;3.818939
1386.000000;3.842850
1385.000000;3.902569
1384.000000;3.798926
1383.000000;3.842062
1382.000000;3.750079
1381.000000;3.546430
1380.000000;3.585774
1379.000000;3.843680
1378.000000;3.869607
1377.000000;3.691733
1376.000000;3.586085
1375.000000;3.536332
1374.000000;3.499820
1373.000000;3.504716
1372.000000;3.640966
1371.000000;3.938642
1370.000000;4.070411
1369.000000;3.988490
1368.000000;3.885571
1367.000000;3.687526
1366.000000;3.575497
1365.000000;3.507737
1364.000000;3.475897
1363.000000;3.619222
1362.000000;3.924140
1361.000000;3.849893
1360.000000;3.654885
1359.000000;3.596048
1358.000000;3.726538
1357.000000;3.952255
1356.000000;3.842571
1355.000000;3.787654
1354.000000;4.045415
1353.000000;4.097153
1352.000000;3.998103
1351.000000;3.864227
1350.000000;3.634164
1349.000000;3.545009
1348.000000;3.670970
1347.000000;3.998444
1346.000000;3.865108
1345.000000;3.851820
1344.000000;4.194618
1343.000000;3.950748
1342.000000;3.665880
1341.000000;3.522163
1340.000000;3.417638
1339.000000;3.404553
1338.000000;3.516978
1337.000000;3.548995
1336.000000;3.481564
1335.000000;3.508224
1334.000000;3.558701
1333.000000;3.538526
1332.000000;3.414804
1331.000000;3.336126
1330.000000;3.406551
1329.000000;3.524077
1328.000000;3.501546
1327.000000;3.517107
1326.000000;3.645100
1325.000000;3.567423
1324.000000;3.467862
1323.000000;3.505946
1322.000000;3.575678
1321.000000;3.644180
1320.000000;3.582238
1319.000000;3.444869
1318.000000;3.449811
1317.000000;3.524557
1316.000000;3.488720
1315.000000;3.453967
1314.000000;3.516665
1313.000000;3.541082
1312.000000;3.512901
1311.000000;3.557493
1310.000000;3.608016
1309.000000;3.635901
1308.000000;3.657354
1307.000000;3.590082
1306.000000;3.455444
1305.000000;3.416362
1304.000000;3.627529
1303.000000;3.758337
1302.000000;3.550286
1301.000000;3.421306
1300.000000;3.347172
1299.000000;3.378644
1298.000000;3.594148
1297.000000;3.914692
1296.000000;3.660051
1295.000000;3.473625
1294.000000;3.417994
1293.000000;3.370237
1292.000000;3.353429
1291.000000;3.381805
1290.000000;3.385907
1289.000000;3.350462
1288.000000;3.336649
1287.000000;3.323804
1286.000000;3.291866
1285.000000;3.286740
1284.000000;3.336641
1283.000000;3.417206
1282.000000;3.548543
1281.000000;3.721318
1280.000000;3.664420
1279.000000;3.568795
1278.000000;3.690599
1277.000000;4.008229
1276.000000;3.987454
1275.000000;3.728353
1274.000000;3.711671
1273.000000;3.809273
1272.000000;3.736658
1271.000000;3.640874
1270.000000;3.728839
1269.000000;3.961824
1268.000000;3.952651
1267.000000;3.787289
1266.000000;3.627246
1265.000000;3.558300
1264.000000;3.639004
1263.000000;3.781901
1262.000000;3.713630
1261.000000;3.608935
1260.000000;3.667884
1259.000000;3.838450
1258.000000;3.816964
1257.000000;3.548827
1256.000000;3.328194
1255.000000;3.236847
1254.000000;3.288688
1253.000000;3.470327
1252.000000;3.695989
1251.000000;3.764907
1250.000000;3.676788
1249.000000;3.672241
1248.000000;3.772873
1247.000000;3.630408
1246.000000;3.488990
1245.000000;3.516619
1244.000000;3.624983
1243.000000;3.610637
1242.000000;3.522946
1241.000000;3.593516
1240.000000;3.977264
1239.000000;4.541831
1238.000000;3.925397
1237.000000;3.847374
1236.000000;3.909064
1235.000000;3.441377
1234.000000;3.308730
1233.000000;3.329703
1232.000000;3.401191
1231.000000;3.567715
1230.000000;3.787298
1229.000000;3.524034
1228.000000;3.313993
1227.000000;3.272537
1226.000000;3.313351
1225.000000;3.410729
1224.000000;3.480588
1223.000000;3.536336
1222.000000;3.710110
1221.000000;4.061743
1220.000000;3.994570
1219.000000;3.606260
1218.000000;3.447573
1217.000000;3.404507
1216.000000;3.383502
1215.000000;3.426907
1214.000000;3.560633
1213.000000;3.586535
1212.000000;3.559553
1211.000000;3.505561
1210.000000;3.410807
1209.000000;3.355866
1208.000000;3.365755
1207.000000;3.487234
1206.000000;3.662334
1205.000000;3.654066
1204.000000;3.853505
1203.000000;3.897733
1202.000000;3.509077
1201.000000;3.464664
1200.000000;3.672644
