Criado como novo conjunto de dados;"e2410_daniel_v2.spp","361.7 Secs"
cm-1;Abs
10000.000000;0.053583
9999.000000;0.052975
9998.000000;0.052368
9997.000000;0.051762
9996.000000;0.051157
9995.000000;0.050553
9994.000000;0.049949
9993.000000;0.049347
9992.000000;0.048745
9991.000000;0.048144
9990.000000;0.047543
9989.000000;0.046960
9988.000000;0.046469
9987.000000;0.046064
9986.000000;0.045632
9985.000000;0.045094
9984.000000;0.044467
9983.000000;0.043821
9982.000000;0.043186
9981.000000;0.042533
9980.000000;0.041842
9979.000000;0.041172
9978.000000;0.040650
9977.000000;0.040366
9976.000000;0.040276
9975.000000;0.040210
9974.000000;0.040010
9973.000000;0.039646
9972.000000;0.039194
9971.000000;0.038715
9970.000000;0.038181
9969.000000;0.037548
9968.000000;0.036851
9967.000000;0.036207
9966.000000;0.035705
9965.000000;0.035320
9964.000000;0.034956
9963.000000;0.034538
9962.000000;0.034072
9961.000000;0.033603
9960.000000;0.033166
9959.000000;0.032764
9958.000000;0.032382
9957.000000;0.032003
9956.000000;0.031607
9955.000000;0.031179
9954.000000;0.030738
9953.000000;0.030318
9952.000000;0.029924
9951.000000;0.029505
9950.000000;0.029016
9949.000000;0.028478
9948.000000;0.027960
9947.000000;0.027483
9946.000000;0.026977
9945.000000;0.026362
9944.000000;0.025650
9943.000000;0.024941
9942.000000;0.024329
9941.000000;0.023843
9940.000000;0.023469
9939.000000;0.023171
9938.000000;0.022891
9937.000000;0.022545
9936.000000;0.022093
9935.000000;0.021585
9934.000000;0.021108
9933.000000;0.020681
9932.000000;0.020232
9931.000000;0.019701
9930.000000;0.019136
9929.000000;0.018636
9928.000000;0.018221
9927.000000;0.017798
9926.000000;0.017287
9925.000000;0.016751
9924.000000;0.016323
9923.000000;0.016045
9922.000000;0.015791
9921.000000;0.015406
9920.000000;0.014855
9919.000000;0.014235
9918.000000;0.013659
9917.000000;0.013162
9916.000000;0.012703
9915.000000;0.012206
9914.000000;0.011611
9913.000000;0.010941
9912.000000;0.010311
9911.000000;0.009844
9910.000000;0.009531
9909.000000;0.009219
9908.000000;0.008756
9907.000000;0.008146
9906.000000;0.007522
9905.000000;0.007006
9904.000000;0.006628
9903.000000;0.006359
9902.000000;0.006163
9901.000000;0.005985
9900.000000;0.005735
9899.000000;0.005342
9898.000000;0.004811
9897.000000;0.004229
9896.000000;0.003694
9895.000000;0.003237
9894.000000;0.002807
9893.000000;0.002332
9892.000000;0.001788
9891.000000;0.001229
9890.000000;0.000731
9889.000000;0.000303
9888.000000;-0.000142
9887.000000;-0.000709
9886.000000;-0.001401
9885.000000;-0.002097
9884.000000;-0.002658
9883.000000;-0.003057
9882.000000;-0.003397
9881.000000;-0.003794
9880.000000;-0.004254
9879.000000;-0.004695
9878.000000;-0.005069
9877.000000;-0.005442
9876.000000;-0.005916
9875.000000;-0.006496
9874.000000;-0.007067
9873.000000;-0.007525
9872.000000;-0.007890
9871.000000;-0.008263
9870.000000;-0.008699
9869.000000;-0.009160
9868.000000;-0.009600
9867.000000;-0.010032
9866.000000;-0.010489
9865.000000;-0.010954
9864.000000;-0.011380
9863.000000;-0.011764
9862.000000;-0.012145
9861.000000;-0.012545
9860.000000;-0.012973
9859.000000;-0.013463
9858.000000;-0.014053
9857.000000;-0.014693
9856.000000;-0.015266
9855.000000;-0.015722
9854.000000;-0.016150
9853.000000;-0.016640
9852.000000;-0.017137
9851.000000;-0.017505
9850.000000;-0.017710
9849.000000;-0.017882
9848.000000;-0.018180
9847.000000;-0.018655
9846.000000;-0.019256
9845.000000;-0.019894
9844.000000;-0.020490
9843.000000;-0.020996
9842.000000;-0.021420
9841.000000;-0.021803
9840.000000;-0.022183
9839.000000;-0.022580
9838.000000;-0.023020
9837.000000;-0.023524
9836.000000;-0.024061
9835.000000;-0.024567
9834.000000;-0.025020
9833.000000;-0.025459
9832.000000;-0.025911
9831.000000;-0.026344
9830.000000;-0.026718
9829.000000;-0.027060
9828.000000;-0.027450
9827.000000;-0.027951
9826.000000;-0.028566
9825.000000;-0.029239
9824.000000;-0.029875
9823.000000;-0.030395
9822.000000;-0.030812
9821.000000;-0.031224
9820.000000;-0.031695
9819.000000;-0.032171
9818.000000;-0.032544
9817.000000;-0.032778
9816.000000;-0.032961
9815.000000;-0.033224
9814.000000;-0.033655
9813.000000;-0.034252
9812.000000;-0.034930
9811.000000;-0.035573
9810.000000;-0.036110
9809.000000;-0.036556
9808.000000;-0.036963
9807.000000;-0.037351
9806.000000;-0.037720
9805.000000;-0.038084
9804.000000;-0.038475
9803.000000;-0.038903
9802.000000;-0.039356
9801.000000;-0.039833
9800.000000;-0.040333
9799.000000;-0.040826
9798.000000;-0.041266
9797.000000;-0.041653
9796.000000;-0.042042
9795.000000;-0.042493
9794.000000;-0.043035
9793.000000;-0.043669
9792.000000;-0.044351
9791.000000;-0.044975
9790.000000;-0.045424
9789.000000;-0.045686
9788.000000;-0.045900
9787.000000;-0.046231
9786.000000;-0.046716
9785.000000;-0.047264
9784.000000;-0.047794
9783.000000;-0.048332
9782.000000;-0.048933
9781.000000;-0.049564
9780.000000;-0.050100
9779.000000;-0.050457
9778.000000;-0.050684
9777.000000;-0.050909
9776.000000;-0.051200
9775.000000;-0.051531
9774.000000;-0.051877
9773.000000;-0.052291
9772.000000;-0.052838
9771.000000;-0.053483
9770.000000;-0.054094
9769.000000;-0.054574
9768.000000;-0.054953
9767.000000;-0.055331
9766.000000;-0.055741
9765.000000;-0.056134
9764.000000;-0.056473
9763.000000;-0.056813
9762.000000;-0.057241
9761.000000;-0.057764
9760.000000;-0.058296
9759.000000;-0.058762
9758.000000;-0.059184
9757.000000;-0.059628
9756.000000;-0.060102
9755.000000;-0.060561
9754.000000;-0.060990
9753.000000;-0.061435
9752.000000;-0.061928
9751.000000;-0.062425
9750.000000;-0.062848
9749.000000;-0.063179
9748.000000;-0.063477
9747.000000;-0.063825
9746.000000;-0.064272
9745.000000;-0.064824
9744.000000;-0.065446
9743.000000;-0.066086
9742.000000;-0.066672
9741.000000;-0.067144
9740.000000;-0.067489
9739.000000;-0.067783
9738.000000;-0.068153
9737.000000;-0.068671
9736.000000;-0.069260
9735.000000;-0.069763
9734.000000;-0.070118
9733.000000;-0.070424
9732.000000;-0.070824
9731.000000;-0.071340
9730.000000;-0.071871
9729.000000;-0.072307
9728.000000;-0.072630
9727.000000;-0.072917
9726.000000;-0.073280
9725.000000;-0.073785
9724.000000;-0.074382
9723.000000;-0.074922
9722.000000;-0.075278
9721.000000;-0.075462
9720.000000;-0.075619
9719.000000;-0.075909
9718.000000;-0.076399
9717.000000;-0.077033
9716.000000;-0.077672
9715.000000;-0.078178
9714.000000;-0.078507
9713.000000;-0.078744
9712.000000;-0.079013
9711.000000;-0.079374
9710.000000;-0.079807
9709.000000;-0.080290
9708.000000;-0.080845
9707.000000;-0.081480
9706.000000;-0.082119
9705.000000;-0.082615
9704.000000;-0.082862
9703.000000;-0.082908
9702.000000;-0.082946
9701.000000;-0.083165
9700.000000;-0.083603
9699.000000;-0.084150
9698.000000;-0.084704
9697.000000;-0.085263
9696.000000;-0.085869
9695.000000;-0.086513
9694.000000;-0.087131
9693.000000;-0.087666
9692.000000;-0.088092
9691.000000;-0.088420
9690.000000;-0.088710
9689.000000;-0.089054
9688.000000;-0.089494
9687.000000;-0.089972
9686.000000;-0.090403
9685.000000;-0.090771
9684.000000;-0.091117
9683.000000;-0.091468
9682.000000;-0.091819
9681.000000;-0.092186
9680.000000;-0.092595
9679.000000;-0.093025
9678.000000;-0.093435
9677.000000;-0.093845
9676.000000;-0.094333
9675.000000;-0.094920
9674.000000;-0.095513
9673.000000;-0.095989
9672.000000;-0.096328
9671.000000;-0.096619
9670.000000;-0.096977
9669.000000;-0.097469
9668.000000;-0.098068
9667.000000;-0.098675
9666.000000;-0.099190
9665.000000;-0.099579
9664.000000;-0.099881
9663.000000;-0.100150
9662.000000;-0.100423
9661.000000;-0.100737
9660.000000;-0.101116
9659.000000;-0.101546
9658.000000;-0.101989
9657.000000;-0.102427
9656.000000;-0.102874
9655.000000;-0.103322
9654.000000;-0.103741
9653.000000;-0.104116
9652.000000;-0.104460
9651.000000;-0.104782
9650.000000;-0.105086
9649.000000;-0.105405
9648.000000;-0.105779
9647.000000;-0.106183
9646.000000;-0.106548
9645.000000;-0.106867
9644.000000;-0.107227
9643.000000;-0.107691
9642.000000;-0.108210
9641.000000;-0.108701
9640.000000;-0.109172
9639.000000;-0.109699
9638.000000;-0.110295
9637.000000;-0.110881
9636.000000;-0.111362
9635.000000;-0.111715
9634.000000;-0.111991
9633.000000;-0.112277
9632.000000;-0.112645
9631.000000;-0.113106
9630.000000;-0.113608
9629.000000;-0.114089
9628.000000;-0.114526
9627.000000;-0.114912
9626.000000;-0.115234
9625.000000;-0.115500
9624.000000;-0.115767
9623.000000;-0.116098
9622.000000;-0.116495
9621.000000;-0.116914
9620.000000;-0.117340
9619.000000;-0.117797
9618.000000;-0.118287
9617.000000;-0.118770
9616.000000;-0.119223
9615.000000;-0.119669
9614.000000;-0.120118
9613.000000;-0.120524
9612.000000;-0.120833
9611.000000;-0.121066
9610.000000;-0.121319
9609.000000;-0.121672
9608.000000;-0.122118
9607.000000;-0.122574
9606.000000;-0.122958
9605.000000;-0.123254
9604.000000;-0.123523
9603.000000;-0.123843
9602.000000;-0.124246
9601.000000;-0.124706
9600.000000;-0.125189
9599.000000;-0.125690
9598.000000;-0.126204
9597.000000;-0.126687
9596.000000;-0.127074
9595.000000;-0.127363
9594.000000;-0.127642
9593.000000;-0.128012
9592.000000;-0.128489
9591.000000;-0.128997
9590.000000;-0.129452
9589.000000;-0.129830
9588.000000;-0.130151
9587.000000;-0.130444
9586.000000;-0.130745
9585.000000;-0.131085
9584.000000;-0.131465
9583.000000;-0.131841
9582.000000;-0.132172
9581.000000;-0.132482
9580.000000;-0.132827
9579.000000;-0.133226
9578.000000;-0.133647
9577.000000;-0.134067
9576.000000;-0.134504
9575.000000;-0.134976
9574.000000;-0.135461
9573.000000;-0.135916
9572.000000;-0.136310
9571.000000;-0.136641
9570.000000;-0.136939
9569.000000;-0.137266
9568.000000;-0.137677
9567.000000;-0.138162
9566.000000;-0.138644
9565.000000;-0.139061
9564.000000;-0.139431
9563.000000;-0.139813
9562.000000;-0.140235
9561.000000;-0.140669
9560.000000;-0.141076
9559.000000;-0.141436
9558.000000;-0.141757
9557.000000;-0.142070
9556.000000;-0.142419
9555.000000;-0.142816
9554.000000;-0.143213
9553.000000;-0.143550
9552.000000;-0.143828
9551.000000;-0.144110
9550.000000;-0.144458
9549.000000;-0.144876
9548.000000;-0.145328
9547.000000;-0.145772
9546.000000;-0.146179
9545.000000;-0.146541
9544.000000;-0.146874
9543.000000;-0.147204
9542.000000;-0.147549
9541.000000;-0.147927
9540.000000;-0.148362
9539.000000;-0.148850
9538.000000;-0.149328
9537.000000;-0.149711
9536.000000;-0.150000
9535.000000;-0.150299
9534.000000;-0.150710
9533.000000;-0.151216
9532.000000;-0.151707
9531.000000;-0.152102
9530.000000;-0.152410
9529.000000;-0.152681
9528.000000;-0.152947
9527.000000;-0.153225
9526.000000;-0.153540
9525.000000;-0.153919
9524.000000;-0.154351
9523.000000;-0.154785
9522.000000;-0.155160
9521.000000;-0.155455
9520.000000;-0.155711
9519.000000;-0.156002
9518.000000;-0.156375
9517.000000;-0.156809
9516.000000;-0.157244
9515.000000;-0.157654
9514.000000;-0.158056
9513.000000;-0.158451
9512.000000;-0.158796
9511.000000;-0.159056
9510.000000;-0.159277
9509.000000;-0.159560
9508.000000;-0.159961
9507.000000;-0.160433
9506.000000;-0.160874
9505.000000;-0.161221
9504.000000;-0.161494
9503.000000;-0.161770
9502.000000;-0.162126
9501.000000;-0.162576
9500.000000;-0.163067
9499.000000;-0.163535
9498.000000;-0.163956
9497.000000;-0.164337
9496.000000;-0.164687
9495.000000;-0.165000
9494.000000;-0.165283
9493.000000;-0.165556
9492.000000;-0.165848
9491.000000;-0.166193
9490.000000;-0.166614
9489.000000;-0.167077
9488.000000;-0.167488
9487.000000;-0.167782
9486.000000;-0.168012
9485.000000;-0.168289
9484.000000;-0.168646
9483.000000;-0.169007
9482.000000;-0.169317
9481.000000;-0.169620
9480.000000;-0.169980
9479.000000;-0.170374
9478.000000;-0.170730
9477.000000;-0.171039
9476.000000;-0.171356
9475.000000;-0.171722
9474.000000;-0.172128
9473.000000;-0.172552
9472.000000;-0.172987
9471.000000;-0.173412
9470.000000;-0.173788
9469.000000;-0.174096
9468.000000;-0.174361
9467.000000;-0.174623
9466.000000;-0.174905
9465.000000;-0.175212
9464.000000;-0.175536
9463.000000;-0.175868
9462.000000;-0.176209
9461.000000;-0.176573
9460.000000;-0.176953
9459.000000;-0.177307
9458.000000;-0.177603
9457.000000;-0.177877
9456.000000;-0.178216
9455.000000;-0.178661
9454.000000;-0.179162
9453.000000;-0.179625
9452.000000;-0.179986
9451.000000;-0.180250
9450.000000;-0.180461
9449.000000;-0.180667
9448.000000;-0.180895
9447.000000;-0.181168
9446.000000;-0.181514
9445.000000;-0.181948
9444.000000;-0.182426
9443.000000;-0.182846
9442.000000;-0.183137
9441.000000;-0.183326
9440.000000;-0.183521
9439.000000;-0.183809
9438.000000;-0.184187
9437.000000;-0.184591
9436.000000;-0.184955
9435.000000;-0.185254
9434.000000;-0.185518
9433.000000;-0.185797
9432.000000;-0.186119
9431.000000;-0.186476
9430.000000;-0.186849
9429.000000;-0.187235
9428.000000;-0.187625
9427.000000;-0.188000
9426.000000;-0.188347
9425.000000;-0.188670
9424.000000;-0.188966
9423.000000;-0.189224
9422.000000;-0.189460
9421.000000;-0.189731
9420.000000;-0.190065
9419.000000;-0.190428
9418.000000;-0.190787
9417.000000;-0.191183
9416.000000;-0.191662
9415.000000;-0.192178
9414.000000;-0.192623
9413.000000;-0.192947
9412.000000;-0.193187
9411.000000;-0.193374
9410.000000;-0.193501
9409.000000;-0.193613
9408.000000;-0.193827
9407.000000;-0.194215
9406.000000;-0.194708
9405.000000;-0.195173
9404.000000;-0.195563
9403.000000;-0.195922
9402.000000;-0.196282
9401.000000;-0.196601
9400.000000;-0.196819
9399.000000;-0.196955
9398.000000;-0.197113
9397.000000;-0.197401
9396.000000;-0.197825
9395.000000;-0.198289
9394.000000;-0.198696
9393.000000;-0.199050
9392.000000;-0.199416
9391.000000;-0.199795
9390.000000;-0.200104
9389.000000;-0.200298
9388.000000;-0.200463
9387.000000;-0.200728
9386.000000;-0.201118
9385.000000;-0.201539
9384.000000;-0.201901
9383.000000;-0.202203
9382.000000;-0.202494
9381.000000;-0.202803
9380.000000;-0.203113
9379.000000;-0.203406
9378.000000;-0.203684
9377.000000;-0.203969
9376.000000;-0.204274
9375.000000;-0.204598
9374.000000;-0.204934
9373.000000;-0.205290
9372.000000;-0.205658
9371.000000;-0.206001
9370.000000;-0.206273
9369.000000;-0.206458
9368.000000;-0.206597
9367.000000;-0.206753
9366.000000;-0.206994
9365.000000;-0.207366
9364.000000;-0.207857
9363.000000;-0.208366
9362.000000;-0.208758
9361.000000;-0.208978
9360.000000;-0.209104
9359.000000;-0.209280
9358.000000;-0.209594
9357.000000;-0.210026
9356.000000;-0.210484
9355.000000;-0.210859
9354.000000;-0.211104
9353.000000;-0.211277
9352.000000;-0.211483
9351.000000;-0.211757
9350.000000;-0.212025
9349.000000;-0.212216
9348.000000;-0.212381
9347.000000;-0.212633
9346.000000;-0.213013
9345.000000;-0.213445
9344.000000;-0.213837
9343.000000;-0.214164
9342.000000;-0.214443
9341.000000;-0.214685
9340.000000;-0.214905
9339.000000;-0.215143
9338.000000;-0.215434
9337.000000;-0.215761
9336.000000;-0.216073
9335.000000;-0.216347
9334.000000;-0.216611
9333.000000;-0.216892
9332.000000;-0.217180
9331.000000;-0.217453
9330.000000;-0.217726
9329.000000;-0.218042
9328.000000;-0.218424
9327.000000;-0.218831
9326.000000;-0.219189
9325.000000;-0.219454
9324.000000;-0.219644
9323.000000;-0.219814
9322.000000;-0.220019
9321.000000;-0.220279
9320.000000;-0.220576
9319.000000;-0.220870
9318.000000;-0.221146
9317.000000;-0.221422
9316.000000;-0.221712
9315.000000;-0.221994
9314.000000;-0.222239
9313.000000;-0.222469
9312.000000;-0.222744
9311.000000;-0.223084
9310.000000;-0.223430
9309.000000;-0.223707
9308.000000;-0.223913
9307.000000;-0.224120
9306.000000;-0.224391
9305.000000;-0.224712
9304.000000;-0.225026
9303.000000;-0.225306
9302.000000;-0.225581
9301.000000;-0.225883
9300.000000;-0.226193
9299.000000;-0.226445
9298.000000;-0.226614
9297.000000;-0.226770
9296.000000;-0.227025
9295.000000;-0.227418
9294.000000;-0.227865
9293.000000;-0.228228
9292.000000;-0.228431
9291.000000;-0.228519
9290.000000;-0.228616
9289.000000;-0.228830
9288.000000;-0.229188
9287.000000;-0.229622
9286.000000;-0.230038
9285.000000;-0.230384
9284.000000;-0.230679
9283.000000;-0.230975
9282.000000;-0.231302
9281.000000;-0.231641
9280.000000;-0.231939
9279.000000;-0.232165
9278.000000;-0.232340
9277.000000;-0.232532
9276.000000;-0.232795
9275.000000;-0.233126
9274.000000;-0.233478
9273.000000;-0.233804
9272.000000;-0.234077
9271.000000;-0.234294
9270.000000;-0.234478
9269.000000;-0.234670
9268.000000;-0.234890
9267.000000;-0.235125
9266.000000;-0.235361
9265.000000;-0.235613
9264.000000;-0.235897
9263.000000;-0.236184
9262.000000;-0.236420
9261.000000;-0.236603
9260.000000;-0.236782
9259.000000;-0.236996
9258.000000;-0.237227
9257.000000;-0.237454
9256.000000;-0.237700
9255.000000;-0.238012
9254.000000;-0.238397
9253.000000;-0.238805
9252.000000;-0.239163
9251.000000;-0.239426
9250.000000;-0.239603
9249.000000;-0.239750
9248.000000;-0.239926
9247.000000;-0.240143
9246.000000;-0.240363
9245.000000;-0.240554
9244.000000;-0.240726
9243.000000;-0.240914
9242.000000;-0.241146
9241.000000;-0.241429
9240.000000;-0.241749
9239.000000;-0.242073
9238.000000;-0.242356
9237.000000;-0.242588
9236.000000;-0.242812
9235.000000;-0.243091
9234.000000;-0.243452
9233.000000;-0.243866
9232.000000;-0.244262
9231.000000;-0.244565
9230.000000;-0.244755
9229.000000;-0.244884
9228.000000;-0.245035
9227.000000;-0.245250
9226.000000;-0.245512
9225.000000;-0.245793
9224.000000;-0.246091
9223.000000;-0.246405
9222.000000;-0.246698
9221.000000;-0.246927
9220.000000;-0.247094
9219.000000;-0.247254
9218.000000;-0.247462
9217.000000;-0.247726
9216.000000;-0.247988
9215.000000;-0.248173
9214.000000;-0.248267
9213.000000;-0.248342
9212.000000;-0.248508
9211.000000;-0.248810
9210.000000;-0.249196
9209.000000;-0.249579
9208.000000;-0.249904
9207.000000;-0.250158
9206.000000;-0.250342
9205.000000;-0.250470
9204.000000;-0.250585
9203.000000;-0.250728
9202.000000;-0.250912
9201.000000;-0.251115
9200.000000;-0.251318
9199.000000;-0.251530
9198.000000;-0.251785
9197.000000;-0.252113
9196.000000;-0.252507
9195.000000;-0.252908
9194.000000;-0.253231
9193.000000;-0.253424
9192.000000;-0.253501
9191.000000;-0.253546
9190.000000;-0.253669
9189.000000;-0.253944
9188.000000;-0.254346
9187.000000;-0.254755
9186.000000;-0.255052
9185.000000;-0.255221
9184.000000;-0.255347
9183.000000;-0.255495
9182.000000;-0.255660
9181.000000;-0.255815
9180.000000;-0.255982
9179.000000;-0.256209
9178.000000;-0.256506
9177.000000;-0.256837
9176.000000;-0.257154
9175.000000;-0.257421
9174.000000;-0.257620
9173.000000;-0.257766
9172.000000;-0.257902
9171.000000;-0.258062
9170.000000;-0.258241
9169.000000;-0.258418
9168.000000;-0.258598
9167.000000;-0.258801
9166.000000;-0.259027
9165.000000;-0.259261
9164.000000;-0.259507
9163.000000;-0.259785
9162.000000;-0.260094
9161.000000;-0.260400
9160.000000;-0.260660
9159.000000;-0.260865
9158.000000;-0.261036
9157.000000;-0.261210
9156.000000;-0.261420
9155.000000;-0.261671
9154.000000;-0.261928
9153.000000;-0.262140
9152.000000;-0.262291
9151.000000;-0.262411
9150.000000;-0.262543
9149.000000;-0.262713
9148.000000;-0.262912
9147.000000;-0.263120
9146.000000;-0.263326
9145.000000;-0.263552
9144.000000;-0.263834
9143.000000;-0.264168
9142.000000;-0.264496
9141.000000;-0.264760
9140.000000;-0.264953
9139.000000;-0.265110
9138.000000;-0.265262
9137.000000;-0.265415
9136.000000;-0.265581
9135.000000;-0.265776
9134.000000;-0.265992
9133.000000;-0.266197
9132.000000;-0.266377
9131.000000;-0.266562
9130.000000;-0.266788
9129.000000;-0.267033
9128.000000;-0.267232
9127.000000;-0.267347
9126.000000;-0.267409
9125.000000;-0.267504
9124.000000;-0.267694
9123.000000;-0.267965
9122.000000;-0.268238
9121.000000;-0.268452
9120.000000;-0.268621
9119.000000;-0.268811
9118.000000;-0.269052
9117.000000;-0.269318
9116.000000;-0.269577
9115.000000;-0.269839
9114.000000;-0.270126
9113.000000;-0.270418
9112.000000;-0.270667
9111.000000;-0.270852
9110.000000;-0.271001
9109.000000;-0.271137
9108.000000;-0.271250
9107.000000;-0.271334
9106.000000;-0.271420
9105.000000;-0.271563
9104.000000;-0.271790
9103.000000;-0.272089
9102.000000;-0.272435
9101.000000;-0.272790
9100.000000;-0.273093
9099.000000;-0.273293
9098.000000;-0.273400
9097.000000;-0.273487
9096.000000;-0.273610
9095.000000;-0.273751
9094.000000;-0.273869
9093.000000;-0.273971
9092.000000;-0.274114
9091.000000;-0.274338
9090.000000;-0.274627
9089.000000;-0.274942
9088.000000;-0.275242
9087.000000;-0.275481
9086.000000;-0.275622
9085.000000;-0.275673
9084.000000;-0.275704
9083.000000;-0.275802
9082.000000;-0.276012
9081.000000;-0.276310
9080.000000;-0.276627
9079.000000;-0.276900
9078.000000;-0.277113
9077.000000;-0.277295
9076.000000;-0.277465
9075.000000;-0.277599
9074.000000;-0.277670
9073.000000;-0.277708
9072.000000;-0.277789
9071.000000;-0.277955
9070.000000;-0.278184
9069.000000;-0.278440
9068.000000;-0.278718
9067.000000;-0.279007
9066.000000;-0.279268
9065.000000;-0.279470
9064.000000;-0.279628
9063.000000;-0.279775
9062.000000;-0.279916
9061.000000;-0.280052
9060.000000;-0.280227
9059.000000;-0.280486
9058.000000;-0.280798
9057.000000;-0.281063
9056.000000;-0.281223
9055.000000;-0.281327
9054.000000;-0.281458
9053.000000;-0.281631
9052.000000;-0.281799
9051.000000;-0.281930
9050.000000;-0.282050
9049.000000;-0.282199
9048.000000;-0.282381
9047.000000;-0.282570
9046.000000;-0.282749
9045.000000;-0.282930
9044.000000;-0.283137
9043.000000;-0.283371
9042.000000;-0.283607
9041.000000;-0.283815
9040.000000;-0.283985
9039.000000;-0.284133
9038.000000;-0.284279
9037.000000;-0.284420
9036.000000;-0.284532
9035.000000;-0.284616
9034.000000;-0.284723
9033.000000;-0.284918
9032.000000;-0.285205
9031.000000;-0.285497
9030.000000;-0.285693
9029.000000;-0.285778
9028.000000;-0.285830
9027.000000;-0.285936
9026.000000;-0.286115
9025.000000;-0.286334
9024.000000;-0.286562
9023.000000;-0.286798
9022.000000;-0.287045
9021.000000;-0.287283
9020.000000;-0.287477
9019.000000;-0.287596
9018.000000;-0.287658
9017.000000;-0.287736
9016.000000;-0.287890
9015.000000;-0.288099
9014.000000;-0.288281
9013.000000;-0.288393
9012.000000;-0.288490
9011.000000;-0.288650
9010.000000;-0.288881
9009.000000;-0.289121
9008.000000;-0.289327
9007.000000;-0.289504
9006.000000;-0.289661
9005.000000;-0.289786
9004.000000;-0.289879
9003.000000;-0.289991
9002.000000;-0.290170
9001.000000;-0.290404
9000.000000;-0.290622
8999.000000;-0.290762
8998.000000;-0.290833
8997.000000;-0.290907
8996.000000;-0.291061
8995.000000;-0.291307
8994.000000;-0.291588
8993.000000;-0.291835
8992.000000;-0.292034
8991.000000;-0.292223
8990.000000;-0.292415
8989.000000;-0.292569
8988.000000;-0.292655
8987.000000;-0.292714
8986.000000;-0.292820
8985.000000;-0.292987
8984.000000;-0.293156
8983.000000;-0.293287
8982.000000;-0.293421
8981.000000;-0.293616
8980.000000;-0.293854
8979.000000;-0.294052
8978.000000;-0.294159
8977.000000;-0.294208
8976.000000;-0.294269
8975.000000;-0.294382
8974.000000;-0.294537
8973.000000;-0.294709
8972.000000;-0.294884
8971.000000;-0.295064
8970.000000;-0.295253
8969.000000;-0.295429
8968.000000;-0.295551
8967.000000;-0.295603
8966.000000;-0.295633
8965.000000;-0.295717
8964.000000;-0.295887
8963.000000;-0.296112
8962.000000;-0.296346
8961.000000;-0.296574
8960.000000;-0.296786
8959.000000;-0.296943
8958.000000;-0.297015
8957.000000;-0.297037
8956.000000;-0.297094
8955.000000;-0.297235
8954.000000;-0.297429
8953.000000;-0.297610
8952.000000;-0.297747
8951.000000;-0.297858
8950.000000;-0.297967
8949.000000;-0.298091
8948.000000;-0.298253
8947.000000;-0.298478
8946.000000;-0.298750
8945.000000;-0.298975
8944.000000;-0.299046
8943.000000;-0.298962
8942.000000;-0.298872
8941.000000;-0.298955
8940.000000;-0.299241
8939.000000;-0.299577
8938.000000;-0.299790
8937.000000;-0.299848
8936.000000;-0.299858
8935.000000;-0.299934
8934.000000;-0.300096
8933.000000;-0.300294
8932.000000;-0.300483
8931.000000;-0.300662
8930.000000;-0.300863
8929.000000;-0.301092
8928.000000;-0.301291
8927.000000;-0.301374
8926.000000;-0.301326
8925.000000;-0.301254
8924.000000;-0.301307
8923.000000;-0.301531
8922.000000;-0.301827
8921.000000;-0.302048
8920.000000;-0.302130
8919.000000;-0.302127
8918.000000;-0.302140
8917.000000;-0.302230
8916.000000;-0.302372
8915.000000;-0.302493
8914.000000;-0.302551
8913.000000;-0.302561
8912.000000;-0.302569
8911.000000;-0.302599
8910.000000;-0.302663
8909.000000;-0.302779
8908.000000;-0.302963
8907.000000;-0.303195
8906.000000;-0.303428
8905.000000;-0.303634
8904.000000;-0.303816
8903.000000;-0.303975
8902.000000;-0.304081
8901.000000;-0.304109
8900.000000;-0.304076
8899.000000;-0.304049
8898.000000;-0.304111
8897.000000;-0.304303
8896.000000;-0.304585
8895.000000;-0.304855
8894.000000;-0.305036
8893.000000;-0.305144
8892.000000;-0.305253
8891.000000;-0.305409
8890.000000;-0.305582
8889.000000;-0.305692
8888.000000;-0.305666
8887.000000;-0.305485
8886.000000;-0.305227
8885.000000;-0.305064
8884.000000;-0.305148
8883.000000;-0.305466
8882.000000;-0.305839
8881.000000;-0.306095
8880.000000;-0.306215
8879.000000;-0.306310
8878.000000;-0.306470
8877.000000;-0.306686
8876.000000;-0.306889
8875.000000;-0.307027
8874.000000;-0.307093
8873.000000;-0.307106
8872.000000;-0.307096
8871.000000;-0.307095
8870.000000;-0.307115
8869.000000;-0.307137
8868.000000;-0.307133
8867.000000;-0.307106
8866.000000;-0.307111
8865.000000;-0.307208
8864.000000;-0.307386
8863.000000;-0.307555
8862.000000;-0.307637
8861.000000;-0.307654
8860.000000;-0.307696
8859.000000;-0.307808
8858.000000;-0.307949
8857.000000;-0.308070
8856.000000;-0.308182
8855.000000;-0.308300
8854.000000;-0.308387
8853.000000;-0.308383
8852.000000;-0.308300
8851.000000;-0.308231
8850.000000;-0.308242
8849.000000;-0.308317
8848.000000;-0.308406
8847.000000;-0.308499
8846.000000;-0.308607
8845.000000;-0.308694
8844.000000;-0.308690
8843.000000;-0.308594
8842.000000;-0.308515
8841.000000;-0.308564
8840.000000;-0.308729
8839.000000;-0.308894
8838.000000;-0.308975
8837.000000;-0.308990
8836.000000;-0.308997
8835.000000;-0.309016
8834.000000;-0.309033
8833.000000;-0.309046
8832.000000;-0.309055
8831.000000;-0.309042
8830.000000;-0.309003
8829.000000;-0.308972
8828.000000;-0.308978
8827.000000;-0.308979
8826.000000;-0.308898
8825.000000;-0.308718
8824.000000;-0.308508
8823.000000;-0.308351
8822.000000;-0.308271
8821.000000;-0.308237
8820.000000;-0.308201
8819.000000;-0.308142
8818.000000;-0.308083
8817.000000;-0.308059
8816.000000;-0.308035
8815.000000;-0.307879
8814.000000;-0.307500
8813.000000;-0.307013
8812.000000;-0.306696
8811.000000;-0.306732
8810.000000;-0.307047
8809.000000;-0.307411
8808.000000;-0.307671
8807.000000;-0.307808
8806.000000;-0.307837
8805.000000;-0.307739
8804.000000;-0.307513
8803.000000;-0.307245
8802.000000;-0.307068
8801.000000;-0.307069
8800.000000;-0.307227
8799.000000;-0.307432
8798.000000;-0.307558
8797.000000;-0.307550
8796.000000;-0.307436
8795.000000;-0.307284
8794.000000;-0.307132
8793.000000;-0.306982
8792.000000;-0.306827
8791.000000;-0.306681
8790.000000;-0.306570
8789.000000;-0.306502
8788.000000;-0.306463
8787.000000;-0.306416
8786.000000;-0.306324
8785.000000;-0.306165
8784.000000;-0.305951
8783.000000;-0.305722
8782.000000;-0.305542
8781.000000;-0.305452
8780.000000;-0.305433
8779.000000;-0.305408
8778.000000;-0.305318
8777.000000;-0.305182
8776.000000;-0.305062
8775.000000;-0.304975
8774.000000;-0.304876
8773.000000;-0.304721
8772.000000;-0.304527
8771.000000;-0.304342
8770.000000;-0.304192
8769.000000;-0.304050
8768.000000;-0.303869
8767.000000;-0.303615
8766.000000;-0.303319
8765.000000;-0.303075
8764.000000;-0.302965
8763.000000;-0.302958
8762.000000;-0.302922
8761.000000;-0.302757
8760.000000;-0.302492
8759.000000;-0.302234
8758.000000;-0.302048
8757.000000;-0.301925
8756.000000;-0.301836
8755.000000;-0.301773
8754.000000;-0.301729
8753.000000;-0.301683
8752.000000;-0.301611
8751.000000;-0.301509
8750.000000;-0.301384
8749.000000;-0.301235
8748.000000;-0.301049
8747.000000;-0.300825
8746.000000;-0.300584
8745.000000;-0.300367
8744.000000;-0.300204
8743.000000;-0.300079
8742.000000;-0.299931
8741.000000;-0.299701
8740.000000;-0.299380
8739.000000;-0.299032
8738.000000;-0.298756
8737.000000;-0.298619
8736.000000;-0.298601
8735.000000;-0.298600
8734.000000;-0.298515
8733.000000;-0.298328
8732.000000;-0.298099
8731.000000;-0.297888
8730.000000;-0.297705
8729.000000;-0.297532
8728.000000;-0.297363
8727.000000;-0.297212
8726.000000;-0.297085
8725.000000;-0.296968
8724.000000;-0.296827
8723.000000;-0.296627
8722.000000;-0.296380
8721.000000;-0.296156
8720.000000;-0.296023
8719.000000;-0.295967
8718.000000;-0.295907
8717.000000;-0.295786
8716.000000;-0.295628
8715.000000;-0.295486
8714.000000;-0.295380
8713.000000;-0.295302
8712.000000;-0.295250
8711.000000;-0.295221
8710.000000;-0.295188
8709.000000;-0.295115
8708.000000;-0.294984
8707.000000;-0.294797
8706.000000;-0.294575
8705.000000;-0.294363
8704.000000;-0.294223
8703.000000;-0.294183
8702.000000;-0.294192
8701.000000;-0.294157
8700.000000;-0.294014
8699.000000;-0.293767
8698.000000;-0.293485
8697.000000;-0.293260
8696.000000;-0.293159
8695.000000;-0.293174
8694.000000;-0.293242
8693.000000;-0.293301
8692.000000;-0.293324
8691.000000;-0.293295
8690.000000;-0.293198
8689.000000;-0.293041
8688.000000;-0.292871
8687.000000;-0.292730
8686.000000;-0.292633
8685.000000;-0.292591
8684.000000;-0.292615
8683.000000;-0.292668
8682.000000;-0.292656
8681.000000;-0.292533
8680.000000;-0.292373
8679.000000;-0.292283
8678.000000;-0.292266
8677.000000;-0.292232
8676.000000;-0.292149
8675.000000;-0.292098
8674.000000;-0.292168
8673.000000;-0.292334
8672.000000;-0.292491
8671.000000;-0.292561
8670.000000;-0.292543
8669.000000;-0.292477
8668.000000;-0.292391
8667.000000;-0.292286
8666.000000;-0.292155
8665.000000;-0.292023
8664.000000;-0.291939
8663.000000;-0.291945
8662.000000;-0.292028
8661.000000;-0.292137
8660.000000;-0.292233
8659.000000;-0.292306
8658.000000;-0.292356
8657.000000;-0.292381
8656.000000;-0.292384
8655.000000;-0.292381
8654.000000;-0.292389
8653.000000;-0.292427
8652.000000;-0.292509
8651.000000;-0.292633
8650.000000;-0.292763
8649.000000;-0.292857
8648.000000;-0.292911
8647.000000;-0.292953
8646.000000;-0.293005
8645.000000;-0.293066
8644.000000;-0.293136
8643.000000;-0.293234
8642.000000;-0.293363
8641.000000;-0.293482
8640.000000;-0.293538
8639.000000;-0.293530
8638.000000;-0.293525
8637.000000;-0.293606
8636.000000;-0.293790
8635.000000;-0.294003
8634.000000;-0.294148
8633.000000;-0.294200
8632.000000;-0.294215
8631.000000;-0.294257
8630.000000;-0.294323
8629.000000;-0.294379
8628.000000;-0.294427
8627.000000;-0.294506
8626.000000;-0.294634
8625.000000;-0.294781
8624.000000;-0.294894
8623.000000;-0.294953
8622.000000;-0.294973
8621.000000;-0.294991
8620.000000;-0.295042
8619.000000;-0.295139
8618.000000;-0.295275
8617.000000;-0.295433
8616.000000;-0.295608
8615.000000;-0.295787
8614.000000;-0.295935
8613.000000;-0.296016
8612.000000;-0.296037
8611.000000;-0.296048
8610.000000;-0.296107
8609.000000;-0.296243
8608.000000;-0.296439
8607.000000;-0.296652
8606.000000;-0.296837
8605.000000;-0.296980
8604.000000;-0.297107
8603.000000;-0.297239
8602.000000;-0.297351
8601.000000;-0.297402
8600.000000;-0.297394
8599.000000;-0.297374
8598.000000;-0.297396
8597.000000;-0.297482
8596.000000;-0.297632
8595.000000;-0.297836
8594.000000;-0.298068
8593.000000;-0.298290
8592.000000;-0.298480
8591.000000;-0.298638
8590.000000;-0.298770
8589.000000;-0.298877
8588.000000;-0.298969
8587.000000;-0.299065
8586.000000;-0.299177
8585.000000;-0.299305
8584.000000;-0.299443
8583.000000;-0.299588
8582.000000;-0.299732
8581.000000;-0.299857
8580.000000;-0.299955
8579.000000;-0.300040
8578.000000;-0.300149
8577.000000;-0.300308
8576.000000;-0.300523
8575.000000;-0.300766
8574.000000;-0.300984
8573.000000;-0.301132
8572.000000;-0.301199
8571.000000;-0.301219
8570.000000;-0.301244
8569.000000;-0.301319
8568.000000;-0.301454
8567.000000;-0.301623
8566.000000;-0.301773
8565.000000;-0.301878
8564.000000;-0.301966
8563.000000;-0.302092
8562.000000;-0.302267
8561.000000;-0.302442
8560.000000;-0.302565
8559.000000;-0.302642
8558.000000;-0.302726
8557.000000;-0.302850
8556.000000;-0.302997
8555.000000;-0.303139
8554.000000;-0.303280
8553.000000;-0.303449
8552.000000;-0.303658
8551.000000;-0.303874
8550.000000;-0.304057
8549.000000;-0.304207
8548.000000;-0.304352
8547.000000;-0.304504
8546.000000;-0.304639
8545.000000;-0.304730
8544.000000;-0.304791
8543.000000;-0.304866
8542.000000;-0.304994
8541.000000;-0.305181
8540.000000;-0.305406
8539.000000;-0.305637
8538.000000;-0.305849
8537.000000;-0.306030
8536.000000;-0.306181
8535.000000;-0.306298
8534.000000;-0.306387
8533.000000;-0.306473
8532.000000;-0.306588
8531.000000;-0.306729
8530.000000;-0.306865
8529.000000;-0.306984
8528.000000;-0.307110
8527.000000;-0.307258
8526.000000;-0.307400
8525.000000;-0.307505
8524.000000;-0.307596
8523.000000;-0.307720
8522.000000;-0.307884
8521.000000;-0.308050
8520.000000;-0.308187
8519.000000;-0.308309
8518.000000;-0.308445
8517.000000;-0.308605
8516.000000;-0.308775
8515.000000;-0.308930
8514.000000;-0.309050
8513.000000;-0.309147
8512.000000;-0.309271
8511.000000;-0.309454
8510.000000;-0.309660
8509.000000;-0.309822
8508.000000;-0.309924
8507.000000;-0.310028
8506.000000;-0.310192
8505.000000;-0.310408
8504.000000;-0.310617
8503.000000;-0.310770
8502.000000;-0.310862
8501.000000;-0.310920
8500.000000;-0.310983
8499.000000;-0.311076
8498.000000;-0.311197
8497.000000;-0.311326
8496.000000;-0.311451
8495.000000;-0.311578
8494.000000;-0.311711
8493.000000;-0.311855
8492.000000;-0.312024
8491.000000;-0.312234
8490.000000;-0.312470
8489.000000;-0.312677
8488.000000;-0.312813
8487.000000;-0.312895
8486.000000;-0.312976
8485.000000;-0.313086
8484.000000;-0.313210
8483.000000;-0.313326
8482.000000;-0.313433
8481.000000;-0.313551
8480.000000;-0.313696
8479.000000;-0.313862
8478.000000;-0.314017
8477.000000;-0.314132
8476.000000;-0.314202
8475.000000;-0.314260
8474.000000;-0.314354
8473.000000;-0.314514
8472.000000;-0.314732
8471.000000;-0.314956
8470.000000;-0.315137
8469.000000;-0.315271
8468.000000;-0.315395
8467.000000;-0.315535
8466.000000;-0.315677
8465.000000;-0.315792
8464.000000;-0.315894
8463.000000;-0.316016
8462.000000;-0.316156
8461.000000;-0.316277
8460.000000;-0.316369
8459.000000;-0.316473
8458.000000;-0.316619
8457.000000;-0.316789
8456.000000;-0.316942
8455.000000;-0.317072
8454.000000;-0.317198
8453.000000;-0.317326
8452.000000;-0.317432
8451.000000;-0.317500
8450.000000;-0.317551
8449.000000;-0.317631
8448.000000;-0.317760
8447.000000;-0.317912
8446.000000;-0.318039
8445.000000;-0.318122
8444.000000;-0.318189
8443.000000;-0.318285
8442.000000;-0.318419
8441.000000;-0.318561
8440.000000;-0.318694
8439.000000;-0.318839
8438.000000;-0.319008
8437.000000;-0.319182
8436.000000;-0.319324
8435.000000;-0.319422
8434.000000;-0.319497
8433.000000;-0.319576
8432.000000;-0.319680
8431.000000;-0.319818
8430.000000;-0.319982
8429.000000;-0.320150
8428.000000;-0.320314
8427.000000;-0.320485
8426.000000;-0.320667
8425.000000;-0.320839
8424.000000;-0.320966
8423.000000;-0.321039
8422.000000;-0.321077
8421.000000;-0.321117
8420.000000;-0.321186
8419.000000;-0.321291
8418.000000;-0.321416
8417.000000;-0.321539
8416.000000;-0.321658
8415.000000;-0.321795
8414.000000;-0.321957
8413.000000;-0.322123
8412.000000;-0.322265
8411.000000;-0.322388
8410.000000;-0.322518
8409.000000;-0.322661
8408.000000;-0.322804
8407.000000;-0.322944
8406.000000;-0.323093
8405.000000;-0.323257
8404.000000;-0.323420
8403.000000;-0.323575
8402.000000;-0.323721
8401.000000;-0.323856
8400.000000;-0.323971
8399.000000;-0.324072
8398.000000;-0.324177
8397.000000;-0.324298
8396.000000;-0.324420
8395.000000;-0.324530
8394.000000;-0.324635
8393.000000;-0.324742
8392.000000;-0.324845
8391.000000;-0.324940
8390.000000;-0.325043
8389.000000;-0.325181
8388.000000;-0.325355
8387.000000;-0.325545
8386.000000;-0.325731
8385.000000;-0.325908
8384.000000;-0.326071
8383.000000;-0.326203
8382.000000;-0.326304
8381.000000;-0.326409
8380.000000;-0.326562
8379.000000;-0.326780
8378.000000;-0.327020
8377.000000;-0.327217
8376.000000;-0.327342
8375.000000;-0.327422
8374.000000;-0.327504
8373.000000;-0.327602
8372.000000;-0.327688
8371.000000;-0.327748
8370.000000;-0.327811
8369.000000;-0.327930
8368.000000;-0.328124
8367.000000;-0.328356
8366.000000;-0.328561
8365.000000;-0.328699
8364.000000;-0.328774
8363.000000;-0.328824
8362.000000;-0.328892
8361.000000;-0.328999
8360.000000;-0.329153
8359.000000;-0.329351
8358.000000;-0.329585
8357.000000;-0.329827
8356.000000;-0.330043
8355.000000;-0.330211
8354.000000;-0.330340
8353.000000;-0.330457
8352.000000;-0.330584
8351.000000;-0.330725
8350.000000;-0.330870
8349.000000;-0.331009
8348.000000;-0.331142
8347.000000;-0.331285
8346.000000;-0.331461
8345.000000;-0.331664
8344.000000;-0.331856
8343.000000;-0.331999
8342.000000;-0.332092
8341.000000;-0.332178
8340.000000;-0.332303
8339.000000;-0.332476
8338.000000;-0.332674
8337.000000;-0.332868
8336.000000;-0.333035
8335.000000;-0.333173
8334.000000;-0.333308
8333.000000;-0.333482
8332.000000;-0.333708
8331.000000;-0.333952
8330.000000;-0.334164
8329.000000;-0.334328
8328.000000;-0.334470
8327.000000;-0.334611
8326.000000;-0.334737
8325.000000;-0.334826
8324.000000;-0.334889
8323.000000;-0.334968
8322.000000;-0.335098
8321.000000;-0.335281
8320.000000;-0.335510
8319.000000;-0.335776
8318.000000;-0.336050
8317.000000;-0.336281
8316.000000;-0.336426
8315.000000;-0.336498
8314.000000;-0.336563
8313.000000;-0.336676
8312.000000;-0.336843
8311.000000;-0.337031
8310.000000;-0.337203
8309.000000;-0.337339
8308.000000;-0.337437
8307.000000;-0.337519
8306.000000;-0.337632
8305.000000;-0.337819
8304.000000;-0.338085
8303.000000;-0.338386
8302.000000;-0.338662
8301.000000;-0.338874
8300.000000;-0.339031
8299.000000;-0.339177
8298.000000;-0.339349
8297.000000;-0.339540
8296.000000;-0.339710
8295.000000;-0.339831
8294.000000;-0.339922
8293.000000;-0.340030
8292.000000;-0.340178
8291.000000;-0.340354
8290.000000;-0.340529
8289.000000;-0.340685
8288.000000;-0.340830
8287.000000;-0.340984
8286.000000;-0.341169
8285.000000;-0.341386
8284.000000;-0.341605
8283.000000;-0.341791
8282.000000;-0.341930
8281.000000;-0.342049
8280.000000;-0.342182
8279.000000;-0.342346
8278.000000;-0.342534
8277.000000;-0.342716
8276.000000;-0.342863
8275.000000;-0.342969
8274.000000;-0.343066
8273.000000;-0.343199
8272.000000;-0.343384
8271.000000;-0.343598
8270.000000;-0.343814
8269.000000;-0.344033
8268.000000;-0.344273
8267.000000;-0.344532
8266.000000;-0.344770
8265.000000;-0.344936
8264.000000;-0.345013
8263.000000;-0.345045
8262.000000;-0.345105
8261.000000;-0.345244
8260.000000;-0.345449
8259.000000;-0.345682
8258.000000;-0.345913
8257.000000;-0.346118
8256.000000;-0.346268
8255.000000;-0.346348
8254.000000;-0.346406
8253.000000;-0.346516
8252.000000;-0.346699
8251.000000;-0.346910
8250.000000;-0.347109
8249.000000;-0.347315
8248.000000;-0.347552
8247.000000;-0.347792
8246.000000;-0.347986
8245.000000;-0.348139
8244.000000;-0.348300
8243.000000;-0.348489
8242.000000;-0.348681
8241.000000;-0.348855
8240.000000;-0.349025
8239.000000;-0.349205
8238.000000;-0.349395
8237.000000;-0.349590
8236.000000;-0.349790
8235.000000;-0.349985
8234.000000;-0.350152
8233.000000;-0.350284
8232.000000;-0.350400
8231.000000;-0.350522
8230.000000;-0.350658
8229.000000;-0.350813
8228.000000;-0.350997
8227.000000;-0.351205
8226.000000;-0.351412
8225.000000;-0.351605
8224.000000;-0.351797
8223.000000;-0.352010
8222.000000;-0.352237
8221.000000;-0.352451
8220.000000;-0.352633
8219.000000;-0.352785
8218.000000;-0.352918
8217.000000;-0.353046
8216.000000;-0.353175
8215.000000;-0.353308
8214.000000;-0.353447
8213.000000;-0.353602
8212.000000;-0.353789
8211.000000;-0.354012
8210.000000;-0.354257
8209.000000;-0.354506
8208.000000;-0.354743
8207.000000;-0.354944
8206.000000;-0.355091
8205.000000;-0.355199
8204.000000;-0.355322
8203.000000;-0.355505
8202.000000;-0.355739
8201.000000;-0.355971
8200.000000;-0.356154
8199.000000;-0.356287
8198.000000;-0.356406
8197.000000;-0.356551
8196.000000;-0.356739
8195.000000;-0.356961
8194.000000;-0.357187
8193.000000;-0.357390
8192.000000;-0.357548
8191.000000;-0.357658
8190.000000;-0.357737
8189.000000;-0.357817
8188.000000;-0.357926
8187.000000;-0.358068
8186.000000;-0.358235
8185.000000;-0.358423
8184.000000;-0.358638
8183.000000;-0.358874
8182.000000;-0.359100
8181.000000;-0.359286
8180.000000;-0.359439
8179.000000;-0.359600
8178.000000;-0.359805
8177.000000;-0.360042
8176.000000;-0.360255
8175.000000;-0.360398
8174.000000;-0.360485
8173.000000;-0.360585
8172.000000;-0.360746
8171.000000;-0.360951
8170.000000;-0.361154
8169.000000;-0.361340
8168.000000;-0.361526
8167.000000;-0.361725
8166.000000;-0.361913
8165.000000;-0.362068
8164.000000;-0.362200
8163.000000;-0.362337
8162.000000;-0.362491
8161.000000;-0.362651
8160.000000;-0.362806
8159.000000;-0.362961
8158.000000;-0.363128
8157.000000;-0.363306
8156.000000;-0.363479
8155.000000;-0.363636
8154.000000;-0.363791
8153.000000;-0.363973
8152.000000;-0.364191
8151.000000;-0.364411
8150.000000;-0.364598
8149.000000;-0.364752
8148.000000;-0.364907
8147.000000;-0.365084
8146.000000;-0.365277
8145.000000;-0.365476
8144.000000;-0.365678
8143.000000;-0.365879
8142.000000;-0.366070
8141.000000;-0.366246
8140.000000;-0.366404
8139.000000;-0.366539
8138.000000;-0.366654
8137.000000;-0.366779
8136.000000;-0.366947
8135.000000;-0.367164
8134.000000;-0.367396
8133.000000;-0.367613
8132.000000;-0.367805
8131.000000;-0.367962
8130.000000;-0.368076
8129.000000;-0.368166
8128.000000;-0.368287
8127.000000;-0.368475
8126.000000;-0.368710
8125.000000;-0.368945
8124.000000;-0.369153
8123.000000;-0.369339
8122.000000;-0.369511
8121.000000;-0.369678
8120.000000;-0.369855
8119.000000;-0.370050
8118.000000;-0.370249
8117.000000;-0.370435
8116.000000;-0.370612
8115.000000;-0.370800
8114.000000;-0.370998
8113.000000;-0.371192
8112.000000;-0.371375
8111.000000;-0.371559
8110.000000;-0.371743
8109.000000;-0.371912
8108.000000;-0.372054
8107.000000;-0.372181
8106.000000;-0.372313
8105.000000;-0.372456
8104.000000;-0.372608
8103.000000;-0.372773
8102.000000;-0.372951
8101.000000;-0.373143
8100.000000;-0.373344
8099.000000;-0.373537
8098.000000;-0.373708
8097.000000;-0.373850
8096.000000;-0.373986
8095.000000;-0.374148
8094.000000;-0.374347
8093.000000;-0.374554
8092.000000;-0.374735
8091.000000;-0.374887
8090.000000;-0.375050
8089.000000;-0.375263
8088.000000;-0.375519
8087.000000;-0.375770
8086.000000;-0.375975
8085.000000;-0.376141
8084.000000;-0.376314
8083.000000;-0.376521
8082.000000;-0.376736
8081.000000;-0.376922
8080.000000;-0.377075
8079.000000;-0.377227
8078.000000;-0.377399
8077.000000;-0.377571
8076.000000;-0.377717
8075.000000;-0.377843
8074.000000;-0.377984
8073.000000;-0.378165
8072.000000;-0.378372
8071.000000;-0.378570
8070.000000;-0.378748
8069.000000;-0.378926
8068.000000;-0.379131
8067.000000;-0.379364
8066.000000;-0.379599
8065.000000;-0.379817
8064.000000;-0.380022
8063.000000;-0.380221
8062.000000;-0.380408
8061.000000;-0.380563
8060.000000;-0.380690
8059.000000;-0.380822
8058.000000;-0.380988
8057.000000;-0.381185
8056.000000;-0.381384
8055.000000;-0.381564
8054.000000;-0.381737
8053.000000;-0.381928
8052.000000;-0.382143
8051.000000;-0.382363
8050.000000;-0.382563
8049.000000;-0.382738
8048.000000;-0.382906
8047.000000;-0.383092
8046.000000;-0.383303
8045.000000;-0.383523
8044.000000;-0.383721
8043.000000;-0.383875
8042.000000;-0.383988
8041.000000;-0.384085
8040.000000;-0.384194
8039.000000;-0.384338
8038.000000;-0.384530
8037.000000;-0.384770
8036.000000;-0.385029
8035.000000;-0.385265
8034.000000;-0.385457
8033.000000;-0.385620
8032.000000;-0.385785
8031.000000;-0.385964
8030.000000;-0.386159
8029.000000;-0.386366
8028.000000;-0.386580
8027.000000;-0.386781
8026.000000;-0.386948
8025.000000;-0.387078
8024.000000;-0.387189
8023.000000;-0.387300
8022.000000;-0.387428
8021.000000;-0.387592
8020.000000;-0.387803
8019.000000;-0.388035
8018.000000;-0.388246
8017.000000;-0.388426
8016.000000;-0.388609
8015.000000;-0.388827
8014.000000;-0.389072
8013.000000;-0.389300
8012.000000;-0.389486
8011.000000;-0.389640
8010.000000;-0.389792
8009.000000;-0.389966
8008.000000;-0.390163
8007.000000;-0.390365
8006.000000;-0.390548
8005.000000;-0.390709
8004.000000;-0.390880
8003.000000;-0.391095
8002.000000;-0.391356
8001.000000;-0.391625
8000.000000;-0.391856
7999.000000;-0.392031
7998.000000;-0.392165
7997.000000;-0.392286
7996.000000;-0.392416
7995.000000;-0.392574
7994.000000;-0.392771
7993.000000;-0.393002
7992.000000;-0.393237
7991.000000;-0.393435
7990.000000;-0.393589
7989.000000;-0.393727
7988.000000;-0.393882
7987.000000;-0.394053
7986.000000;-0.394221
7985.000000;-0.394385
7984.000000;-0.394557
7983.000000;-0.394744
7982.000000;-0.394926
7981.000000;-0.395093
7980.000000;-0.395260
7979.000000;-0.395448
7978.000000;-0.395656
7977.000000;-0.395864
7976.000000;-0.396063
7975.000000;-0.396257
7974.000000;-0.396460
7973.000000;-0.396668
7972.000000;-0.396865
7971.000000;-0.397039
7970.000000;-0.397203
7969.000000;-0.397390
7968.000000;-0.397616
7967.000000;-0.397857
7966.000000;-0.398069
7965.000000;-0.398229
7964.000000;-0.398354
7963.000000;-0.398477
7962.000000;-0.398621
7961.000000;-0.398793
7960.000000;-0.398985
7959.000000;-0.399181
7958.000000;-0.399361
7957.000000;-0.399525
7956.000000;-0.399689
7955.000000;-0.399868
7954.000000;-0.400056
7953.000000;-0.400229
7952.000000;-0.400377
7951.000000;-0.400518
7950.000000;-0.400691
7949.000000;-0.400915
7948.000000;-0.401170
7947.000000;-0.401408
7946.000000;-0.401596
7945.000000;-0.401752
7944.000000;-0.401917
7943.000000;-0.402108
7942.000000;-0.402306
7941.000000;-0.402480
7940.000000;-0.402626
7939.000000;-0.402770
7938.000000;-0.402943
7937.000000;-0.403142
7936.000000;-0.403335
7935.000000;-0.403497
7934.000000;-0.403635
7933.000000;-0.403783
7932.000000;-0.403964
7931.000000;-0.404170
7930.000000;-0.404386
7929.000000;-0.404600
7928.000000;-0.404793
7927.000000;-0.404933
7926.000000;-0.405018
7925.000000;-0.405102
7924.000000;-0.405238
7923.000000;-0.405418
7922.000000;-0.405588
7921.000000;-0.405727
7920.000000;-0.405868
7919.000000;-0.406045
7918.000000;-0.406254
7917.000000;-0.406469
7916.000000;-0.406689
7915.000000;-0.406921
7914.000000;-0.407154
7913.000000;-0.407367
7912.000000;-0.407560
7911.000000;-0.407750
7910.000000;-0.407944
7909.000000;-0.408131
7908.000000;-0.408296
7907.000000;-0.408439
7906.000000;-0.408572
7905.000000;-0.408711
7904.000000;-0.408867
7903.000000;-0.409037
7902.000000;-0.409209
7901.000000;-0.409361
7900.000000;-0.409481
7899.000000;-0.409578
7898.000000;-0.409686
7897.000000;-0.409838
7896.000000;-0.410038
7895.000000;-0.410256
7894.000000;-0.410451
7893.000000;-0.410616
7892.000000;-0.410776
7891.000000;-0.410953
7890.000000;-0.411148
7889.000000;-0.411339
7888.000000;-0.411512
7887.000000;-0.411661
7886.000000;-0.411795
7885.000000;-0.411917
7884.000000;-0.412028
7883.000000;-0.412132
7882.000000;-0.412247
7881.000000;-0.412397
7880.000000;-0.412582
7879.000000;-0.412773
7878.000000;-0.412943
7877.000000;-0.413095
7876.000000;-0.413248
7875.000000;-0.413415
7874.000000;-0.413601
7873.000000;-0.413814
7872.000000;-0.414047
7871.000000;-0.414262
7870.000000;-0.414420
7869.000000;-0.414538
7868.000000;-0.414666
7867.000000;-0.414827
7866.000000;-0.414991
7865.000000;-0.415117
7864.000000;-0.415204
7863.000000;-0.415290
7862.000000;-0.415417
7861.000000;-0.415600
7860.000000;-0.415822
7859.000000;-0.416043
7858.000000;-0.416228
7857.000000;-0.416381
7856.000000;-0.416528
7855.000000;-0.416681
7854.000000;-0.416827
7853.000000;-0.416955
7852.000000;-0.417077
7851.000000;-0.417212
7850.000000;-0.417362
7849.000000;-0.417522
7848.000000;-0.417688
7847.000000;-0.417852
7846.000000;-0.417999
7845.000000;-0.418121
7844.000000;-0.418229
7843.000000;-0.418351
7842.000000;-0.418501
7841.000000;-0.418677
7840.000000;-0.418855
7839.000000;-0.419004
7838.000000;-0.419108
7837.000000;-0.419190
7836.000000;-0.419286
7835.000000;-0.419414
7834.000000;-0.419561
7833.000000;-0.419718
7832.000000;-0.419900
7831.000000;-0.420115
7830.000000;-0.420337
7829.000000;-0.420518
7828.000000;-0.420639
7827.000000;-0.420721
7826.000000;-0.420802
7825.000000;-0.420901
7824.000000;-0.421019
7823.000000;-0.421154
7822.000000;-0.421305
7821.000000;-0.421467
7820.000000;-0.421630
7819.000000;-0.421780
7818.000000;-0.421915
7817.000000;-0.422041
7816.000000;-0.422165
7815.000000;-0.422283
7814.000000;-0.422385
7813.000000;-0.422478
7812.000000;-0.422580
7811.000000;-0.422707
7810.000000;-0.422855
7809.000000;-0.423009
7808.000000;-0.423148
7807.000000;-0.423258
7806.000000;-0.423341
7805.000000;-0.423415
7804.000000;-0.423506
7803.000000;-0.423627
7802.000000;-0.423774
7801.000000;-0.423924
7800.000000;-0.424056
7799.000000;-0.424168
7798.000000;-0.424275
7797.000000;-0.424389
7796.000000;-0.424498
7795.000000;-0.424587
7794.000000;-0.424667
7793.000000;-0.424769
7792.000000;-0.424892
7791.000000;-0.425002
7790.000000;-0.425087
7789.000000;-0.425193
7788.000000;-0.425357
7787.000000;-0.425551
7786.000000;-0.425711
7785.000000;-0.425825
7784.000000;-0.425928
7783.000000;-0.426041
7782.000000;-0.426150
7781.000000;-0.426243
7780.000000;-0.426337
7779.000000;-0.426444
7778.000000;-0.426555
7777.000000;-0.426664
7776.000000;-0.426771
7775.000000;-0.426864
7774.000000;-0.426919
7773.000000;-0.426950
7772.000000;-0.427010
7771.000000;-0.427140
7770.000000;-0.427322
7769.000000;-0.427492
7768.000000;-0.427603
7767.000000;-0.427654
7766.000000;-0.427686
7765.000000;-0.427754
7764.000000;-0.427880
7763.000000;-0.428031
7762.000000;-0.428156
7761.000000;-0.428242
7760.000000;-0.428319
7759.000000;-0.428403
7758.000000;-0.428481
7757.000000;-0.428546
7756.000000;-0.428618
7755.000000;-0.428719
7754.000000;-0.428845
7753.000000;-0.428983
7752.000000;-0.429124
7751.000000;-0.429250
7750.000000;-0.429333
7749.000000;-0.429367
7748.000000;-0.429388
7747.000000;-0.429442
7746.000000;-0.429535
7745.000000;-0.429640
7744.000000;-0.429731
7743.000000;-0.429798
7742.000000;-0.429852
7741.000000;-0.429905
7740.000000;-0.429967
7739.000000;-0.430032
7738.000000;-0.430091
7737.000000;-0.430151
7736.000000;-0.430222
7735.000000;-0.430298
7734.000000;-0.430366
7733.000000;-0.430428
7732.000000;-0.430503
7731.000000;-0.430593
7730.000000;-0.430675
7729.000000;-0.430738
7728.000000;-0.430794
7727.000000;-0.430855
7726.000000;-0.430921
7725.000000;-0.430994
7724.000000;-0.431084
7723.000000;-0.431181
7722.000000;-0.431261
7721.000000;-0.431317
7720.000000;-0.431368
7719.000000;-0.431416
7718.000000;-0.431446
7717.000000;-0.431464
7716.000000;-0.431509
7715.000000;-0.431599
7714.000000;-0.431696
7713.000000;-0.431756
7712.000000;-0.431782
7711.000000;-0.431803
7710.000000;-0.431829
7709.000000;-0.431852
7708.000000;-0.431887
7707.000000;-0.431958
7706.000000;-0.432065
7705.000000;-0.432176
7704.000000;-0.432261
7703.000000;-0.432315
7702.000000;-0.432354
7701.000000;-0.432396
7700.000000;-0.432447
7699.000000;-0.432486
7698.000000;-0.432493
7697.000000;-0.432483
7696.000000;-0.432500
7695.000000;-0.432566
7694.000000;-0.432649
7693.000000;-0.432710
7692.000000;-0.432743
7691.000000;-0.432768
7690.000000;-0.432793
7689.000000;-0.432812
7688.000000;-0.432824
7687.000000;-0.432832
7686.000000;-0.432833
7685.000000;-0.432832
7684.000000;-0.432847
7683.000000;-0.432886
7682.000000;-0.432927
7681.000000;-0.432943
7680.000000;-0.432942
7679.000000;-0.432950
7678.000000;-0.432977
7677.000000;-0.433012
7676.000000;-0.433039
7675.000000;-0.433050
7674.000000;-0.433043
7673.000000;-0.433026
7672.000000;-0.433015
7671.000000;-0.433023
7670.000000;-0.433031
7669.000000;-0.433016
7668.000000;-0.432977
7667.000000;-0.432938
7666.000000;-0.432928
7665.000000;-0.432957
7664.000000;-0.433017
7663.000000;-0.433088
7662.000000;-0.433149
7661.000000;-0.433183
7660.000000;-0.433181
7659.000000;-0.433134
7658.000000;-0.433048
7657.000000;-0.432956
7656.000000;-0.432895
7655.000000;-0.432880
7654.000000;-0.432888
7653.000000;-0.432897
7652.000000;-0.432898
7651.000000;-0.432883
7650.000000;-0.432845
7649.000000;-0.432799
7648.000000;-0.432780
7647.000000;-0.432806
7646.000000;-0.432853
7645.000000;-0.432882
7644.000000;-0.432875
7643.000000;-0.432828
7642.000000;-0.432731
7641.000000;-0.432591
7640.000000;-0.432443
7639.000000;-0.432329
7638.000000;-0.432269
7637.000000;-0.432252
7636.000000;-0.432256
7635.000000;-0.432257
7634.000000;-0.432239
7633.000000;-0.432206
7632.000000;-0.432174
7631.000000;-0.432148
7630.000000;-0.432110
7629.000000;-0.432050
7628.000000;-0.431984
7627.000000;-0.431932
7626.000000;-0.431897
7625.000000;-0.431868
7624.000000;-0.431829
7623.000000;-0.431768
7622.000000;-0.431676
7621.000000;-0.431569
7620.000000;-0.431473
7619.000000;-0.431399
7618.000000;-0.431331
7617.000000;-0.431257
7616.000000;-0.431175
7615.000000;-0.431079
7614.000000;-0.430958
7613.000000;-0.430818
7612.000000;-0.430705
7611.000000;-0.430654
7610.000000;-0.430651
7609.000000;-0.430650
7608.000000;-0.430613
7607.000000;-0.430528
7606.000000;-0.430404
7605.000000;-0.430267
7604.000000;-0.430141
7603.000000;-0.430026
7602.000000;-0.429909
7601.000000;-0.429800
7600.000000;-0.429725
7599.000000;-0.429677
7598.000000;-0.429606
7597.000000;-0.429482
7596.000000;-0.429334
7595.000000;-0.429203
7594.000000;-0.429084
7593.000000;-0.428949
7592.000000;-0.428808
7591.000000;-0.428700
7590.000000;-0.428633
7589.000000;-0.428565
7588.000000;-0.428454
7587.000000;-0.428301
7586.000000;-0.428133
7585.000000;-0.427971
7584.000000;-0.427812
7583.000000;-0.427645
7582.000000;-0.427475
7581.000000;-0.427327
7580.000000;-0.427218
7579.000000;-0.427130
7578.000000;-0.427026
7577.000000;-0.426894
7576.000000;-0.426746
7575.000000;-0.426588
7574.000000;-0.426404
7573.000000;-0.426197
7572.000000;-0.426004
7571.000000;-0.425854
7570.000000;-0.425731
7569.000000;-0.425597
7568.000000;-0.425442
7567.000000;-0.425286
7566.000000;-0.425144
7565.000000;-0.425015
7564.000000;-0.424884
7563.000000;-0.424733
7562.000000;-0.424547
7561.000000;-0.424334
7560.000000;-0.424130
7559.000000;-0.423961
7558.000000;-0.423811
7557.000000;-0.423645
7556.000000;-0.423446
7555.000000;-0.423221
7554.000000;-0.422989
7553.000000;-0.422769
7552.000000;-0.422579
7551.000000;-0.422408
7550.000000;-0.422228
7549.000000;-0.422017
7548.000000;-0.421791
7547.000000;-0.421575
7546.000000;-0.421388
7545.000000;-0.421236
7544.000000;-0.421111
7543.000000;-0.420986
7542.000000;-0.420821
7541.000000;-0.420598
7540.000000;-0.420335
7539.000000;-0.420060
7538.000000;-0.419794
7537.000000;-0.419557
7536.000000;-0.419362
7535.000000;-0.419189
7534.000000;-0.418991
7533.000000;-0.418749
7532.000000;-0.418496
7531.000000;-0.418274
7530.000000;-0.418078
7529.000000;-0.417873
7528.000000;-0.417636
7527.000000;-0.417363
7526.000000;-0.417065
7525.000000;-0.416762
7524.000000;-0.416485
7523.000000;-0.416245
7522.000000;-0.416033
7521.000000;-0.415828
7520.000000;-0.415621
7519.000000;-0.415390
7518.000000;-0.415115
7517.000000;-0.414805
7516.000000;-0.414513
7515.000000;-0.414274
7514.000000;-0.414069
7513.000000;-0.413849
7512.000000;-0.413592
7511.000000;-0.413310
7510.000000;-0.413024
7509.000000;-0.412744
7508.000000;-0.412470
7507.000000;-0.412194
7506.000000;-0.411921
7505.000000;-0.411672
7504.000000;-0.411463
7503.000000;-0.411273
7502.000000;-0.411058
7501.000000;-0.410804
7500.000000;-0.410528
7499.000000;-0.410241
7498.000000;-0.409939
7497.000000;-0.409633
7496.000000;-0.409354
7495.000000;-0.409105
7494.000000;-0.408845
7493.000000;-0.408551
7492.000000;-0.408239
7491.000000;-0.407945
7490.000000;-0.407556
7489.000000;-0.407279
7488.000000;-0.407020
7487.000000;-0.406758
7486.000000;-0.406492
7485.000000;-0.406235
7484.000000;-0.406008
7483.000000;-0.405782
7482.000000;-0.405500
7481.000000;-0.405157
7480.000000;-0.404810
7479.000000;-0.404497
7478.000000;-0.404191
7477.000000;-0.403866
7476.000000;-0.403552
7475.000000;-0.403290
7474.000000;-0.403072
7473.000000;-0.402857
7472.000000;-0.402619
7471.000000;-0.402348
7470.000000;-0.402038
7469.000000;-0.401714
7468.000000;-0.401426
7467.000000;-0.401192
7466.000000;-0.400972
7465.000000;-0.400721
7464.000000;-0.400430
7463.000000;-0.400117
7462.000000;-0.399796
7461.000000;-0.399480
7460.000000;-0.399180
7459.000000;-0.398875
7458.000000;-0.398535
7457.000000;-0.398173
7456.000000;-0.397834
7455.000000;-0.397534
7454.000000;-0.397238
7453.000000;-0.396921
7452.000000;-0.396610
7451.000000;-0.396332
7450.000000;-0.396081
7449.000000;-0.395851
7448.000000;-0.395652
7447.000000;-0.395471
7446.000000;-0.395259
7445.000000;-0.394983
7444.000000;-0.394656
7443.000000;-0.394295
7442.000000;-0.393913
7441.000000;-0.393553
7440.000000;-0.393255
7439.000000;-0.392984
7438.000000;-0.392653
7437.000000;-0.392248
7436.000000;-0.391864
7435.000000;-0.391571
7434.000000;-0.391328
7433.000000;-0.391068
7432.000000;-0.390792
7431.000000;-0.390530
7430.000000;-0.390266
7429.000000;-0.389967
7428.000000;-0.389643
7427.000000;-0.389331
7426.000000;-0.389059
7425.000000;-0.388835
7424.000000;-0.388637
7423.000000;-0.388368
7422.000000;-0.387905
7421.000000;-0.387252
7420.000000;-0.386575
7419.000000;-0.386034
7418.000000;-0.385616
7417.000000;-0.385218
7416.000000;-0.384795
7415.000000;-0.384387
7414.000000;-0.384032
7413.000000;-0.383738
7412.000000;-0.383507
7411.000000;-0.383329
7410.000000;-0.383171
7409.000000;-0.382984
7408.000000;-0.382714
7407.000000;-0.382331
7406.000000;-0.381898
7405.000000;-0.381558
7404.000000;-0.381380
7403.000000;-0.381235
7402.000000;-0.380915
7401.000000;-0.380375
7400.000000;-0.379762
7399.000000;-0.379214
7398.000000;-0.378753
7397.000000;-0.378355
7396.000000;-0.377989
7395.000000;-0.377621
7394.000000;-0.377271
7393.000000;-0.376976
7392.000000;-0.376673
7391.000000;-0.376205
7390.000000;-0.375531
7389.000000;-0.374828
7388.000000;-0.374264
7387.000000;-0.373738
7386.000000;-0.373073
7385.000000;-0.372325
7384.000000;-0.371624
7383.000000;-0.370821
7382.000000;-0.369728
7381.000000;-0.368637
7380.000000;-0.368103
7379.000000;-0.368023
7378.000000;-0.367475
7377.000000;-0.365920
7376.000000;-0.364068
7375.000000;-0.363114
7374.000000;-0.363359
7373.000000;-0.364033
7372.000000;-0.364335
7371.000000;-0.364150
7370.000000;-0.363823
7369.000000;-0.363689
7368.000000;-0.363861
7367.000000;-0.364153
7366.000000;-0.364217
7365.000000;-0.363954
7364.000000;-0.363613
7363.000000;-0.363385
7362.000000;-0.363140
7361.000000;-0.362728
7360.000000;-0.362290
7359.000000;-0.361856
7358.000000;-0.360975
7357.000000;-0.359392
7356.000000;-0.357800
7355.000000;-0.357182
7354.000000;-0.357523
7353.000000;-0.357847
7352.000000;-0.357452
7351.000000;-0.356486
7350.000000;-0.355411
7349.000000;-0.354483
7348.000000;-0.353793
7347.000000;-0.353193
7346.000000;-0.352225
7345.000000;-0.350646
7344.000000;-0.348843
7343.000000;-0.347073
7342.000000;-0.344677
7341.000000;-0.341064
7340.000000;-0.337292
7339.000000;-0.335459
7338.000000;-0.336192
7337.000000;-0.337938
7336.000000;-0.339133
7335.000000;-0.339962
7334.000000;-0.341413
7333.000000;-0.343552
7332.000000;-0.345537
7331.000000;-0.346597
7330.000000;-0.346398
7329.000000;-0.345141
7328.000000;-0.343770
7327.000000;-0.343214
7326.000000;-0.343033
7325.000000;-0.341753
7324.000000;-0.339059
7323.000000;-0.336576
7322.000000;-0.335786
7321.000000;-0.336178
7320.000000;-0.336291
7319.000000;-0.335927
7318.000000;-0.336191
7317.000000;-0.337701
7316.000000;-0.339807
7315.000000;-0.341516
7314.000000;-0.342281
7313.000000;-0.341961
7312.000000;-0.340845
7311.000000;-0.339618
7310.000000;-0.338497
7309.000000;-0.336709
7308.000000;-0.333695
7307.000000;-0.330464
7306.000000;-0.328678
7305.000000;-0.328486
7304.000000;-0.328347
7303.000000;-0.327201
7302.000000;-0.325667
7301.000000;-0.324824
7300.000000;-0.324825
7299.000000;-0.325150
7298.000000;-0.325381
7297.000000;-0.325080
7296.000000;-0.323790
7295.000000;-0.321862
7294.000000;-0.320491
7293.000000;-0.320243
7292.000000;-0.320096
7291.000000;-0.318771
7290.000000;-0.316526
7289.000000;-0.314798
7288.000000;-0.314388
7287.000000;-0.314767
7286.000000;-0.315062
7285.000000;-0.315056
7284.000000;-0.315072
7283.000000;-0.315354
7282.000000;-0.315786
7281.000000;-0.316028
7280.000000;-0.315780
7279.000000;-0.314982
7278.000000;-0.313883
7277.000000;-0.312742
7276.000000;-0.311511
7275.000000;-0.310015
7274.000000;-0.308304
7273.000000;-0.306656
7272.000000;-0.305257
7271.000000;-0.303985
7270.000000;-0.302537
7269.000000;-0.300776
7268.000000;-0.298878
7267.000000;-0.297130
7266.000000;-0.295550
7265.000000;-0.293778
7264.000000;-0.291485
7263.000000;-0.288907
7262.000000;-0.286710
7261.000000;-0.285226
7260.000000;-0.284061
7259.000000;-0.282600
7258.000000;-0.280697
7257.000000;-0.278599
7256.000000;-0.276368
7255.000000;-0.273765
7254.000000;-0.270802
7253.000000;-0.268004
7252.000000;-0.265885
7251.000000;-0.264321
7250.000000;-0.262678
7249.000000;-0.260510
7248.000000;-0.257892
7247.000000;-0.255018
7246.000000;-0.251537
7245.000000;-0.246723
7244.000000;-0.240657
7243.000000;-0.234762
7242.000000;-0.230590
7241.000000;-0.228153
7240.000000;-0.226007
7239.000000;-0.223087
7238.000000;-0.219804
7237.000000;-0.216971
7236.000000;-0.214273
7235.000000;-0.210451
7234.000000;-0.204996
7233.000000;-0.199187
7232.000000;-0.195050
7231.000000;-0.193314
7230.000000;-0.192581
7229.000000;-0.190697
7228.000000;-0.186854
7227.000000;-0.182214
7226.000000;-0.178441
7225.000000;-0.175993
7224.000000;-0.174080
7223.000000;-0.171864
7222.000000;-0.169247
7221.000000;-0.166611
7220.000000;-0.164187
7219.000000;-0.161800
7218.000000;-0.159035
7217.000000;-0.155580
7216.000000;-0.151561
7215.000000;-0.147495
7214.000000;-0.143788
7213.000000;-0.140317
7212.000000;-0.136662
7211.000000;-0.132732
7210.000000;-0.128881
7209.000000;-0.125262
7208.000000;-0.121362
7207.000000;-0.116521
7206.000000;-0.110708
7205.000000;-0.104586
7204.000000;-0.098914
7203.000000;-0.093970
7202.000000;-0.089446
7201.000000;-0.084821
7200.000000;-0.079833
7199.000000;-0.074632
7198.000000;-0.069464
7197.000000;-0.064319
7196.000000;-0.059075
7195.000000;-0.053956
7194.000000;-0.049433
7193.000000;-0.045495
7192.000000;-0.041408
7191.000000;-0.036503
7190.000000;-0.030909
7189.000000;-0.025154
7188.000000;-0.019362
7187.000000;-0.013285
7186.000000;-0.006842
7185.000000;-0.000053
7184.000000;0.007432
7183.000000;0.016013
7182.000000;0.025217
7181.000000;0.033837
7180.000000;0.041258
7179.000000;0.048109
7178.000000;0.055244
7177.000000;0.062615
7176.000000;0.069570
7175.000000;0.075847
7174.000000;0.081740
7173.000000;0.087542
7172.000000;0.093384
7171.000000;0.099547
7170.000000;0.106395
7169.000000;0.113995
7168.000000;0.122109
7167.000000;0.130423
7166.000000;0.138695
7165.000000;0.146905
7164.000000;0.155500
7163.000000;0.165075
7162.000000;0.175410
7161.000000;0.185253
7160.000000;0.193529
7159.000000;0.200558
7158.000000;0.207525
7157.000000;0.214888
7156.000000;0.221978
7155.000000;0.228252
7154.000000;0.234193
7153.000000;0.240609
7152.000000;0.247518
7151.000000;0.254323
7150.000000;0.260816
7149.000000;0.267556
7148.000000;0.275322
7147.000000;0.284349
7146.000000;0.294151
7145.000000;0.303994
7144.000000;0.313516
7143.000000;0.322979
7142.000000;0.333037
7141.000000;0.344007
7140.000000;0.355316
7139.000000;0.365936
7138.000000;0.375506
7137.000000;0.384673
7136.000000;0.394058
7135.000000;0.403266
7134.000000;0.411470
7133.000000;0.418749
7132.000000;0.426107
7131.000000;0.434149
7130.000000;0.442427
7129.000000;0.450323
7128.000000;0.457937
7127.000000;0.465670
7126.000000;0.473534
7125.000000;0.481478
7124.000000;0.489865
7123.000000;0.499012
7122.000000;0.508703
7121.000000;0.518804
7120.000000;0.529968
7119.000000;0.542776
7118.000000;0.556251
7117.000000;0.568254
7116.000000;0.577713
7115.000000;0.585721
7114.000000;0.593942
7113.000000;0.602762
7112.000000;0.611567
7111.000000;0.620181
7110.000000;0.629161
7109.000000;0.638868
7108.000000;0.648949
7107.000000;0.658839
7106.000000;0.668277
7105.000000;0.677228
7104.000000;0.685718
7103.000000;0.693972
7102.000000;0.702451
7101.000000;0.711568
7100.000000;0.721383
7099.000000;0.731635
7098.000000;0.742173
7097.000000;0.753159
7096.000000;0.764556
7095.000000;0.775672
7094.000000;0.785667
7093.000000;0.794490
7092.000000;0.802919
7091.000000;0.811556
7090.000000;0.820244
7089.000000;0.828641
7088.000000;0.836855
7087.000000;0.845125
7086.000000;0.853283
7085.000000;0.861029
7084.000000;0.868540
7083.000000;0.876376
7082.000000;0.884881
7081.000000;0.893964
7080.000000;0.903299
7079.000000;0.912480
7078.000000;0.921214
7077.000000;0.929636
7076.000000;0.938257
7075.000000;0.947491
7074.000000;0.957422
7073.000000;0.967919
7072.000000;0.978650
7071.000000;0.988972
7070.000000;0.998346
7069.000000;1.007039
7068.000000;1.015903
7067.000000;1.025158
7066.000000;1.033936
7065.000000;1.041395
7064.000000;1.047860
7063.000000;1.054465
7062.000000;1.061995
7061.000000;1.070371
7060.000000;1.078828
7059.000000;1.086350
7058.000000;1.092471
7057.000000;1.098016
7056.000000;1.104486
7055.000000;1.112448
7054.000000;1.121043
7053.000000;1.129226
7052.000000;1.136920
7051.000000;1.144701
7050.000000;1.152929
7049.000000;1.161511
7048.000000;1.170001
7047.000000;1.177737
7046.000000;1.184511
7045.000000;1.191190
7044.000000;1.198741
7043.000000;1.206591
7042.000000;1.213102
7041.000000;1.217936
7040.000000;1.222596
7039.000000;1.228128
7038.000000;1.233772
7037.000000;1.238693
7036.000000;1.243594
7035.000000;1.249442
7034.000000;1.255721
7033.000000;1.261272
7032.000000;1.266127
7031.000000;1.271280
7030.000000;1.277180
7029.000000;1.283544
7028.000000;1.290123
7027.000000;1.296693
7026.000000;1.302762
7025.000000;1.308166
7024.000000;1.313448
7023.000000;1.318823
7022.000000;1.323490
7021.000000;1.326846
7020.000000;1.329677
7019.000000;1.333118
7018.000000;1.337080
7017.000000;1.340793
7016.000000;1.344346
7015.000000;1.348532
7014.000000;1.353460
7013.000000;1.358334
7012.000000;1.362519
7011.000000;1.366089
7010.000000;1.369448
7009.000000;1.373022
7008.000000;1.376946
7007.000000;1.380623
7006.000000;1.383221
7005.000000;1.384988
7004.000000;1.387254
7003.000000;1.390573
7002.000000;1.393772
7001.000000;1.395672
7000.000000;1.396974
6999.000000;1.399249
6998.000000;1.402516
6997.000000;1.405064
6996.000000;1.405612
6995.000000;1.404760
6994.000000;1.404230
6993.000000;1.405272
6992.000000;1.407776
6991.000000;1.410506
6990.000000;1.412284
6989.000000;1.413068
6988.000000;1.413602
6987.000000;1.414148
6986.000000;1.414243
6985.000000;1.413859
6984.000000;1.413962
6983.000000;1.415437
6982.000000;1.417998
6981.000000;1.420536
6980.000000;1.422128
6979.000000;1.422532
6978.000000;1.422325
6977.000000;1.422710
6976.000000;1.424500
6975.000000;1.427032
6974.000000;1.428741
6973.000000;1.429010
6972.000000;1.428580
6971.000000;1.428008
6970.000000;1.426865
6969.000000;1.424874
6968.000000;1.422697
6967.000000;1.421021
6966.000000;1.419894
6965.000000;1.419485
6964.000000;1.420400
6963.000000;1.422383
6962.000000;1.423723
6961.000000;1.423069
6960.000000;1.421236
6959.000000;1.420141
6958.000000;1.420410
6957.000000;1.420773
6956.000000;1.419565
6955.000000;1.416439
6954.000000;1.412880
6953.000000;1.411135
6952.000000;1.412244
6951.000000;1.414966
6950.000000;1.416991
6949.000000;1.417243
6948.000000;1.416275
6947.000000;1.414624
6946.000000;1.412205
6945.000000;1.409466
6944.000000;1.407433
6943.000000;1.406010
6942.000000;1.403755
6941.000000;1.400195
6940.000000;1.396887
6939.000000;1.395051
6938.000000;1.393635
6937.000000;1.390991
6936.000000;1.387358
6935.000000;1.384459
6934.000000;1.383416
6933.000000;1.384046
6932.000000;1.385383
6931.000000;1.385847
6930.000000;1.383777
6929.000000;1.379040
6928.000000;1.373548
6927.000000;1.369300
6926.000000;1.366475
6925.000000;1.364146
6924.000000;1.361987
6923.000000;1.360189
6922.000000;1.358518
6921.000000;1.356679
6920.000000;1.355086
6919.000000;1.354088
6918.000000;1.352873
6917.000000;1.350283
6916.000000;1.346362
6915.000000;1.342030
6914.000000;1.337817
6913.000000;1.333918
6912.000000;1.330857
6911.000000;1.328978
6910.000000;1.327566
6909.000000;1.325366
6908.000000;1.321840
6907.000000;1.317238
6906.000000;1.311880
6905.000000;1.306401
6904.000000;1.302227
6903.000000;1.300531
6902.000000;1.300744
6901.000000;1.300993
6900.000000;1.299977
6899.000000;1.297750
6898.000000;1.294908
6897.000000;1.291963
6896.000000;1.289395
6895.000000;1.287291
6894.000000;1.284801
6893.000000;1.280787
6892.000000;1.275293
6891.000000;1.269852
6890.000000;1.266091
6889.000000;1.264313
6888.000000;1.263412
6887.000000;1.261764
6886.000000;1.258369
6885.000000;1.253620
6884.000000;1.248874
6883.000000;1.245074
6882.000000;1.241878
6881.000000;1.238301
6880.000000;1.234028
6879.000000;1.229755
6878.000000;1.226275
6877.000000;1.223615
6876.000000;1.221073
6875.000000;1.217927
6874.000000;1.214130
6873.000000;1.210330
6872.000000;1.207116
6871.000000;1.204380
6870.000000;1.201659
6869.000000;1.198951
6868.000000;1.196670
6867.000000;1.194780
6866.000000;1.192651
6865.000000;1.189891
6864.000000;1.186665
6863.000000;1.182955
6862.000000;1.178287
6861.000000;1.172706
6860.000000;1.167298
6859.000000;1.163133
6858.000000;1.160088
6857.000000;1.157143
6856.000000;1.153552
6855.000000;1.149339
6854.000000;1.144984
6853.000000;1.141058
6852.000000;1.137894
6851.000000;1.135200
6850.000000;1.132123
6849.000000;1.128021
6848.000000;1.123029
6847.000000;1.117667
6846.000000;1.112180
6845.000000;1.106499
6844.000000;1.100586
6843.000000;1.094557
6842.000000;1.088642
6841.000000;1.083188
6840.000000;1.078422
6839.000000;1.074129
6838.000000;1.069862
6837.000000;1.065515
6836.000000;1.061279
6835.000000;1.056951
6834.000000;1.051892
6833.000000;1.045905
6832.000000;1.039595
6831.000000;1.033522
6830.000000;1.027537
6829.000000;1.021394
6828.000000;1.015514
6827.000000;1.010521
6826.000000;1.006219
6825.000000;1.001598
6824.000000;0.995809
6823.000000;0.988839
6822.000000;0.981323
6821.000000;0.974021
6820.000000;0.967410
6819.000000;0.961445
6818.000000;0.955672
6817.000000;0.949688
6816.000000;0.943494
6815.000000;0.937354
6814.000000;0.931497
6813.000000;0.925991
6812.000000;0.920676
6811.000000;0.915129
6810.000000;0.908980
6809.000000;0.902406
6808.000000;0.896076
6807.000000;0.890409
6806.000000;0.885060
6805.000000;0.879312
6804.000000;0.872883
6803.000000;0.866226
6802.000000;0.860096
6801.000000;0.854864
6800.000000;0.850104
6799.000000;0.844864
6798.000000;0.838535
6797.000000;0.831481
6796.000000;0.824622
6795.000000;0.818453
6794.000000;0.812726
6793.000000;0.806989
6792.000000;0.801066
6791.000000;0.794981
6790.000000;0.788813
6789.000000;0.782775
6788.000000;0.777076
6787.000000;0.771575
6786.000000;0.765839
6785.000000;0.759719
6784.000000;0.753550
6783.000000;0.747648
6782.000000;0.741916
6781.000000;0.736147
6780.000000;0.730400
6779.000000;0.724832
6778.000000;0.719385
6777.000000;0.713886
6776.000000;0.708295
6775.000000;0.702690
6774.000000;0.697133
6773.000000;0.691709
6772.000000;0.686511
6771.000000;0.681462
6770.000000;0.676328
6769.000000;0.671049
6768.000000;0.665828
6767.000000;0.660760
6766.000000;0.655592
6765.000000;0.650055
6764.000000;0.644250
6763.000000;0.638520
6762.000000;0.633095
6761.000000;0.628038
6760.000000;0.623331
6759.000000;0.618800
6758.000000;0.614115
6757.000000;0.609072
6756.000000;0.603798
6755.000000;0.598525
6754.000000;0.593298
6753.000000;0.588068
6752.000000;0.582911
6751.000000;0.577934
6750.000000;0.573062
6749.000000;0.568103
6748.000000;0.562966
6747.000000;0.557691
6746.000000;0.552392
6745.000000;0.547265
6744.000000;0.542529
6743.000000;0.538163
6742.000000;0.533835
6741.000000;0.529263
6740.000000;0.524558
6739.000000;0.520018
6738.000000;0.515679
6737.000000;0.511273
6736.000000;0.506594
6735.000000;0.501701
6734.000000;0.496785
6733.000000;0.492017
6732.000000;0.487515
6731.000000;0.483288
6730.000000;0.479191
6729.000000;0.475029
6728.000000;0.470733
6727.000000;0.466344
6726.000000;0.461874
6725.000000;0.457296
6724.000000;0.452679
6723.000000;0.448192
6722.000000;0.443944
6721.000000;0.439881
6720.000000;0.435837
6719.000000;0.431671
6718.000000;0.427345
6717.000000;0.422939
6716.000000;0.418591
6715.000000;0.414379
6714.000000;0.410270
6713.000000;0.406202
6712.000000;0.402148
6711.000000;0.398073
6710.000000;0.393902
6709.000000;0.389612
6708.000000;0.385295
6707.000000;0.381086
6706.000000;0.377035
6705.000000;0.373042
6704.000000;0.369040
6703.000000;0.365008
6702.000000;0.360956
6701.000000;0.356916
6700.000000;0.352941
6699.000000;0.348976
6698.000000;0.345060
6697.000000;0.341036
6696.000000;0.337226
6695.000000;0.333640
6694.000000;0.330018
6693.000000;0.326305
6692.000000;0.322528
6691.000000;0.318816
6690.000000;0.315168
6689.000000;0.311526
6688.000000;0.307877
6687.000000;0.304245
6686.000000;0.300599
6685.000000;0.296890
6684.000000;0.293159
6683.000000;0.289498
6682.000000;0.285910
6681.000000;0.282301
6680.000000;0.278630
6679.000000;0.274984
6678.000000;0.271457
6677.000000;0.268016
6676.000000;0.264541
6675.000000;0.260972
6674.000000;0.257379
6673.000000;0.253875
6672.000000;0.250475
6671.000000;0.247073
6670.000000;0.243593
6669.000000;0.240094
6668.000000;0.236669
6667.000000;0.233281
6666.000000;0.229802
6665.000000;0.226230
6664.000000;0.222739
6663.000000;0.219469
6662.000000;0.216346
6661.000000;0.213186
6660.000000;0.209916
6659.000000;0.206602
6658.000000;0.203322
6657.000000;0.200099
6656.000000;0.196926
6655.000000;0.193785
6654.000000;0.190635
6653.000000;0.187449
6652.000000;0.184251
6651.000000;0.181085
6650.000000;0.177955
6649.000000;0.174837
6648.000000;0.171727
6647.000000;0.168635
6646.000000;0.165559
6645.000000;0.162485
6644.000000;0.159427
6643.000000;0.156401
6642.000000;0.153390
6641.000000;0.150343
6640.000000;0.147224
6639.000000;0.144031
6638.000000;0.140814
6637.000000;0.137667
6636.000000;0.134682
6635.000000;0.131870
6634.000000;0.129156
6633.000000;0.126457
6632.000000;0.123731
6631.000000;0.120939
6630.000000;0.118049
6629.000000;0.115088
6628.000000;0.112151
6627.000000;0.109290
6626.000000;0.106446
6625.000000;0.103558
6624.000000;0.100663
6623.000000;0.097839
6622.000000;0.095072
6621.000000;0.092271
6620.000000;0.089402
6619.000000;0.086532
6618.000000;0.083740
6617.000000;0.081033
6616.000000;0.078367
6615.000000;0.075704
6614.000000;0.073029
6613.000000;0.070339
6612.000000;0.067649
6611.000000;0.064975
6610.000000;0.062314
6609.000000;0.059643
6608.000000;0.056951
6607.000000;0.054257
6606.000000;0.051592
6605.000000;0.048976
6604.000000;0.046404
6603.000000;0.043851
6602.000000;0.041296
6601.000000;0.038739
6600.000000;0.036195
6599.000000;0.033668
6598.000000;0.031161
6597.000000;0.028688
6596.000000;0.026257
6595.000000;0.023842
6594.000000;0.021404
6593.000000;0.018948
6592.000000;0.016505
6591.000000;0.014072
6590.000000;0.011603
6589.000000;0.009085
6588.000000;0.006551
6587.000000;0.004019
6586.000000;0.001466
6585.000000;-0.001093
6584.000000;-0.003562
6583.000000;-0.005867
6582.000000;-0.008065
6581.000000;-0.010295
6580.000000;-0.012632
6579.000000;-0.015027
6578.000000;-0.017399
6577.000000;-0.019717
6576.000000;-0.022007
6575.000000;-0.024309
6574.000000;-0.026634
6573.000000;-0.028946
6572.000000;-0.031197
6571.000000;-0.033388
6570.000000;-0.035583
6569.000000;-0.037843
6568.000000;-0.040165
6567.000000;-0.042495
6566.000000;-0.044786
6565.000000;-0.047022
6564.000000;-0.049211
6563.000000;-0.051379
6562.000000;-0.053559
6561.000000;-0.055765
6560.000000;-0.057979
6559.000000;-0.060176
6558.000000;-0.062350
6557.000000;-0.064500
6556.000000;-0.066605
6555.000000;-0.068650
6554.000000;-0.070665
6553.000000;-0.072696
6552.000000;-0.074775
6551.000000;-0.076899
6550.000000;-0.079051
6549.000000;-0.081208
6548.000000;-0.083345
6547.000000;-0.085449
6546.000000;-0.087523
6545.000000;-0.089568
6544.000000;-0.091573
6543.000000;-0.093540
6542.000000;-0.095501
6541.000000;-0.097495
6540.000000;-0.099534
6539.000000;-0.101603
6538.000000;-0.103669
6537.000000;-0.105690
6536.000000;-0.107649
6535.000000;-0.109574
6534.000000;-0.111515
6533.000000;-0.113489
6532.000000;-0.115468
6531.000000;-0.117428
6530.000000;-0.119379
6529.000000;-0.121333
6528.000000;-0.123287
6527.000000;-0.125235
6526.000000;-0.127178
6525.000000;-0.129095
6524.000000;-0.130957
6523.000000;-0.132771
6522.000000;-0.134583
6521.000000;-0.136421
6520.000000;-0.138267
6519.000000;-0.140106
6518.000000;-0.141954
6517.000000;-0.143818
6516.000000;-0.145660
6515.000000;-0.147442
6514.000000;-0.149191
6513.000000;-0.150958
6512.000000;-0.152757
6511.000000;-0.154556
6510.000000;-0.156325
6509.000000;-0.158055
6508.000000;-0.159768
6507.000000;-0.161508
6506.000000;-0.163314
6505.000000;-0.165161
6504.000000;-0.166969
6503.000000;-0.168692
6502.000000;-0.170373
6501.000000;-0.172075
6500.000000;-0.173794
6499.000000;-0.175485
6498.000000;-0.177139
6497.000000;-0.178797
6496.000000;-0.180479
6495.000000;-0.182163
6494.000000;-0.183825
6493.000000;-0.185471
6492.000000;-0.187115
6491.000000;-0.188766
6490.000000;-0.190430
6489.000000;-0.192096
6488.000000;-0.193742
6487.000000;-0.195354
6486.000000;-0.196951
6485.000000;-0.198559
6484.000000;-0.200174
6483.000000;-0.201779
6482.000000;-0.203367
6481.000000;-0.204945
6480.000000;-0.206518
6479.000000;-0.208094
6478.000000;-0.209685
6477.000000;-0.211291
6476.000000;-0.212880
6475.000000;-0.214430
6474.000000;-0.215953
6473.000000;-0.217481
6472.000000;-0.219015
6471.000000;-0.220539
6470.000000;-0.222050
6469.000000;-0.223559
6468.000000;-0.225061
6467.000000;-0.226545
6466.000000;-0.228018
6465.000000;-0.229498
6464.000000;-0.230979
6463.000000;-0.232439
6462.000000;-0.233880
6461.000000;-0.235332
6460.000000;-0.236818
6459.000000;-0.238329
6458.000000;-0.239832
6457.000000;-0.241296
6456.000000;-0.242711
6455.000000;-0.244104
6454.000000;-0.245514
6453.000000;-0.246949
6452.000000;-0.248373
6451.000000;-0.249758
6450.000000;-0.251130
6449.000000;-0.252533
6448.000000;-0.253966
6447.000000;-0.255395
6446.000000;-0.256800
6445.000000;-0.258191
6444.000000;-0.259578
6443.000000;-0.260952
6442.000000;-0.262305
6441.000000;-0.263639
6440.000000;-0.264950
6439.000000;-0.266237
6438.000000;-0.267515
6437.000000;-0.268804
6436.000000;-0.270110
6435.000000;-0.271422
6434.000000;-0.272743
6433.000000;-0.274081
6432.000000;-0.275430
6431.000000;-0.276771
6430.000000;-0.278090
6429.000000;-0.279390
6428.000000;-0.280688
6427.000000;-0.281999
6426.000000;-0.283329
6425.000000;-0.284657
6424.000000;-0.285952
6423.000000;-0.287206
6422.000000;-0.288452
6421.000000;-0.289714
6420.000000;-0.290975
6419.000000;-0.292200
6418.000000;-0.293396
6417.000000;-0.294603
6416.000000;-0.295834
6415.000000;-0.297055
6414.000000;-0.298237
6413.000000;-0.299389
6412.000000;-0.300548
6411.000000;-0.301737
6410.000000;-0.302957
6409.000000;-0.304191
6408.000000;-0.305422
6407.000000;-0.306640
6406.000000;-0.307847
6405.000000;-0.309043
6404.000000;-0.310224
6403.000000;-0.311394
6402.000000;-0.312572
6401.000000;-0.313769
6400.000000;-0.314961
6399.000000;-0.316107
6398.000000;-0.317199
6397.000000;-0.318268
6396.000000;-0.319360
6395.000000;-0.320491
6394.000000;-0.321643
6393.000000;-0.322780
6392.000000;-0.323884
6391.000000;-0.324962
6390.000000;-0.326031
6389.000000;-0.327095
6388.000000;-0.328141
6387.000000;-0.329182
6386.000000;-0.330253
6385.000000;-0.331376
6384.000000;-0.332520
6383.000000;-0.333638
6382.000000;-0.334715
6381.000000;-0.335768
6380.000000;-0.336811
6379.000000;-0.337847
6378.000000;-0.338884
6377.000000;-0.339935
6376.000000;-0.340997
6375.000000;-0.342055
6374.000000;-0.343097
6373.000000;-0.344117
6372.000000;-0.345117
6371.000000;-0.346114
6370.000000;-0.347138
6369.000000;-0.348199
6368.000000;-0.349269
6367.000000;-0.350311
6366.000000;-0.351313
6365.000000;-0.352293
6364.000000;-0.353264
6363.000000;-0.354231
6362.000000;-0.355207
6361.000000;-0.356202
6360.000000;-0.357204
6359.000000;-0.358190
6358.000000;-0.359151
6357.000000;-0.360088
6356.000000;-0.361007
6355.000000;-0.361913
6354.000000;-0.362835
6353.000000;-0.363793
6352.000000;-0.364775
6351.000000;-0.365739
6350.000000;-0.366671
6349.000000;-0.367591
6348.000000;-0.368526
6347.000000;-0.369480
6346.000000;-0.370442
6345.000000;-0.371410
6344.000000;-0.372378
6343.000000;-0.373325
6342.000000;-0.374227
6341.000000;-0.375078
6340.000000;-0.375900
6339.000000;-0.376733
6338.000000;-0.377605
6337.000000;-0.378509
6336.000000;-0.379412
6335.000000;-0.380293
6334.000000;-0.381156
6333.000000;-0.382014
6332.000000;-0.382871
6331.000000;-0.383729
6330.000000;-0.384604
6329.000000;-0.385507
6328.000000;-0.386417
6327.000000;-0.387304
6326.000000;-0.388165
6325.000000;-0.389019
6324.000000;-0.389878
6323.000000;-0.390735
6322.000000;-0.391578
6321.000000;-0.392410
6320.000000;-0.393244
6319.000000;-0.394084
6318.000000;-0.394925
6317.000000;-0.395744
6316.000000;-0.396528
6315.000000;-0.397295
6314.000000;-0.398090
6313.000000;-0.398932
6312.000000;-0.399780
6311.000000;-0.400573
6310.000000;-0.401305
6309.000000;-0.402030
6308.000000;-0.402804
6307.000000;-0.403636
6306.000000;-0.404491
6305.000000;-0.405327
6304.000000;-0.406121
6303.000000;-0.406876
6302.000000;-0.407617
6301.000000;-0.408368
6300.000000;-0.409139
6299.000000;-0.409926
6298.000000;-0.410719
6297.000000;-0.411497
6296.000000;-0.412238
6295.000000;-0.412946
6294.000000;-0.413659
6293.000000;-0.414408
6292.000000;-0.415183
6291.000000;-0.415949
6290.000000;-0.416691
6289.000000;-0.417426
6288.000000;-0.418163
6287.000000;-0.418889
6286.000000;-0.419598
6285.000000;-0.420299
6284.000000;-0.421013
6283.000000;-0.421742
6282.000000;-0.422473
6281.000000;-0.423186
6280.000000;-0.423870
6279.000000;-0.424540
6278.000000;-0.425229
6277.000000;-0.425961
6276.000000;-0.426719
6275.000000;-0.427468
6274.000000;-0.428189
6273.000000;-0.428884
6272.000000;-0.429558
6271.000000;-0.430216
6270.000000;-0.430873
6269.000000;-0.431554
6268.000000;-0.432265
6267.000000;-0.432988
6266.000000;-0.433698
6265.000000;-0.434383
6264.000000;-0.435052
6263.000000;-0.435724
6262.000000;-0.436409
6261.000000;-0.437097
6260.000000;-0.437768
6259.000000;-0.438410
6258.000000;-0.439032
6257.000000;-0.439649
6256.000000;-0.440267
6255.000000;-0.440888
6254.000000;-0.441522
6253.000000;-0.442178
6252.000000;-0.442846
6251.000000;-0.443511
6250.000000;-0.444168
6249.000000;-0.444824
6248.000000;-0.445476
6247.000000;-0.446112
6246.000000;-0.446722
6245.000000;-0.447310
6244.000000;-0.447886
6243.000000;-0.448459
6242.000000;-0.449033
6241.000000;-0.449618
6240.000000;-0.450224
6239.000000;-0.450869
6238.000000;-0.451549
6237.000000;-0.452228
6236.000000;-0.452853
6235.000000;-0.453417
6234.000000;-0.453971
6233.000000;-0.454564
6232.000000;-0.455188
6231.000000;-0.455800
6230.000000;-0.456383
6229.000000;-0.456960
6228.000000;-0.457549
6227.000000;-0.458141
6226.000000;-0.458726
6225.000000;-0.459309
6224.000000;-0.459897
6223.000000;-0.460487
6222.000000;-0.461066
6221.000000;-0.461627
6220.000000;-0.462170
6219.000000;-0.462699
6218.000000;-0.463231
6217.000000;-0.463779
6216.000000;-0.464342
6215.000000;-0.464904
6214.000000;-0.465456
6213.000000;-0.466003
6212.000000;-0.466559
6211.000000;-0.467129
6210.000000;-0.467705
6209.000000;-0.468265
6208.000000;-0.468802
6207.000000;-0.469332
6206.000000;-0.469881
6205.000000;-0.470442
6204.000000;-0.470979
6203.000000;-0.471473
6202.000000;-0.471955
6201.000000;-0.472469
6200.000000;-0.473022
6199.000000;-0.473589
6198.000000;-0.474152
6197.000000;-0.474717
6196.000000;-0.475284
6195.000000;-0.475843
6194.000000;-0.476379
6193.000000;-0.476888
6192.000000;-0.477374
6191.000000;-0.477852
6190.000000;-0.478346
6189.000000;-0.478865
6188.000000;-0.479393
6187.000000;-0.479903
6186.000000;-0.480394
6185.000000;-0.480889
6184.000000;-0.481408
6183.000000;-0.481947
6182.000000;-0.482484
6181.000000;-0.482993
6180.000000;-0.483460
6179.000000;-0.483906
6178.000000;-0.484374
6177.000000;-0.484887
6176.000000;-0.485421
6175.000000;-0.485932
6174.000000;-0.486412
6173.000000;-0.486883
6172.000000;-0.487364
6171.000000;-0.487847
6170.000000;-0.488322
6169.000000;-0.488782
6168.000000;-0.489223
6167.000000;-0.489646
6166.000000;-0.490072
6165.000000;-0.490531
6164.000000;-0.491030
6163.000000;-0.491547
6162.000000;-0.492056
6161.000000;-0.492545
6160.000000;-0.493011
6159.000000;-0.493458
6158.000000;-0.493899
6157.000000;-0.494344
6156.000000;-0.494794
6155.000000;-0.495248
6154.000000;-0.495711
6153.000000;-0.496183
6152.000000;-0.496652
6151.000000;-0.497102
6150.000000;-0.497537
6149.000000;-0.497975
6148.000000;-0.498421
6147.000000;-0.498870
6146.000000;-0.499314
6145.000000;-0.499754
6144.000000;-0.500187
6143.000000;-0.500619
6142.000000;-0.501061
6141.000000;-0.501517
6140.000000;-0.501971
6139.000000;-0.502412
6138.000000;-0.502848
6137.000000;-0.503292
6136.000000;-0.503738
6135.000000;-0.504165
6134.000000;-0.504570
6133.000000;-0.504972
6132.000000;-0.505383
6131.000000;-0.505801
6130.000000;-0.506222
6129.000000;-0.506647
6128.000000;-0.507068
6127.000000;-0.507471
6126.000000;-0.507860
6125.000000;-0.508252
6124.000000;-0.508663
6123.000000;-0.509090
6122.000000;-0.509527
6121.000000;-0.509963
6120.000000;-0.510385
6119.000000;-0.510788
6118.000000;-0.511180
6117.000000;-0.511572
6116.000000;-0.511955
6115.000000;-0.512314
6114.000000;-0.512653
6113.000000;-0.513002
6112.000000;-0.513378
6111.000000;-0.513772
6110.000000;-0.514165
6109.000000;-0.514555
6108.000000;-0.514941
6107.000000;-0.515323
6106.000000;-0.515698
6105.000000;-0.516065
6104.000000;-0.516427
6103.000000;-0.516787
6102.000000;-0.517153
6101.000000;-0.517534
6100.000000;-0.517927
6099.000000;-0.518321
6098.000000;-0.518710
6097.000000;-0.519099
6096.000000;-0.519491
6095.000000;-0.519888
6094.000000;-0.520284
6093.000000;-0.520671
6092.000000;-0.521038
6091.000000;-0.521383
6090.000000;-0.521719
6089.000000;-0.522050
6088.000000;-0.522370
6087.000000;-0.522681
6086.000000;-0.523012
6085.000000;-0.523387
6084.000000;-0.523790
6083.000000;-0.524174
6082.000000;-0.524519
6081.000000;-0.524847
6080.000000;-0.525189
6079.000000;-0.525550
6078.000000;-0.525917
6077.000000;-0.526276
6076.000000;-0.526615
6075.000000;-0.526924
6074.000000;-0.527209
6073.000000;-0.527491
6072.000000;-0.527795
6071.000000;-0.528129
6070.000000;-0.528488
6069.000000;-0.528853
6068.000000;-0.529204
6067.000000;-0.529531
6066.000000;-0.529843
6065.000000;-0.530155
6064.000000;-0.530472
6063.000000;-0.530789
6062.000000;-0.531104
6061.000000;-0.531417
6060.000000;-0.531720
6059.000000;-0.532006
6058.000000;-0.532287
6057.000000;-0.532578
6056.000000;-0.532884
6055.000000;-0.533190
6054.000000;-0.533488
6053.000000;-0.533781
6052.000000;-0.534070
6051.000000;-0.534350
6050.000000;-0.534630
6049.000000;-0.534929
6048.000000;-0.535257
6047.000000;-0.535601
6046.000000;-0.535937
6045.000000;-0.536244
6044.000000;-0.536516
6043.000000;-0.536766
6042.000000;-0.537021
6041.000000;-0.537301
6040.000000;-0.537605
6039.000000;-0.537915
6038.000000;-0.538218
6037.000000;-0.538513
6036.000000;-0.538797
6035.000000;-0.539067
6034.000000;-0.539325
6033.000000;-0.539582
6032.000000;-0.539838
6031.000000;-0.540087
6030.000000;-0.540333
6029.000000;-0.540590
6028.000000;-0.540862
6027.000000;-0.541135
6026.000000;-0.541395
6025.000000;-0.541642
6024.000000;-0.541892
6023.000000;-0.542154
6022.000000;-0.542421
6021.000000;-0.542678
6020.000000;-0.542916
6019.000000;-0.543148
6018.000000;-0.543388
6017.000000;-0.543635
6016.000000;-0.543866
6015.000000;-0.544076
6014.000000;-0.544287
6013.000000;-0.544524
6012.000000;-0.544783
6011.000000;-0.545043
6010.000000;-0.545289
6009.000000;-0.545514
6008.000000;-0.545720
6007.000000;-0.545920
6006.000000;-0.546141
6005.000000;-0.546394
6004.000000;-0.546661
6003.000000;-0.546912
6002.000000;-0.547146
6001.000000;-0.547381
6000.000000;-0.547622
5999.000000;-0.547851
5998.000000;-0.548055
5997.000000;-0.548235
5996.000000;-0.548402
5995.000000;-0.548569
5994.000000;-0.548750
5993.000000;-0.548950
5992.000000;-0.549159
5991.000000;-0.549368
5990.000000;-0.549569
5989.000000;-0.549762
5988.000000;-0.549945
5987.000000;-0.550123
5986.000000;-0.550313
5985.000000;-0.550520
5984.000000;-0.550719
5983.000000;-0.550886
5982.000000;-0.551025
5981.000000;-0.551164
5980.000000;-0.551322
5979.000000;-0.551499
5978.000000;-0.551694
5977.000000;-0.551904
5976.000000;-0.552118
5975.000000;-0.552318
5974.000000;-0.552499
5973.000000;-0.552666
5972.000000;-0.552815
5971.000000;-0.552944
5970.000000;-0.553064
5969.000000;-0.553189
5968.000000;-0.553327
5967.000000;-0.553480
5966.000000;-0.553652
5965.000000;-0.553836
5964.000000;-0.554005
5963.000000;-0.554144
5962.000000;-0.554279
5961.000000;-0.554444
5960.000000;-0.554625
5959.000000;-0.554776
5958.000000;-0.554883
5957.000000;-0.554983
5956.000000;-0.555106
5955.000000;-0.555247
5954.000000;-0.555382
5953.000000;-0.555501
5952.000000;-0.555605
5951.000000;-0.555697
5950.000000;-0.555795
5949.000000;-0.555917
5948.000000;-0.556055
5947.000000;-0.556175
5946.000000;-0.556260
5945.000000;-0.556335
5944.000000;-0.556430
5943.000000;-0.556552
5942.000000;-0.556687
5941.000000;-0.556821
5940.000000;-0.556946
5939.000000;-0.557057
5938.000000;-0.557159
5937.000000;-0.557266
5936.000000;-0.557375
5935.000000;-0.557472
5934.000000;-0.557550
5933.000000;-0.557621
5932.000000;-0.557701
5931.000000;-0.557789
5930.000000;-0.557877
5929.000000;-0.557962
5928.000000;-0.558042
5927.000000;-0.558116
5926.000000;-0.558185
5925.000000;-0.558257
5924.000000;-0.558335
5923.000000;-0.558421
5922.000000;-0.558512
5921.000000;-0.558605
5920.000000;-0.558686
5919.000000;-0.558745
5918.000000;-0.558786
5917.000000;-0.558822
5916.000000;-0.558860
5915.000000;-0.558900
5914.000000;-0.558946
5913.000000;-0.559008
5912.000000;-0.559086
5911.000000;-0.559173
5910.000000;-0.559264
5909.000000;-0.559357
5908.000000;-0.559441
5907.000000;-0.559497
5906.000000;-0.559526
5905.000000;-0.559545
5904.000000;-0.559570
5903.000000;-0.559606
5902.000000;-0.559651
5901.000000;-0.559695
5900.000000;-0.559720
5899.000000;-0.559727
5898.000000;-0.559740
5897.000000;-0.559786
5896.000000;-0.559857
5895.000000;-0.559923
5894.000000;-0.559971
5893.000000;-0.560013
5892.000000;-0.560056
5891.000000;-0.560090
5890.000000;-0.560103
5889.000000;-0.560102
5888.000000;-0.560100
5887.000000;-0.560099
5886.000000;-0.560099
5885.000000;-0.560102
5884.000000;-0.560102
5883.000000;-0.560091
5882.000000;-0.560071
5881.000000;-0.560054
5880.000000;-0.560047
5879.000000;-0.560045
5878.000000;-0.560044
5877.000000;-0.560045
5876.000000;-0.560052
5875.000000;-0.560061
5874.000000;-0.560068
5873.000000;-0.560063
5872.000000;-0.560031
5871.000000;-0.559960
5870.000000;-0.559859
5869.000000;-0.559757
5868.000000;-0.559680
5867.000000;-0.559634
5866.000000;-0.559611
5865.000000;-0.559593
5864.000000;-0.559561
5863.000000;-0.559506
5862.000000;-0.559439
5861.000000;-0.559371
5860.000000;-0.559301
5859.000000;-0.559229
5858.000000;-0.559156
5857.000000;-0.559076
5856.000000;-0.558979
5855.000000;-0.558865
5854.000000;-0.558761
5853.000000;-0.558690
5852.000000;-0.558641
5851.000000;-0.558582
5850.000000;-0.558501
5849.000000;-0.558410
5848.000000;-0.558314
5847.000000;-0.558209
5846.000000;-0.558093
5845.000000;-0.557977
5844.000000;-0.557865
5843.000000;-0.557749
5842.000000;-0.557629
5841.000000;-0.557503
5840.000000;-0.557363
5839.000000;-0.557201
5838.000000;-0.557033
5837.000000;-0.556876
5836.000000;-0.556726
5835.000000;-0.556565
5834.000000;-0.556394
5833.000000;-0.556232
5832.000000;-0.556084
5831.000000;-0.555935
5830.000000;-0.555777
5829.000000;-0.555617
5828.000000;-0.555462
5827.000000;-0.555308
5826.000000;-0.555153
5825.000000;-0.554995
5824.000000;-0.554825
5823.000000;-0.554636
5822.000000;-0.554441
5821.000000;-0.554256
5820.000000;-0.554080
5819.000000;-0.553896
5818.000000;-0.553702
5817.000000;-0.553507
5816.000000;-0.553302
5815.000000;-0.553072
5814.000000;-0.552822
5813.000000;-0.552580
5812.000000;-0.552359
5811.000000;-0.552146
5810.000000;-0.551929
5809.000000;-0.551706
5808.000000;-0.551473
5807.000000;-0.551220
5806.000000;-0.550949
5805.000000;-0.550672
5804.000000;-0.550395
5803.000000;-0.550122
5802.000000;-0.549865
5801.000000;-0.549630
5800.000000;-0.549399
5799.000000;-0.549142
5798.000000;-0.548859
5797.000000;-0.548573
5796.000000;-0.548297
5795.000000;-0.548018
5794.000000;-0.547733
5793.000000;-0.547460
5792.000000;-0.547199
5791.000000;-0.546926
5790.000000;-0.546628
5789.000000;-0.546318
5788.000000;-0.546015
5787.000000;-0.545715
5786.000000;-0.545406
5785.000000;-0.545081
5784.000000;-0.544733
5783.000000;-0.544360
5782.000000;-0.543975
5781.000000;-0.543609
5780.000000;-0.543278
5779.000000;-0.542963
5778.000000;-0.542639
5777.000000;-0.542296
5776.000000;-0.541932
5775.000000;-0.541543
5774.000000;-0.541129
5773.000000;-0.540710
5772.000000;-0.540301
5771.000000;-0.539902
5770.000000;-0.539504
5769.000000;-0.539097
5768.000000;-0.538679
5767.000000;-0.538257
5766.000000;-0.537852
5765.000000;-0.537477
5764.000000;-0.537119
5763.000000;-0.536747
5762.000000;-0.536344
5761.000000;-0.535914
5760.000000;-0.535467
5759.000000;-0.535009
5758.000000;-0.534555
5757.000000;-0.534124
5756.000000;-0.533707
5755.000000;-0.533273
5754.000000;-0.532796
5753.000000;-0.532287
5752.000000;-0.531770
5751.000000;-0.531263
5750.000000;-0.530772
5749.000000;-0.530291
5748.000000;-0.529800
5747.000000;-0.529283
5746.000000;-0.528749
5745.000000;-0.528220
5744.000000;-0.527706
5743.000000;-0.527195
5742.000000;-0.526675
5741.000000;-0.526152
5740.000000;-0.525633
5739.000000;-0.525116
5738.000000;-0.524598
5737.000000;-0.524080
5736.000000;-0.523563
5735.000000;-0.523044
5734.000000;-0.522517
5733.000000;-0.521972
5732.000000;-0.521395
5731.000000;-0.520782
5730.000000;-0.520156
5729.000000;-0.519540
5728.000000;-0.518938
5727.000000;-0.518337
5726.000000;-0.517733
5725.000000;-0.517129
5724.000000;-0.516519
5723.000000;-0.515897
5722.000000;-0.515273
5721.000000;-0.514660
5720.000000;-0.514052
5719.000000;-0.513435
5718.000000;-0.512808
5717.000000;-0.512176
5716.000000;-0.511535
5715.000000;-0.510877
5714.000000;-0.510223
5713.000000;-0.509602
5712.000000;-0.509003
5711.000000;-0.508384
5710.000000;-0.507724
5709.000000;-0.507041
5708.000000;-0.506361
5707.000000;-0.505689
5706.000000;-0.505018
5705.000000;-0.504343
5704.000000;-0.503654
5703.000000;-0.502945
5702.000000;-0.502228
5701.000000;-0.501517
5700.000000;-0.500814
5699.000000;-0.500100
5698.000000;-0.499372
5697.000000;-0.498639
5696.000000;-0.497920
5695.000000;-0.497206
5694.000000;-0.496518
5693.000000;-0.495779
5692.000000;-0.495041
5691.000000;-0.494310
5690.000000;-0.493553
5689.000000;-0.492821
5688.000000;-0.492105
5687.000000;-0.491388
5686.000000;-0.490663
5685.000000;-0.489949
5684.000000;-0.489246
5683.000000;-0.488535
5682.000000;-0.487810
5681.000000;-0.487093
5680.000000;-0.486394
5679.000000;-0.485698
5678.000000;-0.484991
5677.000000;-0.484284
5676.000000;-0.483587
5675.000000;-0.482895
5674.000000;-0.482186
5673.000000;-0.481449
5672.000000;-0.480694
5671.000000;-0.479941
5670.000000;-0.479214
5669.000000;-0.478516
5668.000000;-0.477824
5667.000000;-0.477116
5666.000000;-0.476392
5665.000000;-0.475663
5664.000000;-0.474931
5663.000000;-0.474195
5662.000000;-0.473465
5661.000000;-0.472750
5660.000000;-0.472040
5659.000000;-0.471327
5658.000000;-0.470637
5657.000000;-0.470001
5656.000000;-0.469414
5655.000000;-0.468827
5654.000000;-0.468196
5653.000000;-0.467518
5652.000000;-0.466820
5651.000000;-0.466140
5650.000000;-0.465501
5649.000000;-0.464895
5648.000000;-0.464284
5647.000000;-0.463641
5646.000000;-0.462975
5645.000000;-0.462321
5644.000000;-0.461702
5643.000000;-0.461123
5642.000000;-0.460583
5641.000000;-0.460064
5640.000000;-0.459526
5639.000000;-0.458941
5638.000000;-0.458324
5637.000000;-0.457715
5636.000000;-0.457136
5635.000000;-0.456579
5634.000000;-0.456031
5633.000000;-0.455478
5632.000000;-0.454908
5631.000000;-0.454336
5630.000000;-0.453804
5629.000000;-0.453327
5628.000000;-0.452873
5627.000000;-0.452398
5626.000000;-0.451906
5625.000000;-0.451425
5624.000000;-0.450962
5623.000000;-0.450516
5622.000000;-0.450104
5621.000000;-0.449734
5620.000000;-0.449363
5619.000000;-0.448948
5618.000000;-0.448503
5617.000000;-0.448079
5616.000000;-0.447684
5615.000000;-0.447292
5614.000000;-0.446900
5613.000000;-0.446531
5612.000000;-0.446190
5611.000000;-0.445858
5610.000000;-0.445534
5609.000000;-0.445231
5608.000000;-0.444944
5607.000000;-0.444644
5606.000000;-0.444323
5605.000000;-0.443991
5604.000000;-0.443652
5603.000000;-0.443310
5602.000000;-0.442989
5601.000000;-0.442706
5600.000000;-0.442446
5599.000000;-0.442181
5598.000000;-0.441921
5597.000000;-0.441692
5596.000000;-0.441493
5595.000000;-0.441311
5594.000000;-0.441158
5593.000000;-0.441049
5592.000000;-0.440962
5591.000000;-0.440855
5590.000000;-0.440730
5589.000000;-0.440621
5588.000000;-0.440527
5587.000000;-0.440426
5586.000000;-0.440323
5585.000000;-0.440243
5584.000000;-0.440175
5583.000000;-0.440078
5582.000000;-0.439936
5581.000000;-0.439776
5580.000000;-0.439611
5579.000000;-0.439439
5578.000000;-0.439276
5577.000000;-0.439153
5576.000000;-0.439067
5575.000000;-0.438996
5574.000000;-0.438941
5573.000000;-0.438916
5572.000000;-0.438896
5571.000000;-0.438833
5570.000000;-0.438732
5569.000000;-0.438656
5568.000000;-0.438635
5567.000000;-0.438649
5566.000000;-0.438679
5565.000000;-0.438728
5564.000000;-0.438781
5563.000000;-0.438816
5562.000000;-0.438859
5561.000000;-0.438961
5560.000000;-0.439105
5559.000000;-0.439205
5558.000000;-0.439215
5557.000000;-0.439169
5556.000000;-0.439095
5555.000000;-0.438953
5554.000000;-0.438725
5553.000000;-0.438471
5552.000000;-0.438249
5551.000000;-0.438029
5550.000000;-0.437761
5549.000000;-0.437482
5548.000000;-0.437307
5547.000000;-0.437318
5546.000000;-0.437521
5545.000000;-0.437860
5544.000000;-0.438241
5543.000000;-0.438584
5542.000000;-0.438875
5541.000000;-0.439145
5540.000000;-0.439360
5539.000000;-0.439406
5538.000000;-0.439234
5537.000000;-0.438955
5536.000000;-0.438708
5535.000000;-0.438525
5534.000000;-0.438369
5533.000000;-0.438249
5532.000000;-0.438210
5531.000000;-0.438272
5530.000000;-0.438447
5529.000000;-0.438771
5528.000000;-0.439241
5527.000000;-0.439748
5526.000000;-0.440128
5525.000000;-0.440255
5524.000000;-0.440096
5523.000000;-0.439727
5522.000000;-0.439316
5521.000000;-0.439018
5520.000000;-0.438806
5519.000000;-0.438492
5518.000000;-0.437995
5517.000000;-0.437487
5516.000000;-0.437217
5515.000000;-0.437275
5514.000000;-0.437573
5513.000000;-0.437997
5512.000000;-0.438406
5511.000000;-0.438561
5510.000000;-0.438279
5509.000000;-0.437665
5508.000000;-0.437052
5507.000000;-0.436669
5506.000000;-0.436451
5505.000000;-0.436217
5504.000000;-0.435954
5503.000000;-0.435839
5502.000000;-0.435998
5501.000000;-0.436373
5500.000000;-0.436845
5499.000000;-0.437388
5498.000000;-0.438011
5497.000000;-0.438442
5496.000000;-0.438076
5495.000000;-0.436535
5494.000000;-0.434172
5493.000000;-0.431836
5492.000000;-0.430058
5491.000000;-0.428668
5490.000000;-0.427323
5489.000000;-0.426110
5488.000000;-0.425448
5487.000000;-0.425637
5486.000000;-0.426700
5485.000000;-0.428491
5484.000000;-0.430678
5483.000000;-0.432743
5482.000000;-0.434296
5481.000000;-0.435418
5480.000000;-0.436363
5479.000000;-0.436802
5478.000000;-0.435865
5477.000000;-0.433164
5476.000000;-0.429532
5475.000000;-0.426529
5474.000000;-0.425083
5473.000000;-0.424872
5472.000000;-0.425018
5471.000000;-0.425018
5470.000000;-0.424909
5469.000000;-0.424907
5468.000000;-0.425074
5467.000000;-0.425278
5466.000000;-0.425319
5465.000000;-0.424874
5464.000000;-0.423556
5463.000000;-0.421337
5462.000000;-0.418851
5461.000000;-0.417008
5460.000000;-0.416233
5459.000000;-0.416189
5458.000000;-0.416330
5457.000000;-0.416481
5456.000000;-0.416796
5455.000000;-0.417450
5454.000000;-0.418416
5453.000000;-0.419284
5452.000000;-0.419417
5451.000000;-0.418553
5450.000000;-0.417015
5449.000000;-0.415082
5448.000000;-0.412497
5447.000000;-0.409076
5446.000000;-0.405439
5445.000000;-0.402326
5444.000000;-0.399552
5443.000000;-0.396496
5442.000000;-0.393399
5441.000000;-0.391371
5440.000000;-0.391126
5439.000000;-0.392121
5438.000000;-0.393066
5437.000000;-0.393033
5436.000000;-0.391960
5435.000000;-0.390557
5434.000000;-0.389689
5433.000000;-0.389253
5432.000000;-0.387964
5431.000000;-0.384756
5430.000000;-0.380082
5429.000000;-0.375628
5428.000000;-0.372931
5427.000000;-0.372282
5426.000000;-0.372833
5425.000000;-0.373538
5424.000000;-0.374000
5423.000000;-0.374616
5422.000000;-0.375986
5421.000000;-0.378188
5420.000000;-0.380702
5419.000000;-0.382768
5418.000000;-0.383462
5417.000000;-0.381782
5416.000000;-0.377297
5415.000000;-0.370699
5414.000000;-0.363329
5413.000000;-0.355919
5412.000000;-0.348290
5411.000000;-0.340589
5410.000000;-0.334009
5409.000000;-0.329761
5408.000000;-0.327940
5407.000000;-0.327972
5406.000000;-0.329531
5405.000000;-0.332287
5404.000000;-0.335269
5403.000000;-0.337333
5402.000000;-0.338115
5401.000000;-0.337860
5400.000000;-0.336506
5399.000000;-0.333808
5398.000000;-0.329900
5397.000000;-0.325020
5396.000000;-0.319112
5395.000000;-0.312197
5394.000000;-0.304989
5393.000000;-0.298437
5392.000000;-0.292830
5391.000000;-0.287888
5390.000000;-0.283431
5389.000000;-0.279428
5388.000000;-0.275576
5387.000000;-0.271550
5386.000000;-0.267655
5385.000000;-0.264503
5384.000000;-0.261817
5383.000000;-0.258457
5382.000000;-0.253965
5381.000000;-0.248838
5380.000000;-0.243247
5379.000000;-0.236693
5378.000000;-0.228971
5377.000000;-0.220712
5376.000000;-0.212597
5375.000000;-0.204555
5374.000000;-0.196343
5373.000000;-0.188377
5372.000000;-0.181283
5371.000000;-0.175218
5370.000000;-0.170017
5369.000000;-0.165589
5368.000000;-0.161591
5367.000000;-0.156932
5366.000000;-0.150362
5365.000000;-0.141704
5364.000000;-0.131920
5363.000000;-0.121888
5362.000000;-0.111769
5361.000000;-0.101472
5360.000000;-0.091122
5359.000000;-0.080819
5358.000000;-0.070206
5357.000000;-0.058554
5356.000000;-0.045157
5355.000000;-0.029750
5354.000000;-0.012919
5353.000000;0.003988
5352.000000;0.019908
5351.000000;0.035051
5350.000000;0.050257
5349.000000;0.065860
5348.000000;0.081901
5347.000000;0.099011
5346.000000;0.118033
5345.000000;0.138491
5344.000000;0.158438
5343.000000;0.176798
5342.000000;0.195021
5341.000000;0.215276
5340.000000;0.238075
5339.000000;0.262236
5338.000000;0.286221
5337.000000;0.309039
5336.000000;0.330678
5335.000000;0.352308
5334.000000;0.375548
5333.000000;0.400759
5332.000000;0.426441
5331.000000;0.451373
5330.000000;0.476860
5329.000000;0.505567
5328.000000;0.538389
5327.000000;0.573754
5326.000000;0.610023
5325.000000;0.647079
5324.000000;0.685325
5323.000000;0.725000
5322.000000;0.766926
5321.000000;0.812124
5320.000000;0.860521
5319.000000;0.911588
5318.000000;0.966258
5317.000000;1.026150
5316.000000;1.090738
5315.000000;1.157433
5314.000000;1.224275
5313.000000;1.288653
5312.000000;1.342627
5311.000000;1.374846
5310.000000;1.378997
5309.000000;1.357550
5308.000000;1.320522
5307.000000;1.279969
5306.000000;1.242739
5305.000000;1.210023
5304.000000;1.180989
5303.000000;1.154268
5302.000000;1.128294
5301.000000;1.102874
5300.000000;1.079739
5299.000000;1.060308
5298.000000;1.043994
5297.000000;1.029633
5296.000000;1.017141
5295.000000;1.006598
5294.000000;0.997068
5293.000000;0.987610
5292.000000;0.978634
5291.000000;0.971251
5290.000000;0.965928
5289.000000;0.962515
5288.000000;0.960622
5287.000000;0.959170
5286.000000;0.956663
5285.000000;0.952800
5284.000000;0.948895
5283.000000;0.945931
5282.000000;0.943381
5281.000000;0.940761
5280.000000;0.938856
5279.000000;0.938271
5278.000000;0.938086
5277.000000;0.937215
5276.000000;0.936008
5275.000000;0.935239
5274.000000;0.934640
5273.000000;0.933624
5272.000000;0.932448
5271.000000;0.931555
5270.000000;0.930715
5269.000000;0.929874
5268.000000;0.929900
5267.000000;0.931182
5266.000000;0.932540
5265.000000;0.932950
5264.000000;0.933363
5263.000000;0.935319
5262.000000;0.938562
5261.000000;0.941525
5260.000000;0.943390
5259.000000;0.944296
5258.000000;0.943986
5257.000000;0.941815
5256.000000;0.938199
5255.000000;0.934844
5254.000000;0.933298
5253.000000;0.933838
5252.000000;0.935468
5251.000000;0.936518
5250.000000;0.935870
5249.000000;0.934190
5248.000000;0.933574
5247.000000;0.935211
5246.000000;0.938099
5245.000000;0.940752
5244.000000;0.943034
5243.000000;0.945304
5242.000000;0.946767
5241.000000;0.946167
5240.000000;0.943523
5239.000000;0.940029
5238.000000;0.936623
5237.000000;0.933647
5236.000000;0.931466
5235.000000;0.930280
5234.000000;0.929564
5233.000000;0.928728
5232.000000;0.928178
5231.000000;0.928732
5230.000000;0.930306
5229.000000;0.932080
5228.000000;0.933572
5227.000000;0.934742
5226.000000;0.935609
5225.000000;0.936552
5224.000000;0.938265
5223.000000;0.940677
5222.000000;0.942597
5221.000000;0.943101
5220.000000;0.942550
5219.000000;0.941593
5218.000000;0.940147
5217.000000;0.938141
5216.000000;0.936335
5215.000000;0.935455
5214.000000;0.935015
5213.000000;0.934158
5212.000000;0.932728
5211.000000;0.931347
5210.000000;0.929808
5209.000000;0.926740
5208.000000;0.926690
5207.000000;0.926654
5206.000000;0.927360
5205.000000;0.926707
5204.000000;0.927988
5203.000000;0.943833
5202.000000;0.942996
5201.000000;0.941778
5200.000000;0.938896
5199.000000;0.936445
5198.000000;0.934010
5197.000000;0.932046
5196.000000;0.931321
5195.000000;0.932524
5194.000000;0.934775
5193.000000;0.936544
5192.000000;0.937215
5191.000000;0.937145
5190.000000;0.936771
5189.000000;0.936388
5188.000000;0.936272
5187.000000;0.936288
5186.000000;0.935894
5185.000000;0.935098
5184.000000;0.934853
5183.000000;0.935819
5182.000000;0.937304
5181.000000;0.938100
5180.000000;0.937896
5179.000000;0.937146
5178.000000;0.936143
5177.000000;0.935030
5176.000000;0.934226
5175.000000;0.934014
5174.000000;0.933986
5173.000000;0.933555
5172.000000;0.932759
5171.000000;0.932071
5170.000000;0.931768
5169.000000;0.931922
5168.000000;0.932574
5167.000000;0.933417
5166.000000;0.933791
5165.000000;0.933452
5164.000000;0.932926
5163.000000;0.932722
5162.000000;0.932791
5161.000000;0.933072
5160.000000;0.933811
5159.000000;0.934852
5158.000000;0.935414
5157.000000;0.935240
5156.000000;0.935212
5155.000000;0.936099
5154.000000;0.937342
5153.000000;0.937864
5152.000000;0.937510
5151.000000;0.936929
5150.000000;0.936508
5149.000000;0.936205
5148.000000;0.936005
5147.000000;0.935792
5146.000000;0.935103
5145.000000;0.933765
5144.000000;0.932498
5143.000000;0.932225
5142.000000;0.933007
5141.000000;0.934189
5140.000000;0.935249
5139.000000;0.935981
5138.000000;0.936220
5137.000000;0.935984
5136.000000;0.935599
5135.000000;0.935242
5134.000000;0.934739
5133.000000;0.934199
5132.000000;0.934257
5131.000000;0.935160
5130.000000;0.936157
5129.000000;0.936380
5128.000000;0.935886
5127.000000;0.935273
5126.000000;0.934801
5125.000000;0.934487
5124.000000;0.934528
5123.000000;0.934994
5122.000000;0.935515
5121.000000;0.935815
5120.000000;0.936134
5119.000000;0.936610
5118.000000;0.936807
5117.000000;0.936459
5116.000000;0.936107
5115.000000;0.936316
5114.000000;0.936770
5113.000000;0.936872
5112.000000;0.936731
5111.000000;0.936790
5110.000000;0.936922
5109.000000;0.936698
5108.000000;0.936180
5107.000000;0.935658
5106.000000;0.934956
5105.000000;0.933849
5104.000000;0.932885
5103.000000;0.932902
5102.000000;0.933844
5101.000000;0.934869
5100.000000;0.935570
5099.000000;0.936291
5098.000000;0.937225
5097.000000;0.937946
5096.000000;0.938033
5095.000000;0.937649
5094.000000;0.937327
5093.000000;0.937474
5092.000000;0.938111
5091.000000;0.938841
5090.000000;0.939157
5089.000000;0.938984
5088.000000;0.938771
5087.000000;0.938809
5086.000000;0.938783
5085.000000;0.938305
5084.000000;0.937547
5083.000000;0.936924
5082.000000;0.936428
5081.000000;0.935800
5080.000000;0.935174
5079.000000;0.935043
5078.000000;0.935609
5077.000000;0.936508
5076.000000;0.937146
5075.000000;0.937167
5074.000000;0.936725
5073.000000;0.936424
5072.000000;0.936776
5071.000000;0.937603
5070.000000;0.938236
5069.000000;0.938394
5068.000000;0.938498
5067.000000;0.938972
5066.000000;0.939718
5065.000000;0.940447
5064.000000;0.941042
5063.000000;0.941336
5062.000000;0.941119
5061.000000;0.940669
5060.000000;0.940727
5059.000000;0.941551
5058.000000;0.942506
5057.000000;0.942952
5056.000000;0.942982
5055.000000;0.942863
5054.000000;0.942393
5053.000000;0.941427
5052.000000;0.940500
5051.000000;0.940275
5050.000000;0.940714
5049.000000;0.941371
5048.000000;0.942124
5047.000000;0.943057
5046.000000;0.943955
5045.000000;0.944587
5044.000000;0.945220
5043.000000;0.946225
5042.000000;0.947325
5041.000000;0.947845
5040.000000;0.947628
5039.000000;0.947192
5038.000000;0.947048
5037.000000;0.947299
5036.000000;0.947850
5035.000000;0.948584
5034.000000;0.949350
5033.000000;0.950038
5032.000000;0.950605
5031.000000;0.950922
5030.000000;0.950881
5029.000000;0.950813
5028.000000;0.951373
5027.000000;0.952702
5026.000000;0.954044
5025.000000;0.954574
5024.000000;0.954340
5023.000000;0.954038
5022.000000;0.954142
5021.000000;0.954638
5020.000000;0.955327
5019.000000;0.955980
5018.000000;0.956391
5017.000000;0.956626
5016.000000;0.957098
5015.000000;0.958135
5014.000000;0.959633
5013.000000;0.961266
5012.000000;0.962743
5011.000000;0.963764
5010.000000;0.964115
5009.000000;0.964036
5008.000000;0.964087
5007.000000;0.964483
5006.000000;0.964984
5005.000000;0.965601
5004.000000;0.966783
5003.000000;0.968608
5002.000000;0.970378
5001.000000;0.971483
5000.000000;0.972136
4999.000000;0.972860
4998.000000;0.973686
4997.000000;0.974557
4996.000000;0.975809
4995.000000;0.977509
4994.000000;0.979168
4993.000000;0.980334
4992.000000;0.981409
4991.000000;0.982985
4990.000000;0.984771
4989.000000;0.985963
4988.000000;0.986540
4987.000000;0.987398
4986.000000;0.989194
4985.000000;0.991661
4984.000000;0.994093
4983.000000;0.995970
4982.000000;0.997092
4981.000000;0.997617
4980.000000;0.998077
4979.000000;0.999005
4978.000000;1.000433
4977.000000;1.002010
4976.000000;1.003562
4975.000000;1.005296
4974.000000;1.007497
4973.000000;1.010280
4972.000000;1.013553
4971.000000;1.016978
4970.000000;1.020051
4969.000000;1.022485
4968.000000;1.024512
4967.000000;1.026644
4966.000000;1.029194
4965.000000;1.032078
4964.000000;1.034896
4963.000000;1.037151
4962.000000;1.038637
4961.000000;1.039780
4960.000000;1.041339
4959.000000;1.043607
4958.000000;1.046185
4957.000000;1.048615
4956.000000;1.050947
4955.000000;1.053531
4954.000000;1.056581
4953.000000;1.060091
4952.000000;1.063835
4951.000000;1.067302
4950.000000;1.070054
4949.000000;1.072316
4948.000000;1.074800
4947.000000;1.077834
4946.000000;1.081172
4945.000000;1.084774
4944.000000;1.089117
4943.000000;1.094376
4942.000000;1.099836
4941.000000;1.104577
4940.000000;1.108310
4939.000000;1.111171
4938.000000;1.113313
4937.000000;1.115217
4936.000000;1.117862
4935.000000;1.121897
4934.000000;1.126824
4933.000000;1.131513
4932.000000;1.135405
4931.000000;1.138836
4930.000000;1.142367
4929.000000;1.146166
4928.000000;1.149989
4927.000000;1.153577
4926.000000;1.157226
4925.000000;1.161924
4924.000000;1.168475
4923.000000;1.176290
4922.000000;1.183491
4921.000000;1.188501
4920.000000;1.191313
4919.000000;1.193128
4918.000000;1.195315
4917.000000;1.198853
4916.000000;1.203984
4915.000000;1.209918
4914.000000;1.215345
4913.000000;1.219688
4912.000000;1.223549
4911.000000;1.227678
4910.000000;1.232059
4909.000000;1.236317
4908.000000;1.240425
4907.000000;1.244698
4906.000000;1.249493
4905.000000;1.255100
4904.000000;1.261436
4903.000000;1.267606
4902.000000;1.272322
4901.000000;1.275116
4900.000000;1.276821
4899.000000;1.278659
4898.000000;1.281232
4897.000000;1.284459
4896.000000;1.287984
4895.000000;1.291417
4894.000000;1.294416
4893.000000;1.296701
4892.000000;1.297983
4891.000000;1.298056
4890.000000;1.297093
4889.000000;1.295589
4888.000000;1.293851
4887.000000;1.291945
4886.000000;1.290164
4885.000000;1.288951
4884.000000;1.288049
4883.000000;1.286296
4882.000000;1.282777
4881.000000;1.277778
4880.000000;1.272240
4879.000000;1.266715
4878.000000;1.261215
4877.000000;1.255682
4876.000000;1.250217
4875.000000;1.244969
4874.000000;1.240055
4873.000000;1.235420
4872.000000;1.230614
4871.000000;1.224950
4870.000000;1.218070
4869.000000;1.210249
4868.000000;1.202086
4867.000000;1.194051
4866.000000;1.186249
4865.000000;1.178455
4864.000000;1.170355
4863.000000;1.161887
4862.000000;1.153380
4861.000000;1.145281
4860.000000;1.137751
4859.000000;1.130462
4858.000000;1.122701
4857.000000;1.113847
4856.000000;1.104005
4855.000000;1.094107
4854.000000;1.085047
4853.000000;1.076721
4852.000000;1.068263
4851.000000;1.059203
4850.000000;1.049978
4849.000000;1.041229
4848.000000;1.033078
4847.000000;1.025199
4846.000000;1.017183
4845.000000;1.008698
4844.000000;0.999702
4843.000000;0.990619
4842.000000;0.981979
4841.000000;0.973845
4840.000000;0.965905
4839.000000;0.958062
4838.000000;0.950462
4837.000000;0.942993
4836.000000;0.935354
4835.000000;0.927640
4834.000000;0.920265
4833.000000;0.913201
4832.000000;0.905899
4831.000000;0.898142
4830.000000;0.890368
4829.000000;0.882934
4828.000000;0.875620
4827.000000;0.868137
4826.000000;0.860590
4825.000000;0.853141
4824.000000;0.845699
4823.000000;0.838254
4822.000000;0.831083
4821.000000;0.824270
4820.000000;0.817392
4819.000000;0.810014
4818.000000;0.802248
4817.000000;0.794613
4816.000000;0.787617
4815.000000;0.781542
4814.000000;0.776225
4813.000000;0.770904
4812.000000;0.764746
4811.000000;0.757803
4810.000000;0.750985
4809.000000;0.744871
4808.000000;0.739049
4807.000000;0.732905
4806.000000;0.726512
4805.000000;0.720310
4804.000000;0.714326
4803.000000;0.708262
4802.000000;0.702070
4801.000000;0.695936
4800.000000;0.689863
4799.000000;0.683715
4798.000000;0.677572
4797.000000;0.671665
4796.000000;0.666042
4795.000000;0.660589
4794.000000;0.655276
4793.000000;0.650119
4792.000000;0.644999
4791.000000;0.639772
4790.000000;0.634445
4789.000000;0.629047
4788.000000;0.623475
4787.000000;0.617725
4786.000000;0.612099
4785.000000;0.606881
4784.000000;0.601937
4783.000000;0.596901
4782.000000;0.591686
4781.000000;0.586536
4780.000000;0.581657
4779.000000;0.577036
4778.000000;0.572555
4777.000000;0.568038
4776.000000;0.563249
4775.000000;0.558121
4774.000000;0.552988
4773.000000;0.548343
4772.000000;0.544319
4771.000000;0.540549
4770.000000;0.536541
4769.000000;0.532067
4768.000000;0.527217
4767.000000;0.522257
4766.000000;0.517472
4765.000000;0.513004
4764.000000;0.508784
4763.000000;0.504628
4762.000000;0.500383
4761.000000;0.495964
4760.000000;0.491389
4759.000000;0.486841
4758.000000;0.482598
4757.000000;0.478759
4756.000000;0.475100
4755.000000;0.471310
4754.000000;0.467305
4753.000000;0.463220
4752.000000;0.459184
4751.000000;0.455236
4750.000000;0.451378
4749.000000;0.447576
4748.000000;0.443732
4747.000000;0.439778
4746.000000;0.435778
4745.000000;0.431861
4744.000000;0.428086
4743.000000;0.424446
4742.000000;0.420949
4741.000000;0.417602
4740.000000;0.414347
4739.000000;0.411086
4738.000000;0.407735
4737.000000;0.404227
4736.000000;0.400534
4735.000000;0.396770
4734.000000;0.393155
4733.000000;0.389804
4732.000000;0.386611
4731.000000;0.383427
4730.000000;0.380247
4729.000000;0.377133
4728.000000;0.374055
4727.000000;0.370947
4726.000000;0.367840
4725.000000;0.364821
4724.000000;0.361872
4723.000000;0.358883
4722.000000;0.355813
4721.000000;0.352733
4720.000000;0.349719
4719.000000;0.346794
4718.000000;0.343968
4717.000000;0.341247
4716.000000;0.338600
4715.000000;0.335954
4714.000000;0.333245
4713.000000;0.330453
4712.000000;0.327609
4711.000000;0.324790
4710.000000;0.322057
4709.000000;0.319387
4708.000000;0.316710
4707.000000;0.314043
4706.000000;0.311479
4705.000000;0.309015
4704.000000;0.306491
4703.000000;0.303805
4702.000000;0.301110
4701.000000;0.298672
4700.000000;0.296566
4699.000000;0.294621
4698.000000;0.292638
4697.000000;0.290565
4696.000000;0.288466
4695.000000;0.286403
4694.000000;0.284385
4693.000000;0.282396
4692.000000;0.280404
4691.000000;0.278366
4690.000000;0.276239
4689.000000;0.274017
4688.000000;0.271775
4687.000000;0.269642
4686.000000;0.267665
4685.000000;0.265722
4684.000000;0.263634
4683.000000;0.261382
4682.000000;0.259141
4681.000000;0.257077
4680.000000;0.255212
4679.000000;0.253477
4678.000000;0.251815
4677.000000;0.250165
4676.000000;0.248458
4675.000000;0.246681
4674.000000;0.244917
4673.000000;0.243246
4672.000000;0.241665
4671.000000;0.240133
4670.000000;0.238612
4669.000000;0.237024
4668.000000;0.235263
4667.000000;0.233340
4666.000000;0.231439
4665.000000;0.229756
4664.000000;0.228316
4663.000000;0.227002
4662.000000;0.225716
4661.000000;0.224415
4660.000000;0.223057
4659.000000;0.221605
4658.000000;0.220079
4657.000000;0.218541
4656.000000;0.217034
4655.000000;0.215577
4654.000000;0.214183
4653.000000;0.212844
4652.000000;0.211536
4651.000000;0.210275
4650.000000;0.209123
4649.000000;0.208078
4648.000000;0.207013
4647.000000;0.205806
4646.000000;0.204494
4645.000000;0.203245
4644.000000;0.202182
4643.000000;0.201285
4642.000000;0.200423
4641.000000;0.199458
4640.000000;0.198339
4639.000000;0.197150
4638.000000;0.196033
4637.000000;0.195039
4636.000000;0.194089
4635.000000;0.193094
4634.000000;0.192065
4633.000000;0.191047
4632.000000;0.190032
4631.000000;0.188995
4630.000000;0.187969
4629.000000;0.187001
4628.000000;0.186079
4627.000000;0.185184
4626.000000;0.184366
4625.000000;0.183703
4624.000000;0.183178
4623.000000;0.182675
4622.000000;0.182074
4621.000000;0.181328
4620.000000;0.180460
4619.000000;0.179573
4618.000000;0.178816
4617.000000;0.178279
4616.000000;0.177900
4615.000000;0.177522
4614.000000;0.177050
4613.000000;0.176504
4612.000000;0.175940
4611.000000;0.175371
4610.000000;0.174796
4609.000000;0.174238
4608.000000;0.173731
4607.000000;0.173274
4606.000000;0.172817
4605.000000;0.172295
4604.000000;0.171714
4603.000000;0.171174
4602.000000;0.170786
4601.000000;0.170554
4600.000000;0.170370
4599.000000;0.170134
4598.000000;0.169845
4597.000000;0.169561
4596.000000;0.169327
4595.000000;0.169162
4594.000000;0.169058
4593.000000;0.168955
4592.000000;0.168779
4591.000000;0.168526
4590.000000;0.168297
4589.000000;0.168194
4588.000000;0.168229
4587.000000;0.168362
4586.000000;0.168557
4585.000000;0.168764
4584.000000;0.168885
4583.000000;0.168847
4582.000000;0.168682
4581.000000;0.168497
4580.000000;0.168371
4579.000000;0.168334
4578.000000;0.168403
4577.000000;0.168577
4576.000000;0.168808
4575.000000;0.169027
4574.000000;0.169205
4573.000000;0.169374
4572.000000;0.169591
4571.000000;0.169910
4570.000000;0.170343
4569.000000;0.170823
4568.000000;0.171241
4567.000000;0.171559
4566.000000;0.171876
4565.000000;0.172325
4564.000000;0.172927
4563.000000;0.173589
4562.000000;0.174228
4561.000000;0.174849
4560.000000;0.175509
4559.000000;0.176231
4558.000000;0.176980
4557.000000;0.177688
4556.000000;0.178317
4555.000000;0.178905
4554.000000;0.179542
4553.000000;0.180291
4552.000000;0.181147
4551.000000;0.182064
4550.000000;0.183006
4549.000000;0.183943
4548.000000;0.184845
4547.000000;0.185713
4546.000000;0.186585
4545.000000;0.187487
4544.000000;0.188406
4543.000000;0.189315
4542.000000;0.190228
4541.000000;0.191184
4540.000000;0.192198
4539.000000;0.193248
4538.000000;0.194294
4537.000000;0.195296
4536.000000;0.196242
4535.000000;0.197184
4534.000000;0.198202
4533.000000;0.199320
4532.000000;0.200457
4531.000000;0.201501
4530.000000;0.202412
4529.000000;0.203250
4528.000000;0.204106
4527.000000;0.205025
4526.000000;0.205979
4525.000000;0.206938
4524.000000;0.207926
4523.000000;0.208995
4522.000000;0.210132
4521.000000;0.211235
4520.000000;0.212241
4519.000000;0.213227
4518.000000;0.214312
4517.000000;0.215497
4516.000000;0.216666
4515.000000;0.217743
4514.000000;0.218760
4513.000000;0.219775
4512.000000;0.220817
4511.000000;0.221931
4510.000000;0.223182
4509.000000;0.224554
4508.000000;0.225926
4507.000000;0.227189
4506.000000;0.228364
4505.000000;0.229545
4504.000000;0.230794
4503.000000;0.232105
4502.000000;0.233445
4501.000000;0.234798
4500.000000;0.236174
4499.000000;0.237585
4498.000000;0.238976
4497.000000;0.240241
4496.000000;0.241383
4495.000000;0.242593
4494.000000;0.244076
4493.000000;0.245776
4492.000000;0.247431
4491.000000;0.248902
4490.000000;0.250320
4489.000000;0.251875
4488.000000;0.253595
4487.000000;0.255403
4486.000000;0.257237
4485.000000;0.259033
4484.000000;0.260704
4483.000000;0.262260
4482.000000;0.263857
4481.000000;0.265634
4480.000000;0.267556
4479.000000;0.269493
4478.000000;0.271395
4477.000000;0.273292
4476.000000;0.275207
4475.000000;0.277156
4474.000000;0.279182
4473.000000;0.281280
4472.000000;0.283356
4471.000000;0.285352
4470.000000;0.287361
4469.000000;0.289496
4468.000000;0.291720
4467.000000;0.293910
4466.000000;0.296065
4465.000000;0.298312
4464.000000;0.300712
4463.000000;0.303171
4462.000000;0.305570
4461.000000;0.307892
4460.000000;0.310202
4459.000000;0.312570
4458.000000;0.315029
4457.000000;0.317555
4456.000000;0.320083
4455.000000;0.322578
4454.000000;0.325100
4453.000000;0.327738
4452.000000;0.330500
4451.000000;0.333306
4450.000000;0.336089
4449.000000;0.338859
4448.000000;0.341674
4447.000000;0.344583
4446.000000;0.347570
4445.000000;0.350558
4444.000000;0.353479
4443.000000;0.356357
4442.000000;0.359262
4441.000000;0.362179
4440.000000;0.364982
4439.000000;0.367616
4438.000000;0.370217
4437.000000;0.373001
4436.000000;0.376058
4435.000000;0.379323
4434.000000;0.382693
4433.000000;0.386095
4432.000000;0.389475
4431.000000;0.392810
4430.000000;0.396127
4429.000000;0.399462
4428.000000;0.402800
4427.000000;0.406097
4426.000000;0.409352
4425.000000;0.412615
4424.000000;0.415956
4423.000000;0.419433
4422.000000;0.423050
4421.000000;0.426724
4420.000000;0.430338
4419.000000;0.433868
4418.000000;0.437435
4417.000000;0.441181
4416.000000;0.445135
4415.000000;0.449213
4414.000000;0.453285
4413.000000;0.457210
4412.000000;0.460905
4411.000000;0.464429
4410.000000;0.467967
4409.000000;0.471685
4408.000000;0.475623
4407.000000;0.479734
4406.000000;0.483949
4405.000000;0.488191
4404.000000;0.492445
4403.000000;0.496816
4402.000000;0.501431
4401.000000;0.506219
4400.000000;0.510898
4399.000000;0.515250
4398.000000;0.519312
4397.000000;0.523270
4396.000000;0.527274
4395.000000;0.531425
4394.000000;0.535804
4393.000000;0.540408
4392.000000;0.545123
4391.000000;0.549847
4390.000000;0.554552
4389.000000;0.559201
4388.000000;0.563763
4387.000000;0.568371
4386.000000;0.573289
4385.000000;0.578574
4384.000000;0.583929
4383.000000;0.589027
4382.000000;0.593876
4381.000000;0.598698
4380.000000;0.603609
4379.000000;0.608608
4378.000000;0.613781
4377.000000;0.619233
4376.000000;0.624843
4375.000000;0.630301
4374.000000;0.635465
4373.000000;0.640537
4372.000000;0.645849
4371.000000;0.651518
4370.000000;0.657336
4369.000000;0.662949
4368.000000;0.668188
4367.000000;0.673250
4366.000000;0.678504
4365.000000;0.684082
4364.000000;0.689778
4363.000000;0.695369
4362.000000;0.700874
4361.000000;0.706422
4360.000000;0.712048
4359.000000;0.717789
4358.000000;0.723808
4357.000000;0.730194
4356.000000;0.736738
4355.000000;0.743135
4354.000000;0.749333
4353.000000;0.755495
4352.000000;0.761668
4351.000000;0.767697
4350.000000;0.773447
4349.000000;0.778976
4348.000000;0.784496
4347.000000;0.790258
4346.000000;0.796416
4345.000000;0.802908
4344.000000;0.809562
4343.000000;0.816379
4342.000000;0.823559
4341.000000;0.831128
4340.000000;0.838712
4339.000000;0.845899
4338.000000;0.852683
4337.000000;0.859327
4336.000000;0.865910
4335.000000;0.872310
4334.000000;0.878502
4333.000000;0.884625
4332.000000;0.890775
4331.000000;0.897029
4330.000000;0.903568
4329.000000;0.910486
4328.000000;0.917506
4327.000000;0.924201
4326.000000;0.930551
4325.000000;0.936999
4324.000000;0.943868
4323.000000;0.950983
4322.000000;0.957959
4321.000000;0.964636
4320.000000;0.971048
4319.000000;0.977119
4318.000000;0.982610
4317.000000;0.987418
4316.000000;0.991882
4315.000000;0.996694
4314.000000;1.002392
4313.000000;1.008863
4312.000000;1.015427
4311.000000;1.021473
4310.000000;1.026871
4309.000000;1.031768
4308.000000;1.036309
4307.000000;1.040725
4306.000000;1.045343
4305.000000;1.050190
4304.000000;1.054807
4303.000000;1.058836
4302.000000;1.062638
4301.000000;1.066759
4300.000000;1.070911
4299.000000;1.074150
4298.000000;1.076176
4297.000000;1.077792
4296.000000;1.079757
4295.000000;1.081790
4294.000000;1.083162
4293.000000;1.083816
4292.000000;1.084284
4291.000000;1.084779
4290.000000;1.085089
4289.000000;1.085306
4288.000000;1.085992
4287.000000;1.087425
4286.000000;1.089175
4285.000000;1.090710
4284.000000;1.091978
4283.000000;1.093048
4282.000000;1.093562
4281.000000;1.093076
4280.000000;1.091846
4279.000000;1.090803
4278.000000;1.090586
4277.000000;1.090801
4276.000000;1.090343
4275.000000;1.088420
4274.000000;1.085254
4273.000000;1.081792
4272.000000;1.078786
4271.000000;1.076222
4270.000000;1.073631
4269.000000;1.070802
4268.000000;1.068068
4267.000000;1.065909
4266.000000;1.064486
4265.000000;1.063557
4264.000000;1.062688
4263.000000;1.061562
4262.000000;1.060195
4261.000000;1.058806
4260.000000;1.057392
4259.000000;1.055567
4258.000000;1.052986
4257.000000;1.049768
4256.000000;1.046297
4255.000000;1.042795
4254.000000;1.039410
4253.000000;1.036474
4252.000000;1.034237
4251.000000;1.032454
4250.000000;1.030681
4249.000000;1.028916
4248.000000;1.027408
4247.000000;1.025869
4246.000000;1.023530
4245.000000;1.020245
4244.000000;1.016865
4243.000000;1.014160
4242.000000;1.011900
4241.000000;1.009393
4240.000000;1.006497
4239.000000;1.003659
4238.000000;1.001231
4237.000000;0.999200
4236.000000;0.997413
4235.000000;0.995728
4234.000000;0.994026
4233.000000;0.992309
4232.000000;0.990643
4231.000000;0.988855
4230.000000;0.986568
4229.000000;0.983809
4228.000000;0.981289
4227.000000;0.979655
4226.000000;0.978680
4225.000000;0.977575
4224.000000;0.975994
4223.000000;0.974286
4222.000000;0.972827
4221.000000;0.971539
4220.000000;0.970146
4219.000000;0.968531
4218.000000;0.966711
4217.000000;0.964706
4216.000000;0.962561
4215.000000;0.960325
4214.000000;0.957901
4213.000000;0.955088
4212.000000;0.951925
4211.000000;0.948941
4210.000000;0.946860
4209.000000;0.945943
4208.000000;0.945593
4207.000000;0.944711
4206.000000;0.942672
4205.000000;0.939962
4204.000000;0.937685
4203.000000;0.936388
4202.000000;0.935601
4201.000000;0.934625
4200.000000;0.933510
4199.000000;0.932862
4198.000000;0.932784
4197.000000;0.932475
4196.000000;0.931176
4195.000000;0.929251
4194.000000;0.927924
4193.000000;0.927903
4192.000000;0.928593
4191.000000;0.928807
4190.000000;0.928028
4189.000000;0.926653
4188.000000;0.925135
4187.000000;0.923493
4186.000000;0.921849
4185.000000;0.920861
4184.000000;0.921058
4183.000000;0.921972
4182.000000;0.922501
4181.000000;0.922107
4180.000000;0.921191
4179.000000;0.920279
4178.000000;0.919403
4177.000000;0.918437
4176.000000;0.917470
4175.000000;0.916542
4174.000000;0.915444
4173.000000;0.914135
4172.000000;0.913007
4171.000000;0.912361
4170.000000;0.911894
4169.000000;0.911112
4168.000000;0.910043
4167.000000;0.909126
4166.000000;0.908529
4165.000000;0.908010
4164.000000;0.907384
4163.000000;0.906667
4162.000000;0.905733
4161.000000;0.904302
4160.000000;0.902487
4159.000000;0.900990
4158.000000;0.900429
4157.000000;0.900634
4156.000000;0.900852
4155.000000;0.900538
4154.000000;0.899718
4153.000000;0.898671
4152.000000;0.897598
4151.000000;0.896651
4150.000000;0.895970
4149.000000;0.895463
4148.000000;0.894751
4147.000000;0.893641
4146.000000;0.892535
4145.000000;0.892023
4144.000000;0.892053
4143.000000;0.891873
4142.000000;0.890936
4141.000000;0.889585
4140.000000;0.888617
4139.000000;0.888423
4138.000000;0.888841
4137.000000;0.889584
4136.000000;0.890431
4135.000000;0.891111
4134.000000;0.891439
4133.000000;0.891610
4132.000000;0.891998
4131.000000;0.892555
4130.000000;0.892721
4129.000000;0.892123
4128.000000;0.891086
4127.000000;0.890302
4126.000000;0.890173
4125.000000;0.890612
4124.000000;0.891288
4123.000000;0.891851
4122.000000;0.892005
4121.000000;0.891612
4120.000000;0.890800
4119.000000;0.889900
4118.000000;0.889224
4117.000000;0.888878
4116.000000;0.888767
4115.000000;0.888765
4114.000000;0.888845
4113.000000;0.888981
4112.000000;0.888962
4111.000000;0.888481
4110.000000;0.887517
4109.000000;0.886458
4108.000000;0.885685
4107.000000;0.885156
4106.000000;0.884572
4105.000000;0.883810
4104.000000;0.883031
4103.000000;0.882429
4102.000000;0.882058
4101.000000;0.881854
4100.000000;0.881685
4099.000000;0.881460
4098.000000;0.881344
4097.000000;0.881683
4096.000000;0.882520
4095.000000;0.883349
4094.000000;0.883641
4093.000000;0.883478
4092.000000;0.883345
4091.000000;0.883401
4090.000000;0.883325
4089.000000;0.882814
4088.000000;0.881870
4087.000000;0.880623
4086.000000;0.879269
4085.000000;0.878232
4084.000000;0.877967
4083.000000;0.878456
4082.000000;0.879144
4081.000000;0.879494
4080.000000;0.879417
4079.000000;0.879167
4078.000000;0.879059
4077.000000;0.879321
4076.000000;0.879877
4075.000000;0.880223
4074.000000;0.879816
4073.000000;0.878690
4072.000000;0.877375
4071.000000;0.876175
4070.000000;0.874903
4069.000000;0.873459
4068.000000;0.872316
4067.000000;0.872089
4066.000000;0.872792
4065.000000;0.873739
4064.000000;0.874208
4063.000000;0.874097
4062.000000;0.873940
4061.000000;0.874284
4060.000000;0.875051
4059.000000;0.875633
4058.000000;0.875675
4057.000000;0.875518
4056.000000;0.875598
4055.000000;0.875675
4054.000000;0.875153
4053.000000;0.874081
4052.000000;0.873289
4051.000000;0.873459
4050.000000;0.874500
4049.000000;0.875903
4048.000000;0.877215
4047.000000;0.877992
4046.000000;0.877791
4045.000000;0.876660
4044.000000;0.875367
4043.000000;0.874769
4042.000000;0.875071
4041.000000;0.875873
4040.000000;0.876716
4039.000000;0.877360
4038.000000;0.877659
4037.000000;0.877468
4036.000000;0.876703
4035.000000;0.875438
4034.000000;0.873975
4033.000000;0.872748
4032.000000;0.872006
4031.000000;0.871641
4030.000000;0.871528
4029.000000;0.871889
4028.000000;0.872922
4027.000000;0.874141
4026.000000;0.874624
4025.000000;0.874116
4024.000000;0.873434
4023.000000;0.873515
4022.000000;0.874413
4021.000000;0.875443
4020.000000;0.876001
4019.000000;0.875940
4018.000000;0.875427
4017.000000;0.874782
4016.000000;0.874346
4015.000000;0.874242
4014.000000;0.874320
4013.000000;0.874416
4012.000000;0.874479
4011.000000;0.874342
4010.000000;0.873658
4009.000000;0.872280
4008.000000;0.870489
4007.000000;0.868665
4006.000000;0.866976
4005.000000;0.865559
4004.000000;0.864727
4003.000000;0.864756
4002.000000;0.865607
4001.000000;0.867050
4000.000000;0.868852
3999.000000;0.870668
3998.000000;0.871977
3997.000000;0.872458
3996.000000;0.872332
3995.000000;0.872062
3994.000000;0.871825
3993.000000;0.871463
3992.000000;0.870890
3991.000000;0.870358
3990.000000;0.870304
3989.000000;0.870954
3988.000000;0.871977
3987.000000;0.872568
3986.000000;0.872143
3985.000000;0.870999
3984.000000;0.870033
3983.000000;0.869750
3982.000000;0.869875
3981.000000;0.869966
3980.000000;0.869979
3979.000000;0.870023
3978.000000;0.869973
3977.000000;0.869634
3976.000000;0.869038
3975.000000;0.868276
3974.000000;0.867278
3973.000000;0.866063
3972.000000;0.864974
3971.000000;0.864371
3970.000000;0.864307
3969.000000;0.864749
3968.000000;0.865869
3967.000000;0.867732
3966.000000;0.869821
3965.000000;0.871253
3964.000000;0.871525
3963.000000;0.870895
3962.000000;0.870100
3961.000000;0.869793
3960.000000;0.870010
3959.000000;0.869991
3958.000000;0.868777
3957.000000;0.866315
3956.000000;0.863725
3955.000000;0.862163
3954.000000;0.861629
3953.000000;0.861193
3952.000000;0.860267
3951.000000;0.859295
3950.000000;0.859171
3949.000000;0.860221
3948.000000;0.861820
3947.000000;0.862937
3946.000000;0.863164
3945.000000;0.863215
3944.000000;0.864119
3943.000000;0.865847
3942.000000;0.867110
3941.000000;0.866784
3940.000000;0.865222
3939.000000;0.863797
3938.000000;0.863457
3937.000000;0.864108
3936.000000;0.865129
3935.000000;0.866008
3934.000000;0.866543
3933.000000;0.866801
3932.000000;0.866864
3931.000000;0.866490
3930.000000;0.865303
3929.000000;0.863606
3928.000000;0.862512
3927.000000;0.862728
3926.000000;0.863567
3925.000000;0.863790
3924.000000;0.863225
3923.000000;0.862782
3922.000000;0.862909
3921.000000;0.862912
3920.000000;0.862036
3919.000000;0.860522
3918.000000;0.859221
3917.000000;0.858639
3916.000000;0.858737
3915.000000;0.859239
3914.000000;0.859770
3913.000000;0.859973
3912.000000;0.859894
3911.000000;0.860074
3910.000000;0.860939
3909.000000;0.862183
3908.000000;0.863000
3907.000000;0.862853
3906.000000;0.861869
3905.000000;0.860567
3904.000000;0.859419
3903.000000;0.858607
3902.000000;0.858034
3901.000000;0.857569
3900.000000;0.857265
3899.000000;0.857267
3898.000000;0.857539
3897.000000;0.857869
3896.000000;0.858142
3895.000000;0.858400
3894.000000;0.858591
3893.000000;0.858506
3892.000000;0.858062
3891.000000;0.857438
3890.000000;0.856833
3889.000000;0.856286
3888.000000;0.855816
3887.000000;0.855504
3886.000000;0.855346
3885.000000;0.855256
3884.000000;0.855316
3883.000000;0.855747
3882.000000;0.856499
3881.000000;0.857150
3880.000000;0.857405
3879.000000;0.857460
3878.000000;0.857669
3877.000000;0.858090
3876.000000;0.858637
3875.000000;0.859468
3874.000000;0.860768
3873.000000;0.862187
3872.000000;0.862851
3871.000000;0.862160
3870.000000;0.860386
3869.000000;0.858335
3868.000000;0.856628
3867.000000;0.855397
3866.000000;0.854474
3865.000000;0.853680
3864.000000;0.852987
3863.000000;0.852480
3862.000000;0.852170
3861.000000;0.851884
3860.000000;0.851487
3859.000000;0.851139
3858.000000;0.851137
3857.000000;0.851486
3856.000000;0.851869
3855.000000;0.852106
3854.000000;0.852428
3853.000000;0.853122
3852.000000;0.854099
3851.000000;0.854995
3850.000000;0.855590
3849.000000;0.856013
3848.000000;0.856311
3847.000000;0.856114
3846.000000;0.855168
3845.000000;0.853803
3844.000000;0.852582
3843.000000;0.851767
3842.000000;0.851374
3841.000000;0.851511
3840.000000;0.852292
3839.000000;0.853512
3838.000000;0.854709
3837.000000;0.855586
3836.000000;0.856092
3835.000000;0.856133
3834.000000;0.855544
3833.000000;0.854416
3832.000000;0.853111
3831.000000;0.851807
3830.000000;0.850360
3829.000000;0.848823
3828.000000;0.847764
3827.000000;0.847717
3826.000000;0.848431
3825.000000;0.849007
3824.000000;0.848821
3823.000000;0.848152
3822.000000;0.847847
3821.000000;0.848527
3820.000000;0.850155
3819.000000;0.852119
3818.000000;0.853651
3817.000000;0.854364
3816.000000;0.854424
3815.000000;0.854139
3814.000000;0.853557
3813.000000;0.852484
3812.000000;0.850871
3811.000000;0.849073
3810.000000;0.847634
3809.000000;0.846860
3808.000000;0.846642
3807.000000;0.846664
3806.000000;0.846644
3805.000000;0.846396
3804.000000;0.845832
3803.000000;0.845055
3802.000000;0.844385
3801.000000;0.844096
3800.000000;0.844082
3799.000000;0.843907
3798.000000;0.843261
3797.000000;0.842276
3796.000000;0.841281
3795.000000;0.840449
3794.000000;0.839902
3793.000000;0.839937
3792.000000;0.840794
3791.000000;0.842126
3790.000000;0.843106
3789.000000;0.843307
3788.000000;0.843197
3787.000000;0.843511
3786.000000;0.844391
3785.000000;0.845419
3784.000000;0.846262
3783.000000;0.846830
3782.000000;0.846890
3781.000000;0.846133
3780.000000;0.844773
3779.000000;0.843625
3778.000000;0.843226
3777.000000;0.843167
3776.000000;0.842674
3775.000000;0.841691
3774.000000;0.840954
3773.000000;0.840996
3772.000000;0.841546
3771.000000;0.842027
3770.000000;0.842312
3769.000000;0.842700
3768.000000;0.843308
3767.000000;0.843854
3766.000000;0.844077
3765.000000;0.844121
3764.000000;0.844352
3763.000000;0.844926
3762.000000;0.845600
3761.000000;0.845890
3760.000000;0.845384
3759.000000;0.844125
3758.000000;0.842768
3757.000000;0.842165
3756.000000;0.842609
3755.000000;0.843540
3754.000000;0.844092
3753.000000;0.843864
3752.000000;0.843110
3751.000000;0.842289
3750.000000;0.841699
3749.000000;0.841501
3748.000000;0.841781
3747.000000;0.842463
3746.000000;0.843278
3745.000000;0.843997
3744.000000;0.844640
3743.000000;0.845299
3742.000000;0.845789
3741.000000;0.845649
3740.000000;0.844616
3739.000000;0.843054
3738.000000;0.841636
3737.000000;0.840657
3736.000000;0.839907
3735.000000;0.839143
3734.000000;0.838491
3733.000000;0.838213
3732.000000;0.838149
3731.000000;0.837684
3730.000000;0.836453
3729.000000;0.834984
3728.000000;0.834248
3727.000000;0.834557
3726.000000;0.835304
3725.000000;0.835825
3724.000000;0.836074
3723.000000;0.836223
3722.000000;0.836064
3721.000000;0.835336
3720.000000;0.834401
3719.000000;0.834005
3718.000000;0.834363
3717.000000;0.834908
3716.000000;0.835069
3715.000000;0.834944
3714.000000;0.834981
3713.000000;0.835230
3712.000000;0.835239
3711.000000;0.834638
3710.000000;0.833571
3709.000000;0.832485
3708.000000;0.831666
3707.000000;0.831091
3706.000000;0.830568
3705.000000;0.829957
3704.000000;0.829325
3703.000000;0.828951
3702.000000;0.829201
3701.000000;0.830209
3700.000000;0.831551
3699.000000;0.832394
3698.000000;0.832236
3697.000000;0.831457
3696.000000;0.830952
3695.000000;0.831225
3694.000000;0.831973
3693.000000;0.832479
3692.000000;0.832255
3691.000000;0.831403
3690.000000;0.830598
3689.000000;0.830658
3688.000000;0.831833
3687.000000;0.833443
3686.000000;0.834496
3685.000000;0.834694
3684.000000;0.834537
3683.000000;0.834480
3682.000000;0.834349
3681.000000;0.833796
3680.000000;0.832942
3679.000000;0.832157
3678.000000;0.831492
3677.000000;0.830796
3676.000000;0.830224
3675.000000;0.830125
3674.000000;0.830463
3673.000000;0.830722
3672.000000;0.830486
3671.000000;0.829823
3670.000000;0.829000
3669.000000;0.828188
3668.000000;0.827504
3667.000000;0.827021
3666.000000;0.826748
3665.000000;0.826717
3664.000000;0.827009
3663.000000;0.827588
3662.000000;0.828181
3661.000000;0.828576
3660.000000;0.828955
3659.000000;0.829580
3658.000000;0.830239
3657.000000;0.830414
3656.000000;0.830021
3655.000000;0.829530
3654.000000;0.829240
3653.000000;0.828938
3652.000000;0.828477
3651.000000;0.828221
3650.000000;0.828484
3649.000000;0.828868
3648.000000;0.828631
3647.000000;0.827613
3646.000000;0.826436
3645.000000;0.825727
3644.000000;0.825364
3643.000000;0.824759
3642.000000;0.823695
3641.000000;0.822622
3640.000000;0.822181
3639.000000;0.822574
3638.000000;0.823387
3637.000000;0.823960
3636.000000;0.823922
3635.000000;0.823391
3634.000000;0.822745
3633.000000;0.822327
3632.000000;0.822331
3631.000000;0.822737
3630.000000;0.823260
3629.000000;0.823517
3628.000000;0.823407
3627.000000;0.823220
3626.000000;0.823231
3625.000000;0.823377
3624.000000;0.823451
3623.000000;0.823488
3622.000000;0.823817
3621.000000;0.824673
3620.000000;0.825866
3619.000000;0.826898
3618.000000;0.827340
3617.000000;0.827089
3616.000000;0.826292
3615.000000;0.825143
3614.000000;0.823778
3613.000000;0.822385
3612.000000;0.821253
3611.000000;0.820517
3610.000000;0.819902
3609.000000;0.818939
3608.000000;0.817491
3607.000000;0.815946
3606.000000;0.814845
3605.000000;0.814458
3604.000000;0.814767
3603.000000;0.815632
3602.000000;0.816773
3601.000000;0.817758
3600.000000;0.818247
3599.000000;0.818283
3598.000000;0.818236
3597.000000;0.818438
3596.000000;0.818929
3595.000000;0.819501
3594.000000;0.819842
3593.000000;0.819652
3592.000000;0.818836
3591.000000;0.817698
3590.000000;0.816834
3589.000000;0.816713
3588.000000;0.817320
3587.000000;0.818155
3586.000000;0.818605
3585.000000;0.818410
3584.000000;0.817868
3583.000000;0.817503
3582.000000;0.817473
3581.000000;0.817401
3580.000000;0.816775
3579.000000;0.815470
3578.000000;0.813907
3577.000000;0.812798
3576.000000;0.812661
3575.000000;0.813363
3574.000000;0.814061
3573.000000;0.813835
3572.000000;0.812609
3571.000000;0.811338
3570.000000;0.811073
3569.000000;0.811895
3568.000000;0.812893
3567.000000;0.813151
3566.000000;0.812591
3565.000000;0.811840
3564.000000;0.811539
3563.000000;0.811914
3562.000000;0.812786
3561.000000;0.813774
3560.000000;0.814485
3559.000000;0.814656
3558.000000;0.814338
3557.000000;0.813986
3556.000000;0.814115
3555.000000;0.814694
3554.000000;0.815017
3553.000000;0.814465
3552.000000;0.813332
3551.000000;0.812598
3550.000000;0.812871
3549.000000;0.813861
3548.000000;0.814898
3547.000000;0.815574
3546.000000;0.815663
3545.000000;0.814858
3544.000000;0.813083
3543.000000;0.810906
3542.000000;0.809190
3541.000000;0.808335
3540.000000;0.808158
3539.000000;0.808377
3538.000000;0.808804
3537.000000;0.809114
3536.000000;0.808902
3535.000000;0.808162
3534.000000;0.807383
3533.000000;0.807005
3532.000000;0.807013
3531.000000;0.807166
3530.000000;0.807328
3529.000000;0.807456
3528.000000;0.807509
3527.000000;0.807538
3526.000000;0.807666
3525.000000;0.807915
3524.000000;0.808216
3523.000000;0.808600
3522.000000;0.809103
3521.000000;0.809429
3520.000000;0.809125
3519.000000;0.808314
3518.000000;0.807829
3517.000000;0.808263
3516.000000;0.809157
3515.000000;0.809551
3514.000000;0.809165
3513.000000;0.808560
3512.000000;0.808220
3511.000000;0.807973
3510.000000;0.807393
3509.000000;0.806388
3508.000000;0.805242
3507.000000;0.804369
3506.000000;0.804082
3505.000000;0.804350
3504.000000;0.804701
3503.000000;0.804626
3502.000000;0.804202
3501.000000;0.804023
3500.000000;0.804398
3499.000000;0.804952
3498.000000;0.805260
3497.000000;0.805526
3496.000000;0.806220
3495.000000;0.807250
3494.000000;0.808040
3493.000000;0.808443
3492.000000;0.809008
3491.000000;0.810077
3490.000000;0.811056
3489.000000;0.811007
3488.000000;0.809787
3487.000000;0.808160
3486.000000;0.806829
3485.000000;0.805811
3484.000000;0.804870
3483.000000;0.804122
3482.000000;0.803870
3481.000000;0.804063
3480.000000;0.804297
3479.000000;0.804319
3478.000000;0.804205
3477.000000;0.804038
3476.000000;0.803743
3475.000000;0.803379
3474.000000;0.803295
3473.000000;0.803721
3472.000000;0.804356
3471.000000;0.804645
3470.000000;0.804474
3469.000000;0.804318
3468.000000;0.804596
3467.000000;0.805130
3466.000000;0.805438
3465.000000;0.805420
3464.000000;0.805447
3463.000000;0.805708
3462.000000;0.805768
3461.000000;0.805049
3460.000000;0.803658
3459.000000;0.802362
3458.000000;0.801686
3457.000000;0.801367
3456.000000;0.800892
3455.000000;0.800277
3454.000000;0.799955
3453.000000;0.800068
3452.000000;0.800350
3451.000000;0.800711
3450.000000;0.801443
3449.000000;0.802573
3448.000000;0.803423
3447.000000;0.803212
3446.000000;0.801957
3445.000000;0.800417
3444.000000;0.799227
3443.000000;0.798402
3442.000000;0.797643
3441.000000;0.796797
3440.000000;0.795905
3439.000000;0.795018
3438.000000;0.794149
3437.000000;0.793331
3436.000000;0.792647
3435.000000;0.792212
3434.000000;0.792137
3433.000000;0.792435
3432.000000;0.792933
3431.000000;0.793392
3430.000000;0.793763
3429.000000;0.794247
3428.000000;0.795035
3427.000000;0.796006
3426.000000;0.796766
3425.000000;0.796963
3424.000000;0.796540
3423.000000;0.795735
3422.000000;0.794920
3421.000000;0.794446
3420.000000;0.794502
3419.000000;0.795037
3418.000000;0.795795
3417.000000;0.796478
3416.000000;0.796883
3415.000000;0.796877
3414.000000;0.796368
3413.000000;0.795447
3412.000000;0.794510
3411.000000;0.794002
3410.000000;0.793954
3409.000000;0.793987
3408.000000;0.793872
3407.000000;0.793819
3406.000000;0.793999
3405.000000;0.794057
3404.000000;0.793518
3403.000000;0.792604
3402.000000;0.792145
3401.000000;0.792556
3400.000000;0.793275
3399.000000;0.793415
3398.000000;0.792746
3397.000000;0.791828
3396.000000;0.791367
3395.000000;0.791607
3394.000000;0.792188
3393.000000;0.792400
3392.000000;0.791734
3391.000000;0.790347
3390.000000;0.788927
3389.000000;0.788051
3388.000000;0.787840
3387.000000;0.788176
3386.000000;0.788886
3385.000000;0.789571
3384.000000;0.789665
3383.000000;0.789054
3382.000000;0.788423
3381.000000;0.788632
3380.000000;0.789822
3379.000000;0.791336
3378.000000;0.792365
3377.000000;0.792408
3376.000000;0.791339
3375.000000;0.789467
3374.000000;0.787520
3373.000000;0.786216
3372.000000;0.785774
3371.000000;0.785983
3370.000000;0.786616
3369.000000;0.787457
3368.000000;0.788091
3367.000000;0.788082
3366.000000;0.787424
3365.000000;0.786547
3364.000000;0.785848
3363.000000;0.785507
3362.000000;0.785688
3361.000000;0.786495
3360.000000;0.787642
3359.000000;0.788525
3358.000000;0.788759
3357.000000;0.788376
3356.000000;0.787464
3355.000000;0.786015
3354.000000;0.784333
3353.000000;0.783129
3352.000000;0.782849
3351.000000;0.783108
3350.000000;0.783136
3349.000000;0.782672
3348.000000;0.782140
3347.000000;0.782010
3346.000000;0.782286
3345.000000;0.782636
3344.000000;0.782809
3343.000000;0.782822
3342.000000;0.782855
3341.000000;0.783063
3340.000000;0.783477
3339.000000;0.784039
3338.000000;0.784667
3337.000000;0.785244
3336.000000;0.785574
3335.000000;0.785509
3334.000000;0.785177
3333.000000;0.784982
3332.000000;0.785290
3331.000000;0.786122
3330.000000;0.787122
3329.000000;0.787749
3328.000000;0.787572
3327.000000;0.786557
3326.000000;0.785129
3325.000000;0.783823
3324.000000;0.782823
3323.000000;0.781963
3322.000000;0.781153
3321.000000;0.780593
3320.000000;0.780497
3319.000000;0.780813
3318.000000;0.781368
3317.000000;0.782086
3316.000000;0.782867
3315.000000;0.783367
3314.000000;0.783201
3313.000000;0.782416
3312.000000;0.781553
3311.000000;0.781124
3310.000000;0.781145
3309.000000;0.781227
3308.000000;0.780984
3307.000000;0.780257
3306.000000;0.779088
3305.000000;0.777715
3304.000000;0.776625
3303.000000;0.776360
3302.000000;0.777058
3301.000000;0.778200
3300.000000;0.779022
3299.000000;0.779227
3298.000000;0.779136
3297.000000;0.779137
3296.000000;0.779231
3295.000000;0.779276
3294.000000;0.779408
3293.000000;0.779939
3292.000000;0.780879
3291.000000;0.781799
3290.000000;0.782206
3289.000000;0.781876
3288.000000;0.780878
3287.000000;0.779497
3286.000000;0.778168
3285.000000;0.777264
3284.000000;0.776791
3283.000000;0.776386
3282.000000;0.775705
3281.000000;0.774770
3280.000000;0.773897
3279.000000;0.773393
3278.000000;0.773383
3277.000000;0.773857
3276.000000;0.774736
3275.000000;0.775861
3274.000000;0.776937
3273.000000;0.777585
3272.000000;0.777563
3271.000000;0.776966
3270.000000;0.776137
3269.000000;0.775331
3268.000000;0.774543
3267.000000;0.773712
3266.000000;0.772965
3265.000000;0.772548
3264.000000;0.772602
3263.000000;0.773095
3262.000000;0.773872
3261.000000;0.774643
3260.000000;0.775094
3259.000000;0.775185
3258.000000;0.775227
3257.000000;0.775417
3256.000000;0.775414
3255.000000;0.774662
3254.000000;0.773139
3253.000000;0.771508
3252.000000;0.770463
3251.000000;0.770119
3250.000000;0.770044
3249.000000;0.769727
3248.000000;0.768995
3247.000000;0.768066
3246.000000;0.767278
3245.000000;0.766773
3244.000000;0.766494
3243.000000;0.766434
3242.000000;0.766692
3241.000000;0.767192
3240.000000;0.767618
3239.000000;0.767844
3238.000000;0.768200
3237.000000;0.769007
3236.000000;0.770067
3235.000000;0.770997
3234.000000;0.771858
3233.000000;0.772957
3232.000000;0.774115
3231.000000;0.774718
3230.000000;0.774555
3229.000000;0.774108
3228.000000;0.773889
3227.000000;0.773921
3226.000000;0.774032
3225.000000;0.774120
3224.000000;0.773904
3223.000000;0.772880
3222.000000;0.770915
3221.000000;0.768557
3220.000000;0.766429
3219.000000;0.764620
3218.000000;0.762956
3217.000000;0.761582
3216.000000;0.760935
3215.000000;0.761286
3214.000000;0.762525
3213.000000;0.764209
3212.000000;0.765623
3211.000000;0.766116
3210.000000;0.765696
3209.000000;0.765089
3208.000000;0.764879
3207.000000;0.764786
3206.000000;0.764151
3205.000000;0.762947
3204.000000;0.761964
3203.000000;0.761981
3202.000000;0.763087
3201.000000;0.764793
3200.000000;0.766491
3199.000000;0.767771
3198.000000;0.768504
3197.000000;0.768752
3196.000000;0.768536
3195.000000;0.767762
3194.000000;0.766477
3193.000000;0.765082
3192.000000;0.764076
3191.000000;0.763608
3190.000000;0.763388
3189.000000;0.762966
3188.000000;0.762071
3187.000000;0.760893
3186.000000;0.760160
3185.000000;0.760656
3184.000000;0.762396
3183.000000;0.764442
3182.000000;0.765797
3181.000000;0.766331
3180.000000;0.766552
3179.000000;0.766763
3178.000000;0.766856
3177.000000;0.766752
3176.000000;0.766524
3175.000000;0.766123
3174.000000;0.765457
3173.000000;0.764696
3172.000000;0.764090
3171.000000;0.763525
3170.000000;0.762715
3169.000000;0.761856
3168.000000;0.761590
3167.000000;0.762194
3166.000000;0.763244
3165.000000;0.764205
3164.000000;0.764920
3163.000000;0.765366
3162.000000;0.765431
3161.000000;0.765229
3160.000000;0.765222
3159.000000;0.765651
3158.000000;0.766143
3157.000000;0.766175
3156.000000;0.765662
3155.000000;0.764803
3154.000000;0.763661
3153.000000;0.762324
3152.000000;0.761226
3151.000000;0.760825
3150.000000;0.761032
3149.000000;0.761344
3148.000000;0.761471
3147.000000;0.761477
3146.000000;0.761370
3145.000000;0.761015
3144.000000;0.760506
3143.000000;0.760242
3142.000000;0.760480
3141.000000;0.761048
3140.000000;0.761583
3139.000000;0.761837
3138.000000;0.761681
3137.000000;0.761068
3136.000000;0.760115
3135.000000;0.759081
3134.000000;0.758184
3133.000000;0.757557
3132.000000;0.757358
3131.000000;0.757641
3130.000000;0.758027
3129.000000;0.757778
3128.000000;0.756444
3127.000000;0.754379
3126.000000;0.752478
3125.000000;0.751480
3124.000000;0.751540
3123.000000;0.752274
3122.000000;0.753094
3121.000000;0.753669
3120.000000;0.754209
3119.000000;0.755196
3118.000000;0.756728
3117.000000;0.758278
3116.000000;0.759262
3115.000000;0.759677
3114.000000;0.759999
3113.000000;0.760570
3112.000000;0.761318
3111.000000;0.761975
3110.000000;0.762308
3109.000000;0.762176
3108.000000;0.761612
3107.000000;0.760902
3106.000000;0.760398
3105.000000;0.760195
3104.000000;0.760109
3103.000000;0.759978
3102.000000;0.759856
3101.000000;0.759896
3100.000000;0.760174
3099.000000;0.760596
3098.000000;0.760871
3097.000000;0.760640
3096.000000;0.759868
3095.000000;0.759046
3094.000000;0.758702
3093.000000;0.758712
3092.000000;0.758427
3091.000000;0.757607
3090.000000;0.756836
3089.000000;0.756765
3088.000000;0.757293
3087.000000;0.757762
3086.000000;0.757707
3085.000000;0.757094
3084.000000;0.756101
3083.000000;0.755084
3082.000000;0.754601
3081.000000;0.754949
3080.000000;0.755650
3079.000000;0.755851
3078.000000;0.755329
3077.000000;0.754710
3076.000000;0.754572
3075.000000;0.754764
3074.000000;0.754825
3073.000000;0.754691
3072.000000;0.754681
3071.000000;0.755046
3070.000000;0.755892
3069.000000;0.757338
3068.000000;0.759301
3067.000000;0.761169
3066.000000;0.762108
3065.000000;0.761860
3064.000000;0.760951
3063.000000;0.760020
3062.000000;0.759175
3061.000000;0.758101
3060.000000;0.756597
3059.000000;0.754849
3058.000000;0.753311
3057.000000;0.752392
3056.000000;0.752132
3055.000000;0.752108
3054.000000;0.751783
3053.000000;0.751051
3052.000000;0.750254
3051.000000;0.749660
3050.000000;0.749185
3049.000000;0.748746
3048.000000;0.748582
3047.000000;0.748931
3046.000000;0.749565
3045.000000;0.749948
3044.000000;0.749760
3043.000000;0.748993
3042.000000;0.747703
3041.000000;0.746135
3040.000000;0.744982
3039.000000;0.744921
3038.000000;0.745726
3037.000000;0.746402
3036.000000;0.746514
3035.000000;0.746834
3034.000000;0.748168
3033.000000;0.750001
3032.000000;0.750974
3031.000000;0.750514
3030.000000;0.749263
3029.000000;0.748026
3028.000000;0.747136
3027.000000;0.746934
3026.000000;0.747929
3025.000000;0.749985
3024.000000;0.751943
3023.000000;0.752722
3022.000000;0.752501
3021.000000;0.752257
3020.000000;0.752443
3019.000000;0.752646
3018.000000;0.752403
3017.000000;0.751784
3016.000000;0.751051
3015.000000;0.750219
3014.000000;0.749166
3013.000000;0.747929
3012.000000;0.746731
3011.000000;0.745805
3010.000000;0.745196
3009.000000;0.744657
3008.000000;0.743819
3007.000000;0.742614
3006.000000;0.741455
3005.000000;0.740868
3004.000000;0.741041
3003.000000;0.741856
3002.000000;0.743198
3001.000000;0.744971
3000.000000;0.746898
2999.000000;0.748581
2998.000000;0.749769
2997.000000;0.750448
2996.000000;0.750720
2995.000000;0.750737
2994.000000;0.750587
2993.000000;0.750108
2992.000000;0.749058
2991.000000;0.747678
2990.000000;0.746783
2989.000000;0.746872
2988.000000;0.747353
2987.000000;0.747124
2986.000000;0.745864
2985.000000;0.744286
2984.000000;0.743153
2983.000000;0.742619
2982.000000;0.742544
2981.000000;0.742818
2980.000000;0.743127
2979.000000;0.742892
2978.000000;0.741842
2977.000000;0.740425
2976.000000;0.739401
2975.000000;0.739213
2974.000000;0.739846
2973.000000;0.741032
2972.000000;0.742397
2971.000000;0.743685
2970.000000;0.744949
2969.000000;0.746315
2968.000000;0.747529
2967.000000;0.748129
2966.000000;0.748146
2965.000000;0.748154
2964.000000;0.748407
2963.000000;0.748451
2962.000000;0.747930
2961.000000;0.747301
2960.000000;0.747256
2959.000000;0.747806
2958.000000;0.748454
2957.000000;0.749030
2956.000000;0.749727
2955.000000;0.750318
2954.000000;0.750017
2953.000000;0.748359
2952.000000;0.745834
2951.000000;0.743472
2950.000000;0.742013
2949.000000;0.741559
2948.000000;0.741768
2947.000000;0.742216
2946.000000;0.742664
2945.000000;0.743067
2944.000000;0.743351
2943.000000;0.743338
2942.000000;0.743013
2941.000000;0.742681
2940.000000;0.742636
2939.000000;0.742859
2938.000000;0.743239
2937.000000;0.743891
2936.000000;0.744912
2935.000000;0.745908
2934.000000;0.746200
2933.000000;0.745519
2932.000000;0.744205
2931.000000;0.742714
2930.000000;0.741261
2929.000000;0.739994
2928.000000;0.739148
2927.000000;0.738861
2926.000000;0.739030
2925.000000;0.739447
2924.000000;0.739931
2923.000000;0.740285
2922.000000;0.740284
2921.000000;0.739830
2920.000000;0.739049
2919.000000;0.738195
2918.000000;0.737535
2917.000000;0.737269
2916.000000;0.737371
2915.000000;0.737537
2914.000000;0.737494
2913.000000;0.737435
2912.000000;0.737929
2911.000000;0.739333
2910.000000;0.741420
2909.000000;0.743573
2908.000000;0.745233
2907.000000;0.746181
2906.000000;0.746572
2905.000000;0.746720
2904.000000;0.746721
2903.000000;0.746326
2902.000000;0.745282
2901.000000;0.743692
2900.000000;0.741825
2899.000000;0.739702
2898.000000;0.737198
2897.000000;0.734549
2896.000000;0.732413
2895.000000;0.731331
2894.000000;0.731330
2893.000000;0.732079
2892.000000;0.733176
2891.000000;0.734223
2890.000000;0.734917
2889.000000;0.735235
2888.000000;0.735373
2887.000000;0.735464
2886.000000;0.735548
2885.000000;0.735777
2884.000000;0.736285
2883.000000;0.736750
2882.000000;0.736525
2881.000000;0.735501
2880.000000;0.734531
2879.000000;0.734633
2878.000000;0.735931
2877.000000;0.737598
2876.000000;0.738709
2875.000000;0.738900
2874.000000;0.738292
2873.000000;0.737138
2872.000000;0.735680
2871.000000;0.734180
2870.000000;0.732906
2869.000000;0.732048
2868.000000;0.731631
2867.000000;0.731545
2866.000000;0.731731
2865.000000;0.732283
2864.000000;0.733201
2863.000000;0.734128
2862.000000;0.734610
2861.000000;0.734694
2860.000000;0.734929
2859.000000;0.735603
2858.000000;0.736233
2857.000000;0.736079
2856.000000;0.735003
2855.000000;0.733587
2854.000000;0.732459
2853.000000;0.731768
2852.000000;0.731289
2851.000000;0.730832
2850.000000;0.730495
2849.000000;0.730560
2848.000000;0.731158
2847.000000;0.732044
2846.000000;0.732831
2845.000000;0.733387
2844.000000;0.733807
2843.000000;0.734056
2842.000000;0.733996
2841.000000;0.733846
2840.000000;0.734132
2839.000000;0.734892
2838.000000;0.735294
2837.000000;0.734528
2836.000000;0.732945
2835.000000;0.731839
2834.000000;0.732119
2833.000000;0.733531
2832.000000;0.735138
2831.000000;0.736208
2830.000000;0.736560
2829.000000;0.736311
2828.000000;0.735546
2827.000000;0.734266
2826.000000;0.732619
2825.000000;0.731089
2824.000000;0.730223
2823.000000;0.730169
2822.000000;0.730697
2821.000000;0.731689
2820.000000;0.733186
2819.000000;0.734778
2818.000000;0.735537
2817.000000;0.735078
2816.000000;0.734223
2815.000000;0.733942
2814.000000;0.734004
2813.000000;0.733495
2812.000000;0.732522
2811.000000;0.732347
2810.000000;0.733645
2809.000000;0.735558
2808.000000;0.736845
2807.000000;0.737225
2806.000000;0.737052
2805.000000;0.736398
2804.000000;0.735212
2803.000000;0.733923
2802.000000;0.733051
2801.000000;0.732441
2800.000000;0.731545
2799.000000;0.730368
2798.000000;0.729504
2797.000000;0.729285
2796.000000;0.729481
2795.000000;0.729907
2794.000000;0.730764
2793.000000;0.732160
2792.000000;0.733695
2791.000000;0.734840
2790.000000;0.735488
2789.000000;0.735926
2788.000000;0.736351
2787.000000;0.736583
2786.000000;0.736250
2785.000000;0.735250
2784.000000;0.734029
2783.000000;0.733268
2782.000000;0.733183
2781.000000;0.733291
2780.000000;0.733036
2779.000000;0.732476
2778.000000;0.732088
2777.000000;0.732054
2776.000000;0.732139
2775.000000;0.732251
2774.000000;0.732639
2773.000000;0.733444
2772.000000;0.734403
2771.000000;0.735168
2770.000000;0.735632
2769.000000;0.735774
2768.000000;0.735457
2767.000000;0.734612
2766.000000;0.733459
2765.000000;0.732347
2764.000000;0.731486
2763.000000;0.730943
2762.000000;0.730753
2761.000000;0.730860
2760.000000;0.731025
2759.000000;0.730930
2758.000000;0.730391
2757.000000;0.729486
2756.000000;0.728556
2755.000000;0.728036
2754.000000;0.728127
2753.000000;0.728538
2752.000000;0.728680
2751.000000;0.728222
2750.000000;0.727443
2749.000000;0.727054
2748.000000;0.727710
2747.000000;0.729526
2746.000000;0.731818
2745.000000;0.733436
2744.000000;0.733704
2743.000000;0.733083
2742.000000;0.732611
2741.000000;0.732720
2740.000000;0.732967
2739.000000;0.732926
2738.000000;0.732842
2737.000000;0.733126
2736.000000;0.733625
2735.000000;0.733854
2734.000000;0.733700
2733.000000;0.733483
2732.000000;0.733445
2731.000000;0.733599
2730.000000;0.733990
2729.000000;0.734681
2728.000000;0.735475
2727.000000;0.735974
2726.000000;0.735992
2725.000000;0.735630
2724.000000;0.734927
2723.000000;0.733811
2722.000000;0.732484
2721.000000;0.731475
2720.000000;0.731035
2719.000000;0.730687
2718.000000;0.729650
2717.000000;0.727735
2716.000000;0.725677
2715.000000;0.724557
2714.000000;0.724856
2713.000000;0.726071
2712.000000;0.727267
2711.000000;0.728053
2710.000000;0.728840
2709.000000;0.730040
2708.000000;0.731365
2707.000000;0.732222
2706.000000;0.732591
2705.000000;0.732964
2704.000000;0.733451
2703.000000;0.733508
2702.000000;0.732697
2701.000000;0.731311
2700.000000;0.729952
2699.000000;0.728866
2698.000000;0.728007
2697.000000;0.727410
2696.000000;0.727150
2695.000000;0.727109
2694.000000;0.727154
2693.000000;0.727442
2692.000000;0.728232
2691.000000;0.729463
2690.000000;0.730765
2689.000000;0.731773
2688.000000;0.732222
2687.000000;0.731920
2686.000000;0.731009
2685.000000;0.730135
2684.000000;0.729951
2683.000000;0.730399
2682.000000;0.730793
2681.000000;0.730643
2680.000000;0.730124
2679.000000;0.729696
2678.000000;0.729586
2677.000000;0.729745
2676.000000;0.729968
2675.000000;0.729876
2674.000000;0.729033
2673.000000;0.727340
2672.000000;0.725228
2671.000000;0.723290
2670.000000;0.721798
2669.000000;0.720645
2668.000000;0.719679
2667.000000;0.719020
2666.000000;0.719054
2665.000000;0.720074
2664.000000;0.721838
2663.000000;0.723575
2662.000000;0.724646
2661.000000;0.725206
2660.000000;0.725937
2659.000000;0.727174
2658.000000;0.728602
2657.000000;0.729818
2656.000000;0.730789
2655.000000;0.731540
2654.000000;0.731809
2653.000000;0.731391
2652.000000;0.730574
2651.000000;0.729837
2650.000000;0.729294
2649.000000;0.728751
2648.000000;0.728159
2647.000000;0.727620
2646.000000;0.727040
2645.000000;0.726199
2644.000000;0.725178
2643.000000;0.724370
2642.000000;0.723963
2641.000000;0.723758
2640.000000;0.723590
2639.000000;0.723652
2638.000000;0.724156
2637.000000;0.724869
2636.000000;0.725237
2635.000000;0.724922
2634.000000;0.724121
2633.000000;0.723443
2632.000000;0.723532
2631.000000;0.724665
2630.000000;0.726529
2629.000000;0.728364
2628.000000;0.729432
2627.000000;0.729407
2626.000000;0.728386
2625.000000;0.726705
2624.000000;0.724848
2623.000000;0.723415
2622.000000;0.722935
2621.000000;0.723575
2620.000000;0.724995
2619.000000;0.726533
2618.000000;0.727638
2617.000000;0.728175
2616.000000;0.728346
2615.000000;0.728308
2614.000000;0.727984
2613.000000;0.727305
2612.000000;0.726500
2611.000000;0.725961
2610.000000;0.725862
2609.000000;0.726052
2608.000000;0.726301
2607.000000;0.726504
2606.000000;0.726634
2605.000000;0.726704
2604.000000;0.726805
2603.000000;0.727024
2602.000000;0.727251
2601.000000;0.727273
2600.000000;0.727181
2599.000000;0.727463
2598.000000;0.728481
2597.000000;0.729950
2596.000000;0.731147
2595.000000;0.731638
2594.000000;0.731542
2593.000000;0.731045
2592.000000;0.730005
2591.000000;0.728330
2590.000000;0.726532
2589.000000;0.725452
2588.000000;0.725324
2587.000000;0.725438
2586.000000;0.724950
2585.000000;0.723880
2584.000000;0.723042
2583.000000;0.723030
2582.000000;0.723552
2581.000000;0.723812
2580.000000;0.723362
2579.000000;0.722497
2578.000000;0.721960
2577.000000;0.722325
2576.000000;0.723514
2575.000000;0.724862
2574.000000;0.725753
2573.000000;0.726219
2572.000000;0.726760
2571.000000;0.727625
2570.000000;0.728546
2569.000000;0.729167
2568.000000;0.729366
2567.000000;0.729020
2566.000000;0.727894
2565.000000;0.726109
2564.000000;0.724423
2563.000000;0.723569
2562.000000;0.723548
2561.000000;0.723977
2560.000000;0.724890
2559.000000;0.726680
2558.000000;0.729292
2557.000000;0.731970
2556.000000;0.733966
2555.000000;0.735154
2554.000000;0.735832
2553.000000;0.736289
2552.000000;0.736687
2551.000000;0.737033
2550.000000;0.737108
2549.000000;0.736697
2548.000000;0.735960
2547.000000;0.735225
2546.000000;0.734336
2545.000000;0.732657
2544.000000;0.730012
2543.000000;0.727229
2542.000000;0.725352
2541.000000;0.724603
2540.000000;0.724459
2539.000000;0.724561
2538.000000;0.725059
2537.000000;0.726030
2536.000000;0.726932
2535.000000;0.727026
2534.000000;0.726278
2533.000000;0.725506
2532.000000;0.725431
2531.000000;0.725726
2530.000000;0.725325
2529.000000;0.723771
2528.000000;0.721951
2527.000000;0.721162
2526.000000;0.721699
2525.000000;0.722774
2524.000000;0.723721
2523.000000;0.724747
2522.000000;0.726366
2521.000000;0.728541
2520.000000;0.730620
2519.000000;0.731816
2518.000000;0.731581
2517.000000;0.729928
2516.000000;0.727619
2515.000000;0.725730
2514.000000;0.724735
2513.000000;0.724197
2512.000000;0.723522
2511.000000;0.722724
2510.000000;0.722211
2509.000000;0.722150
2508.000000;0.722382
2507.000000;0.722702
2506.000000;0.722894
2505.000000;0.722701
2504.000000;0.722116
2503.000000;0.721557
2502.000000;0.721417
2501.000000;0.721591
2500.000000;0.721711
2499.000000;0.721676
2498.000000;0.721608
2497.000000;0.721508
2496.000000;0.721366
2495.000000;0.721466
2494.000000;0.722111
2493.000000;0.723116
2492.000000;0.723962
2491.000000;0.724454
2490.000000;0.724863
2489.000000;0.725390
2488.000000;0.725924
2487.000000;0.726364
2486.000000;0.726733
2485.000000;0.726867
2484.000000;0.726472
2483.000000;0.725748
2482.000000;0.725536
2481.000000;0.726473
2480.000000;0.728192
2479.000000;0.729662
2478.000000;0.730212
2477.000000;0.729991
2476.000000;0.729480
2475.000000;0.728892
2474.000000;0.728121
2473.000000;0.727106
2472.000000;0.726026
2471.000000;0.725129
2470.000000;0.724474
2469.000000;0.723973
2468.000000;0.723613
2467.000000;0.723391
2466.000000;0.723093
2465.000000;0.722476
2464.000000;0.721874
2463.000000;0.722291
2462.000000;0.724455
2461.000000;0.727802
2460.000000;0.730745
2459.000000;0.732070
2458.000000;0.731925
2457.000000;0.731390
2456.000000;0.731363
2455.000000;0.731919
2454.000000;0.732486
2453.000000;0.732478
2452.000000;0.731878
2451.000000;0.731221
2450.000000;0.730928
2449.000000;0.730792
2448.000000;0.730301
2447.000000;0.729369
2446.000000;0.728496
2445.000000;0.728223
2444.000000;0.728634
2443.000000;0.729344
2442.000000;0.729781
2441.000000;0.729559
2440.000000;0.728798
2439.000000;0.727962
2438.000000;0.727180
2437.000000;0.725953
2436.000000;0.723950
2435.000000;0.721882
2434.000000;0.720931
2433.000000;0.721315
2432.000000;0.722040
2431.000000;0.722259
2430.000000;0.722306
2429.000000;0.723022
2428.000000;0.724576
2427.000000;0.726445
2426.000000;0.728187
2425.000000;0.729680
2424.000000;0.730802
2423.000000;0.731361
2422.000000;0.731362
2421.000000;0.730993
2420.000000;0.730408
2419.000000;0.729793
2418.000000;0.729467
2417.000000;0.729541
2416.000000;0.729592
2415.000000;0.729093
2414.000000;0.728115
2413.000000;0.727192
2412.000000;0.726602
2411.000000;0.726251
2410.000000;0.726225
2409.000000;0.726827
2408.000000;0.727864
2407.000000;0.728513
2406.000000;0.728301
2405.000000;0.727777
2404.000000;0.727683
2403.000000;0.727782
2402.000000;0.727176
2401.000000;0.725669
2400.000000;0.724107
2399.000000;0.723200
2398.000000;0.722619
2397.000000;0.721680
2396.000000;0.720506
2395.000000;0.719945
2394.000000;0.720464
2393.000000;0.721621
2392.000000;0.722690
2391.000000;0.723418
2390.000000;0.723959
2389.000000;0.724370
2388.000000;0.724524
2387.000000;0.724419
2386.000000;0.724278
2385.000000;0.724315
2384.000000;0.724550
2383.000000;0.724842
2382.000000;0.725003
2381.000000;0.724879
2380.000000;0.724403
2379.000000;0.723599
2378.000000;0.722558
2377.000000;0.721457
2376.000000;0.720673
2375.000000;0.720729
2374.000000;0.721927
2373.000000;0.723948
2372.000000;0.725921
2371.000000;0.726958
2370.000000;0.726666
2369.000000;0.725235
2368.000000;0.723181
2367.000000;0.721055
2366.000000;0.719231
2365.000000;0.717865
2364.000000;0.717029
2363.000000;0.716849
2362.000000;0.717435
2361.000000;0.718690
2360.000000;0.720340
2359.000000;0.722119
2358.000000;0.723801
2357.000000;0.725016
2356.000000;0.725252
2355.000000;0.724332
2354.000000;0.722721
2353.000000;0.721256
2352.000000;0.720563
2351.000000;0.720688
2350.000000;0.721122
2349.000000;0.721196
2348.000000;0.720711
2347.000000;0.720052
2346.000000;0.719624
2345.000000;0.719522
2344.000000;0.719707
2343.000000;0.720162
2342.000000;0.720589
2341.000000;0.720520
2340.000000;0.719856
2339.000000;0.719068
2338.000000;0.718836
2337.000000;0.719326
2336.000000;0.720023
2335.000000;0.720284
2334.000000;0.720068
2333.000000;0.719838
2332.000000;0.720024
2331.000000;0.720662
2330.000000;0.721602
2329.000000;0.722665
2328.000000;0.723781
2327.000000;0.724912
2326.000000;0.725928
2325.000000;0.726461
2324.000000;0.725978
2323.000000;0.724334
2322.000000;0.722093
2321.000000;0.720139
2320.000000;0.718872
2319.000000;0.718037
2318.000000;0.717354
2317.000000;0.716916
2316.000000;0.716848
2315.000000;0.716819
2314.000000;0.716367
2313.000000;0.715431
2312.000000;0.714367
2311.000000;0.713443
2310.000000;0.712817
2309.000000;0.712807
2308.000000;0.713719
2307.000000;0.715156
2306.000000;0.716143
2305.000000;0.716260
2304.000000;0.716300
2303.000000;0.717288
2302.000000;0.719196
2301.000000;0.721084
2300.000000;0.722374
2299.000000;0.723358
2298.000000;0.724447
2297.000000;0.725502
2296.000000;0.726189
2295.000000;0.726453
2294.000000;0.726348
2293.000000;0.725770
2292.000000;0.724721
2291.000000;0.723487
2290.000000;0.722207
2289.000000;0.720578
2288.000000;0.718486
2287.000000;0.716671
2286.000000;0.716189
2285.000000;0.717200
2284.000000;0.718770
2283.000000;0.719980
2282.000000;0.720838
2281.000000;0.721841
2280.000000;0.723029
2279.000000;0.723913
2278.000000;0.724267
2277.000000;0.724565
2276.000000;0.725451
2275.000000;0.726990
2274.000000;0.728662
2273.000000;0.730050
2272.000000;0.731244
2271.000000;0.732435
2270.000000;0.733353
2269.000000;0.733403
2268.000000;0.732419
2267.000000;0.730970
2266.000000;0.729775
2265.000000;0.729017
2264.000000;0.728431
2263.000000;0.727844
2262.000000;0.727350
2261.000000;0.727044
2260.000000;0.726925
2259.000000;0.727086
2258.000000;0.727727
2257.000000;0.728797
2256.000000;0.729818
2255.000000;0.730320
2254.000000;0.730354
2253.000000;0.730307
2252.000000;0.730210
2251.000000;0.729508
2250.000000;0.727741
2249.000000;0.725354
2248.000000;0.723524
2247.000000;0.723027
2246.000000;0.723483
2245.000000;0.723883
2244.000000;0.723783
2243.000000;0.723675
2242.000000;0.724130
2241.000000;0.724957
2240.000000;0.725445
2239.000000;0.725304
2238.000000;0.725089
2237.000000;0.725667
2236.000000;0.727453
2235.000000;0.730182
2234.000000;0.733209
2233.000000;0.735896
2232.000000;0.737774
2231.000000;0.738606
2230.000000;0.738484
2229.000000;0.737823
2228.000000;0.737076
2227.000000;0.736342
2226.000000;0.735334
2225.000000;0.733785
2224.000000;0.731773
2223.000000;0.729603
2222.000000;0.727537
2221.000000;0.725763
2220.000000;0.724375
2219.000000;0.723157
2218.000000;0.721712
2217.000000;0.720179
2216.000000;0.719569
2215.000000;0.720698
2214.000000;0.722837
2213.000000;0.724098
2212.000000;0.723527
2211.000000;0.722209
2210.000000;0.721799
2209.000000;0.722577
2208.000000;0.723544
2207.000000;0.724019
2206.000000;0.724377
2205.000000;0.725245
2204.000000;0.726647
2203.000000;0.728120
2202.000000;0.729264
2201.000000;0.729982
2200.000000;0.730364
2199.000000;0.730499
2198.000000;0.730374
2197.000000;0.729977
2196.000000;0.729555
2195.000000;0.729578
2194.000000;0.730213
2193.000000;0.731007
2192.000000;0.731366
2191.000000;0.731262
2190.000000;0.731107
2189.000000;0.731013
2188.000000;0.730584
2187.000000;0.729542
2186.000000;0.728203
2185.000000;0.727202
2184.000000;0.726896
2183.000000;0.727103
2182.000000;0.727265
2181.000000;0.726941
2180.000000;0.726328
2179.000000;0.726239
2178.000000;0.727386
2177.000000;0.729620
2176.000000;0.731994
2175.000000;0.733586
2174.000000;0.734170
2173.000000;0.734092
2172.000000;0.733723
2171.000000;0.733097
2170.000000;0.731980
2169.000000;0.730295
2168.000000;0.728490
2167.000000;0.727263
2166.000000;0.726853
2165.000000;0.726837
2164.000000;0.726804
2163.000000;0.726902
2162.000000;0.727356
2161.000000;0.727833
2160.000000;0.727957
2159.000000;0.728298
2158.000000;0.729995
2157.000000;0.733195
2156.000000;0.736474
2155.000000;0.738233
2154.000000;0.738240
2153.000000;0.737381
2152.000000;0.736389
2151.000000;0.735405
2150.000000;0.734440
2149.000000;0.733581
2148.000000;0.732673
2147.000000;0.731343
2146.000000;0.729548
2145.000000;0.727874
2144.000000;0.727019
2143.000000;0.726976
2142.000000;0.726825
2141.000000;0.725529
2140.000000;0.723071
2139.000000;0.720694
2138.000000;0.719811
2137.000000;0.720697
2136.000000;0.722357
2135.000000;0.723628
2134.000000;0.724185
2133.000000;0.724436
2132.000000;0.724836
2131.000000;0.725633
2130.000000;0.727002
2129.000000;0.728917
2128.000000;0.730918
2127.000000;0.732457
2126.000000;0.733627
2125.000000;0.735254
2124.000000;0.738072
2123.000000;0.741947
2122.000000;0.745927
2121.000000;0.748915
2120.000000;0.750208
2119.000000;0.749592
2118.000000;0.747264
2117.000000;0.743756
2116.000000;0.739780
2115.000000;0.736002
2114.000000;0.732923
2113.000000;0.730852
2112.000000;0.729765
2111.000000;0.729155
2110.000000;0.728288
2109.000000;0.726881
2108.000000;0.725482
2107.000000;0.724916
2106.000000;0.725338
2105.000000;0.726106
2104.000000;0.726640
2103.000000;0.727069
2102.000000;0.727801
2101.000000;0.728712
2100.000000;0.729187
2099.000000;0.728911
2098.000000;0.728339
2097.000000;0.728323
2096.000000;0.729403
2095.000000;0.731447
2094.000000;0.733737
2093.000000;0.735451
2092.000000;0.736249
2091.000000;0.736383
2090.000000;0.736123
2089.000000;0.735266
2088.000000;0.733459
2087.000000;0.730910
2086.000000;0.728420
2085.000000;0.726708
2084.000000;0.725950
2083.000000;0.726011
2082.000000;0.726836
2081.000000;0.728460
2080.000000;0.730766
2079.000000;0.733414
2078.000000;0.735997
2077.000000;0.738133
2076.000000;0.739380
2075.000000;0.739234
2074.000000;0.737526
2073.000000;0.734972
2072.000000;0.733014
2071.000000;0.732632
2070.000000;0.733308
2069.000000;0.733603
2068.000000;0.732914
2067.000000;0.732067
2066.000000;0.731878
2065.000000;0.731884
2064.000000;0.731192
2063.000000;0.730062
2062.000000;0.729629
2061.000000;0.730205
2060.000000;0.730899
2059.000000;0.731138
2058.000000;0.731669
2057.000000;0.733447
2056.000000;0.736140
2055.000000;0.738369
2054.000000;0.739268
2053.000000;0.739255
2052.000000;0.739240
2051.000000;0.739571
2050.000000;0.739808
2049.000000;0.739207
2048.000000;0.737400
2047.000000;0.734685
2046.000000;0.731682
2045.000000;0.728800
2044.000000;0.726237
2043.000000;0.724361
2042.000000;0.723646
2041.000000;0.724128
2040.000000;0.725292
2039.000000;0.726656
2038.000000;0.728134
2037.000000;0.729660
2036.000000;0.730870
2035.000000;0.731478
2034.000000;0.731702
2033.000000;0.732018
2032.000000;0.732672
2031.000000;0.733592
2030.000000;0.734516
2029.000000;0.735015
2028.000000;0.734792
2027.000000;0.734240
2026.000000;0.734248
2025.000000;0.735005
2024.000000;0.735371
2023.000000;0.734011
2022.000000;0.730998
2021.000000;0.727627
2020.000000;0.724833
2019.000000;0.722538
2018.000000;0.720553
2017.000000;0.719383
2016.000000;0.719698
2015.000000;0.721413
2014.000000;0.723748
2013.000000;0.726102
2012.000000;0.728536
2011.000000;0.731371
2010.000000;0.734577
2009.000000;0.737628
2008.000000;0.739810
2007.000000;0.740614
2006.000000;0.739979
2005.000000;0.738369
2004.000000;0.736704
2003.000000;0.735946
2002.000000;0.736406
2001.000000;0.737403
2000.000000;0.737956
1999.000000;0.737973
1998.000000;0.738332
1997.000000;0.739524
1996.000000;0.740573
1995.000000;0.739955
1994.000000;0.737535
1993.000000;0.734812
1992.000000;0.733073
1991.000000;0.732015
1990.000000;0.730601
1989.000000;0.728747
1988.000000;0.727528
1987.000000;0.727854
1986.000000;0.729559
1985.000000;0.731896
1984.000000;0.734474
1983.000000;0.737351
1982.000000;0.740359
1981.000000;0.742760
1980.000000;0.743816
1979.000000;0.743557
1978.000000;0.742674
1977.000000;0.741677
1976.000000;0.740456
1975.000000;0.738778
1974.000000;0.736865
1973.000000;0.735085
1972.000000;0.733304
1971.000000;0.731102
1970.000000;0.728728
1969.000000;0.727236
1968.000000;0.727373
1967.000000;0.728828
1966.000000;0.730989
1965.000000;0.734070
1964.000000;0.738684
1963.000000;0.744252
1962.000000;0.748708
1961.000000;0.750366
1960.000000;0.749567
1959.000000;0.747766
1958.000000;0.745564
1957.000000;0.742448
1956.000000;0.738174
1955.000000;0.733540
1954.000000;0.729722
1953.000000;0.727472
1952.000000;0.726962
1951.000000;0.727704
1950.000000;0.728532
1949.000000;0.728322
1948.000000;0.727241
1947.000000;0.726784
1946.000000;0.728178
1945.000000;0.731114
1944.000000;0.734207
1943.000000;0.736264
1942.000000;0.736901
1941.000000;0.736477
1940.000000;0.735929
1939.000000;0.736197
1938.000000;0.737272
1937.000000;0.738144
1936.000000;0.738127
1935.000000;0.737747
1934.000000;0.737726
1933.000000;0.737721
1932.000000;0.736932
1931.000000;0.735511
1930.000000;0.734227
1929.000000;0.732979
1928.000000;0.731054
1927.000000;0.728812
1926.000000;0.727744
1925.000000;0.728472
1924.000000;0.729799
1923.000000;0.730523
1922.000000;0.731056
1921.000000;0.732393
1920.000000;0.734273
1919.000000;0.735565
1918.000000;0.736103
1917.000000;0.736869
1916.000000;0.738255
1915.000000;0.739269
1914.000000;0.738817
1913.000000;0.737119
1912.000000;0.735370
1911.000000;0.734411
1910.000000;0.734209
1909.000000;0.734365
1908.000000;0.734696
1907.000000;0.735124
1906.000000;0.735248
1905.000000;0.734395
1904.000000;0.732416
1903.000000;0.730487
1902.000000;0.730296
1901.000000;0.732187
1900.000000;0.734464
1899.000000;0.735147
1898.000000;0.734254
1897.000000;0.733440
1896.000000;0.733654
1895.000000;0.734295
1894.000000;0.734591
1893.000000;0.734929
1892.000000;0.736119
1891.000000;0.737835
1890.000000;0.738662
1889.000000;0.737716
1888.000000;0.735616
1887.000000;0.733638
1886.000000;0.732414
1885.000000;0.731781
1884.000000;0.731601
1883.000000;0.732225
1882.000000;0.733940
1881.000000;0.736215
1880.000000;0.737897
1879.000000;0.738279
1878.000000;0.737837
1877.000000;0.737627
1876.000000;0.738033
1875.000000;0.738515
1874.000000;0.738509
1873.000000;0.738127
1872.000000;0.737756
1871.000000;0.737276
1870.000000;0.736147
1869.000000;0.734252
1868.000000;0.732123
1867.000000;0.730210
1866.000000;0.728474
1865.000000;0.727014
1864.000000;0.726574
1863.000000;0.727812
1862.000000;0.730138
1861.000000;0.731903
1860.000000;0.732052
1859.000000;0.731117
1858.000000;0.730260
1857.000000;0.729955
1856.000000;0.730088
1855.000000;0.730811
1854.000000;0.732542
1853.000000;0.735191
1852.000000;0.738052
1851.000000;0.740458
1850.000000;0.742054
1849.000000;0.742533
1848.000000;0.741645
1847.000000;0.740067
1846.000000;0.739386
1845.000000;0.740546
1844.000000;0.742695
1843.000000;0.744180
1842.000000;0.744530
1841.000000;0.744718
1840.000000;0.745426
1839.000000;0.746098
1838.000000;0.746187
1837.000000;0.746209
1836.000000;0.747020
1835.000000;0.748728
1834.000000;0.750699
1833.000000;0.752494
1832.000000;0.754095
1831.000000;0.755040
1830.000000;0.754135
1829.000000;0.750536
1828.000000;0.744856
1827.000000;0.739022
1826.000000;0.734698
1825.000000;0.732028
1824.000000;0.730272
1823.000000;0.729319
1822.000000;0.729840
1821.000000;0.731837
1820.000000;0.733900
1819.000000;0.734527
1818.000000;0.733734
1817.000000;0.732726
1816.000000;0.732441
1815.000000;0.733097
1814.000000;0.734660
1813.000000;0.737034
1812.000000;0.739573
1811.000000;0.741310
1810.000000;0.742146
1809.000000;0.742848
1808.000000;0.743619
1807.000000;0.743415
1806.000000;0.741458
1805.000000;0.738871
1804.000000;0.737600
1803.000000;0.738033
1802.000000;0.738691
1801.000000;0.738397
1800.000000;0.737615
1799.000000;0.737211
1798.000000;0.736993
1797.000000;0.736049
1796.000000;0.734233
1795.000000;0.732454
1794.000000;0.731735
1793.000000;0.732493
1792.000000;0.734360
1791.000000;0.736280
1790.000000;0.737247
1789.000000;0.737372
1788.000000;0.737851
1787.000000;0.739480
1786.000000;0.741597
1785.000000;0.742918
1784.000000;0.743398
1783.000000;0.744409
1782.000000;0.746766
1781.000000;0.749637
1780.000000;0.751541
1779.000000;0.751808
1778.000000;0.750756
1777.000000;0.748364
1776.000000;0.744086
1775.000000;0.738092
1774.000000;0.732210
1773.000000;0.728924
1772.000000;0.729262
1771.000000;0.731963
1770.000000;0.735057
1769.000000;0.737988
1768.000000;0.741409
1767.000000;0.745413
1766.000000;0.748649
1765.000000;0.749488
1764.000000;0.747907
1763.000000;0.745618
1762.000000;0.744259
1761.000000;0.743990
1760.000000;0.744082
1759.000000;0.744322
1758.000000;0.745048
1757.000000;0.746018
1756.000000;0.746474
1755.000000;0.746117
1754.000000;0.745760
1753.000000;0.746405
1752.000000;0.748048
1751.000000;0.749873
1750.000000;0.751228
1749.000000;0.751962
1748.000000;0.752126
1747.000000;0.751661
1746.000000;0.750350
1745.000000;0.748334
1744.000000;0.746159
1743.000000;0.744679
1742.000000;0.744599
1741.000000;0.745615
1740.000000;0.746425
1739.000000;0.745961
1738.000000;0.744546
1737.000000;0.743680
1736.000000;0.744515
1735.000000;0.746349
1734.000000;0.747385
1733.000000;0.746668
1732.000000;0.745049
1731.000000;0.744545
1730.000000;0.745922
1729.000000;0.747986
1728.000000;0.749771
1727.000000;0.751480
1726.000000;0.753554
1725.000000;0.755833
1724.000000;0.757791
1723.000000;0.759299
1722.000000;0.760235
1721.000000;0.759715
1720.000000;0.757015
1719.000000;0.752749
1718.000000;0.748351
1717.000000;0.744464
1716.000000;0.740836
1715.000000;0.737928
1714.000000;0.736811
1713.000000;0.737233
1712.000000;0.737531
1711.000000;0.736829
1710.000000;0.736223
1709.000000;0.737124
1708.000000;0.738939
1707.000000;0.739549
1706.000000;0.738306
1705.000000;0.736941
1704.000000;0.736976
1703.000000;0.737890
1702.000000;0.738299
1701.000000;0.737953
1700.000000;0.737808
1699.000000;0.738146
1698.000000;0.738591
1697.000000;0.740068
1696.000000;0.743433
1695.000000;0.747746
1694.000000;0.751163
1693.000000;0.753043
1692.000000;0.754345
1691.000000;0.755276
1690.000000;0.754903
1689.000000;0.752830
1688.000000;0.750104
1687.000000;0.748092
1686.000000;0.747340
1685.000000;0.747672
1684.000000;0.748791
1683.000000;0.749876
1682.000000;0.749593
1681.000000;0.748078
1680.000000;0.746507
1679.000000;0.745671
1678.000000;0.745762
1677.000000;0.746275
1676.000000;0.746667
1675.000000;0.746903
1674.000000;0.747036
1673.000000;0.746959
1672.000000;0.746832
1671.000000;0.747099
1670.000000;0.747988
1669.000000;0.749182
1668.000000;0.750190
1667.000000;0.750702
1666.000000;0.750470
1665.000000;0.749161
1664.000000;0.747121
1663.000000;0.745618
1662.000000;0.745175
1661.000000;0.744580
1660.000000;0.742519
1659.000000;0.739462
1658.000000;0.737178
1657.000000;0.736387
1656.000000;0.736152
1655.000000;0.735786
1654.000000;0.736143
1653.000000;0.738011
1652.000000;0.739838
1651.000000;0.739121
1650.000000;0.736818
1649.000000;0.735699
1648.000000;0.736513
1647.000000;0.738793
1646.000000;0.742017
1645.000000;0.745651
1644.000000;0.748692
1643.000000;0.749978
1642.000000;0.749411
1641.000000;0.748616
1640.000000;0.748968
1639.000000;0.749741
1638.000000;0.749517
1637.000000;0.748472
1636.000000;0.748423
1635.000000;0.750336
1634.000000;0.753101
1633.000000;0.755370
1632.000000;0.756974
1631.000000;0.757765
1630.000000;0.756838
1629.000000;0.753968
1628.000000;0.750479
1627.000000;0.748058
1626.000000;0.746971
1625.000000;0.746289
1624.000000;0.745445
1623.000000;0.744826
1622.000000;0.744759
1621.000000;0.744900
1620.000000;0.745086
1619.000000;0.745683
1618.000000;0.746763
1617.000000;0.747501
1616.000000;0.747076
1615.000000;0.745931
1614.000000;0.745712
1613.000000;0.747306
1612.000000;0.749336
1611.000000;0.749889
1610.000000;0.748705
1609.000000;0.746962
1608.000000;0.745821
1607.000000;0.745912
1606.000000;0.747514
1605.000000;0.750361
1604.000000;0.753398
1603.000000;0.755682
1602.000000;0.757722
1601.000000;0.760797
1600.000000;0.765135
1599.000000;0.769330
1598.000000;0.771465
1597.000000;0.770497
1596.000000;0.766693
1595.000000;0.761363
1594.000000;0.756066
1593.000000;0.751583
1592.000000;0.747684
1591.000000;0.744092
1590.000000;0.741293
1589.000000;0.739920
1588.000000;0.739799
1587.000000;0.740377
1586.000000;0.741688
1585.000000;0.743758
1584.000000;0.745400
1583.000000;0.745003
1582.000000;0.743258
1581.000000;0.743218
1580.000000;0.746687
1579.000000;0.752023
1578.000000;0.756053
1577.000000;0.757556
1576.000000;0.757873
1575.000000;0.758439
1574.000000;0.759266
1573.000000;0.760050
1572.000000;0.760556
1571.000000;0.760506
1570.000000;0.760370
1569.000000;0.761171
1568.000000;0.763154
1567.000000;0.765005
1566.000000;0.765126
1565.000000;0.763399
1564.000000;0.761208
1563.000000;0.759553
1562.000000;0.758179
1561.000000;0.756512
1560.000000;0.754405
1559.000000;0.751856
1558.000000;0.748532
1557.000000;0.744328
1556.000000;0.741057
1555.000000;0.740314
1554.000000;0.740909
1553.000000;0.740914
1552.000000;0.739610
1551.000000;0.737961
1550.000000;0.737355
1549.000000;0.737950
1548.000000;0.738881
1547.000000;0.739136
1546.000000;0.738247
1545.000000;0.736597
1544.000000;0.735162
1543.000000;0.735023
1542.000000;0.736807
1541.000000;0.740117
1540.000000;0.743691
1539.000000;0.746123
1538.000000;0.746745
1537.000000;0.746655
1536.000000;0.747392
1535.000000;0.748674
1534.000000;0.748900
1533.000000;0.747536
1532.000000;0.745805
1531.000000;0.745331
1530.000000;0.746130
1529.000000;0.746390
1528.000000;0.745114
1527.000000;0.743571
1526.000000;0.743769
1525.000000;0.746493
1524.000000;0.750710
1523.000000;0.754630
1522.000000;0.757323
1521.000000;0.759255
1520.000000;0.761253
1519.000000;0.763231
1518.000000;0.764091
1517.000000;0.763131
1516.000000;0.761409
1515.000000;0.760474
1514.000000;0.760200
1513.000000;0.759230
1512.000000;0.757296
1511.000000;0.755924
1510.000000;0.755960
1509.000000;0.756135
1508.000000;0.755000
1507.000000;0.753180
1506.000000;0.752363
1505.000000;0.752492
1504.000000;0.752143
1503.000000;0.750961
1502.000000;0.749924
1501.000000;0.749778
1500.000000;0.750242
1499.000000;0.750754
1498.000000;0.751314
1497.000000;0.752043
1496.000000;0.752497
1495.000000;0.752029
1494.000000;0.750465
1493.000000;0.748381
1492.000000;0.746601
1491.000000;0.745563
1490.000000;0.745069
1489.000000;0.744564
1488.000000;0.743710
1487.000000;0.742446
1486.000000;0.740600
1485.000000;0.738215
1484.000000;0.736162
1483.000000;0.735451
1482.000000;0.736376
1481.000000;0.738253
1480.000000;0.740157
1479.000000;0.741758
1478.000000;0.742977
1477.000000;0.743473
1476.000000;0.743141
1475.000000;0.742958
1474.000000;0.744205
1473.000000;0.747019
1472.000000;0.750124
1471.000000;0.752393
1470.000000;0.754051
1469.000000;0.755634
1468.000000;0.756767
1467.000000;0.756965
1466.000000;0.756749
1465.000000;0.757148
1464.000000;0.758370
1463.000000;0.759687
1462.000000;0.760632
1461.000000;0.761169
1460.000000;0.760942
1459.000000;0.759132
1458.000000;0.755444
1457.000000;0.750782
1456.000000;0.746638
1455.000000;0.744116
1454.000000;0.743453
1453.000000;0.744245
1452.000000;0.746129
1451.000000;0.749101
1450.000000;0.752988
1449.000000;0.757163
1448.000000;0.760678
1447.000000;0.762520
1446.000000;0.761983
1445.000000;0.759495
1444.000000;0.756623
1443.000000;0.755108
1442.000000;0.755602
1441.000000;0.757101
1440.000000;0.758064
1439.000000;0.757899
1438.000000;0.757248
1437.000000;0.756737
1436.000000;0.756057
1435.000000;0.754395
1434.000000;0.751568
1433.000000;0.748345
1432.000000;0.745801
1431.000000;0.744496
1430.000000;0.744238
1429.000000;0.744737
1428.000000;0.746115
1427.000000;0.748388
1426.000000;0.750786
1425.000000;0.752510
1424.000000;0.753635
1423.000000;0.754798
1422.000000;0.756158
1421.000000;0.757196
1420.000000;0.757838
1419.000000;0.758704
1418.000000;0.759835
1417.000000;0.760117
1416.000000;0.758769
1415.000000;0.756749
1414.000000;0.755810
1413.000000;0.756285
1412.000000;0.756733
1411.000000;0.756075
1410.000000;0.755144
1409.000000;0.755555
1408.000000;0.757830
1407.000000;0.761162
1406.000000;0.764419
1405.000000;0.767188
1404.000000;0.769841
1403.000000;0.772826
1402.000000;0.775909
1401.000000;0.778039
1400.000000;0.778377
1399.000000;0.777116
1398.000000;0.774757
1397.000000;0.770872
1396.000000;0.764606
1395.000000;0.756755
1394.000000;0.750167
1393.000000;0.747175
1392.000000;0.747049
1391.000000;0.746844
1390.000000;0.744887
1389.000000;0.742625
1388.000000;0.742402
1387.000000;0.744543
1386.000000;0.747368
1385.000000;0.749456
1384.000000;0.751001
1383.000000;0.752657
1382.000000;0.753993
1381.000000;0.753986
1380.000000;0.752830
1379.000000;0.752034
1378.000000;0.752384
1377.000000;0.752616
1376.000000;0.750977
1375.000000;0.747840
1374.000000;0.745648
1373.000000;0.746237
1372.000000;0.749113
1371.000000;0.752656
1370.000000;0.756159
1369.000000;0.759840
1368.000000;0.763213
1367.000000;0.765030
1366.000000;0.765227
1365.000000;0.765491
1364.000000;0.767094
1363.000000;0.768944
1362.000000;0.768581
1361.000000;0.765124
1360.000000;0.760510
1359.000000;0.757622
1358.000000;0.758077
1357.000000;0.761811
1356.000000;0.767668
1355.000000;0.773830
1354.000000;0.778213
1353.000000;0.779481
1352.000000;0.778024
1351.000000;0.775518
1350.000000;0.773193
1349.000000;0.770935
1348.000000;0.768249
1347.000000;0.765724
1346.000000;0.764755
1345.000000;0.765730
1344.000000;0.767216
1343.000000;0.767417
1342.000000;0.766249
1341.000000;0.765220
1340.000000;0.765093
1339.000000;0.764537
1338.000000;0.761839
1337.000000;0.757390
1336.000000;0.753254
1335.000000;0.750607
1334.000000;0.748666
1333.000000;0.746149
1332.000000;0.742882
1331.000000;0.739509
1330.000000;0.736382
1329.000000;0.733596
1328.000000;0.731573
1327.000000;0.730722
1326.000000;0.730830
1325.000000;0.731532
1324.000000;0.732977
1323.000000;0.735258
1322.000000;0.737591
1321.000000;0.739201
1320.000000;0.741103
1319.000000;0.745499
1318.000000;0.752731
1317.000000;0.759948
1316.000000;0.763854
1315.000000;0.764303
1314.000000;0.763865
1313.000000;0.764278
1312.000000;0.764673
1311.000000;0.763148
1310.000000;0.759183
1309.000000;0.754145
1308.000000;0.749881
1307.000000;0.747294
1306.000000;0.746225
1305.000000;0.746492
1304.000000;0.748437
1303.000000;0.751892
1302.000000;0.754954
1301.000000;0.755012
1300.000000;0.751569
1299.000000;0.746931
1298.000000;0.743449
1297.000000;0.741356
1296.000000;0.740024
1295.000000;0.740282
1294.000000;0.743892
1293.000000;0.750821
1292.000000;0.758477
1291.000000;0.764200
1290.000000;0.767565
1289.000000;0.769492
1288.000000;0.770182
1287.000000;0.769256
1286.000000;0.767329
1285.000000;0.765993
1284.000000;0.766005
1283.000000;0.766142
1282.000000;0.764109
1281.000000;0.758643
1280.000000;0.750737
1279.000000;0.742870
1278.000000;0.737286
1277.000000;0.734930
1276.000000;0.735546
1275.000000;0.738401
1274.000000;0.742845
1273.000000;0.748344
1272.000000;0.754314
1271.000000;0.760154
1270.000000;0.765370
1269.000000;0.769503
1268.000000;0.771924
1267.000000;0.771884
1266.000000;0.769068
1265.000000;0.764266
1264.000000;0.759214
1263.000000;0.755366
1262.000000;0.752834
1261.000000;0.750803
1260.000000;0.749011
1259.000000;0.748291
1258.000000;0.749421
1257.000000;0.751933
1256.000000;0.754526
1255.000000;0.756224
1254.000000;0.756656
1253.000000;0.755691
1252.000000;0.753628
1251.000000;0.751532
1250.000000;0.750542
1249.000000;0.750803
1248.000000;0.751713
1247.000000;0.753221
1246.000000;0.756190
1245.000000;0.761271
1244.000000;0.768026
1243.000000;0.775207
1242.000000;0.781215
1241.000000;0.784236
1240.000000;0.783084
1239.000000;0.778596
1238.000000;0.773352
1237.000000;0.769411
1236.000000;0.766944
1235.000000;0.765273
1234.000000;0.764389
1233.000000;0.764768
1232.000000;0.766321
1231.000000;0.768436
1230.000000;0.770808
1229.000000;0.773476
1228.000000;0.776162
1227.000000;0.778400
1226.000000;0.780369
1225.000000;0.782690
1224.000000;0.785102
1223.000000;0.786306
1222.000000;0.785680
1221.000000;0.784319
1220.000000;0.783495
1219.000000;0.782717
1218.000000;0.780170
1217.000000;0.774890
1216.000000;0.767960
1215.000000;0.761612
1214.000000;0.757750
1213.000000;0.757139
1212.000000;0.759141
1211.000000;0.761970
1210.000000;0.763844
1209.000000;0.764264
1208.000000;0.763679
1207.000000;0.762041
1206.000000;0.758966
1205.000000;0.755593
1204.000000;0.754659
1203.000000;0.757814
1202.000000;0.763623
1201.000000;0.769476
1200.000000;0.775042
