Criado como novo conjunto de dados;"0307_DANIEL.spp","78306.1 Secs"
cm-1;Abs
10000.000000;0.530192
9999.000000;0.529448
9998.000000;0.528705
9997.000000;0.527963
9996.000000;0.527223
9995.000000;0.526483
9994.000000;0.525746
9993.000000;0.525007
9992.000000;0.524279
9991.000000;0.523315
9990.000000;0.522236
9989.000000;0.521231
9988.000000;0.520475
9987.000000;0.520086
9986.000000;0.519959
9985.000000;0.519740
9984.000000;0.519111
9983.000000;0.518131
9982.000000;0.517168
9981.000000;0.516473
9980.000000;0.515901
9979.000000;0.515114
9978.000000;0.513959
9977.000000;0.512614
9976.000000;0.511392
9975.000000;0.510507
9974.000000;0.509983
9973.000000;0.509681
9972.000000;0.509375
9971.000000;0.508873
9970.000000;0.508143
9969.000000;0.507296
9968.000000;0.506430
9967.000000;0.505511
9966.000000;0.504466
9965.000000;0.503336
9964.000000;0.502254
9963.000000;0.501280
9962.000000;0.500338
9961.000000;0.499363
9960.000000;0.498414
9959.000000;0.497597
9958.000000;0.496905
9957.000000;0.496223
9956.000000;0.495456
9955.000000;0.494621
9954.000000;0.493800
9953.000000;0.493073
9952.000000;0.492446
9951.000000;0.491818
9950.000000;0.491026
9949.000000;0.490006
9948.000000;0.488921
9947.000000;0.488051
9946.000000;0.487511
9945.000000;0.487126
9944.000000;0.486584
9943.000000;0.485691
9942.000000;0.484465
9941.000000;0.483051
9940.000000;0.481614
9939.000000;0.480327
9938.000000;0.479354
9937.000000;0.478773
9936.000000;0.478487
9935.000000;0.478234
9934.000000;0.477735
9933.000000;0.476859
9932.000000;0.475694
9931.000000;0.474465
9930.000000;0.473390
9929.000000;0.472568
9928.000000;0.471953
9927.000000;0.471420
9926.000000;0.470846
9925.000000;0.470158
9924.000000;0.469318
9923.000000;0.468285
9922.000000;0.467037
9921.000000;0.465622
9920.000000;0.464208
9919.000000;0.463036
9918.000000;0.462264
9917.000000;0.461789
9916.000000;0.461251
9915.000000;0.460330
9914.000000;0.459095
9913.000000;0.457963
9912.000000;0.457262
9911.000000;0.456895
9910.000000;0.456492
9909.000000;0.455817
9908.000000;0.454906
9907.000000;0.453881
9906.000000;0.452812
9905.000000;0.451765
9904.000000;0.450825
9903.000000;0.449999
9902.000000;0.449181
9901.000000;0.448283
9900.000000;0.447312
9899.000000;0.446305
9898.000000;0.445288
9897.000000;0.444319
9896.000000;0.443441
9895.000000;0.442531
9894.000000;0.441352
9893.000000;0.439852
9892.000000;0.438314
9891.000000;0.437088
9890.000000;0.436252
9889.000000;0.435628
9888.000000;0.435035
9887.000000;0.434409
9886.000000;0.433736
9885.000000;0.433007
9884.000000;0.432230
9883.000000;0.431400
9882.000000;0.430477
9881.000000;0.429459
9880.000000;0.428419
9879.000000;0.427367
9878.000000;0.426169
9877.000000;0.424712
9876.000000;0.423106
9875.000000;0.421605
9874.000000;0.420372
9873.000000;0.419413
9872.000000;0.418674
9871.000000;0.418059
9870.000000;0.417392
9869.000000;0.416544
9868.000000;0.415616
9867.000000;0.414840
9866.000000;0.414282
9865.000000;0.413752
9864.000000;0.413028
9863.000000;0.412073
9862.000000;0.411002
9861.000000;0.409931
9860.000000;0.408884
9859.000000;0.407745
9858.000000;0.406348
9857.000000;0.404725
9856.000000;0.403218
9855.000000;0.402158
9854.000000;0.401411
9853.000000;0.400469
9852.000000;0.399059
9851.000000;0.397497
9850.000000;0.396292
9849.000000;0.395559
9848.000000;0.394958
9847.000000;0.394110
9846.000000;0.392915
9845.000000;0.391520
9844.000000;0.390156
9843.000000;0.389015
9842.000000;0.388162
9841.000000;0.387489
9840.000000;0.386801
9839.000000;0.385956
9838.000000;0.384934
9837.000000;0.383808
9836.000000;0.382680
9835.000000;0.381600
9834.000000;0.380487
9833.000000;0.379210
9832.000000;0.377792
9831.000000;0.376466
9830.000000;0.375425
9829.000000;0.374575
9828.000000;0.373623
9827.000000;0.372394
9826.000000;0.370969
9825.000000;0.369515
9824.000000;0.368076
9823.000000;0.366586
9822.000000;0.365022
9821.000000;0.363494
9820.000000;0.362197
9819.000000;0.361277
9818.000000;0.360692
9817.000000;0.360186
9816.000000;0.359469
9815.000000;0.358461
9814.000000;0.357361
9813.000000;0.356415
9812.000000;0.355622
9811.000000;0.354704
9810.000000;0.353407
9809.000000;0.351800
9808.000000;0.350236
9807.000000;0.348998
9806.000000;0.348056
9805.000000;0.347179
9804.000000;0.346214
9803.000000;0.345164
9802.000000;0.344049
9801.000000;0.342822
9800.000000;0.341444
9799.000000;0.339960
9798.000000;0.338420
9797.000000;0.336827
9796.000000;0.335219
9795.000000;0.333738
9794.000000;0.332521
9793.000000;0.331556
9792.000000;0.330740
9791.000000;0.330021
9790.000000;0.329383
9789.000000;0.328682
9788.000000;0.327648
9787.000000;0.326150
9786.000000;0.324395
9785.000000;0.322746
9784.000000;0.321349
9783.000000;0.320024
9782.000000;0.318551
9781.000000;0.316973
9780.000000;0.315542
9779.000000;0.314395
9778.000000;0.313408
9777.000000;0.312362
9776.000000;0.311153
9775.000000;0.309793
9774.000000;0.308314
9773.000000;0.306781
9772.000000;0.305358
9771.000000;0.304200
9770.000000;0.303235
9769.000000;0.302170
9768.000000;0.300788
9767.000000;0.299185
9766.000000;0.297644
9765.000000;0.296337
9764.000000;0.295224
9763.000000;0.294221
9762.000000;0.293319
9761.000000;0.292465
9760.000000;0.291418
9759.000000;0.289878
9758.000000;0.287816
9757.000000;0.285615
9756.000000;0.283780
9755.000000;0.282500
9754.000000;0.281538
9753.000000;0.280532
9752.000000;0.279338
9751.000000;0.278031
9750.000000;0.276694
9749.000000;0.275341
9748.000000;0.274008
9747.000000;0.272769
9746.000000;0.271578
9745.000000;0.270205
9744.000000;0.268445
9743.000000;0.266365
9742.000000;0.264270
9741.000000;0.262440
9740.000000;0.260955
9739.000000;0.259757
9738.000000;0.258761
9737.000000;0.257845
9736.000000;0.256823
9735.000000;0.255566
9734.000000;0.254166
9733.000000;0.252867
9732.000000;0.251769
9731.000000;0.250669
9730.000000;0.249298
9729.000000;0.247654
9728.000000;0.245994
9727.000000;0.244502
9726.000000;0.243093
9725.000000;0.241598
9724.000000;0.240008
9723.000000;0.238434
9722.000000;0.236931
9721.000000;0.235465
9720.000000;0.234007
9719.000000;0.232552
9718.000000;0.231099
9717.000000;0.229692
9716.000000;0.228444
9715.000000;0.227385
9714.000000;0.226325
9713.000000;0.225014
9712.000000;0.223427
9711.000000;0.221762
9710.000000;0.220164
9709.000000;0.218591
9708.000000;0.216977
9707.000000;0.215339
9706.000000;0.213658
9705.000000;0.211826
9704.000000;0.209836
9703.000000;0.207903
9702.000000;0.206244
9701.000000;0.204806
9700.000000;0.203361
9699.000000;0.201802
9698.000000;0.200202
9697.000000;0.198618
9696.000000;0.197005
9695.000000;0.195350
9694.000000;0.193726
9693.000000;0.192174
9692.000000;0.190641
9691.000000;0.189106
9690.000000;0.187670
9689.000000;0.186415
9688.000000;0.185225
9687.000000;0.183849
9686.000000;0.182159
9685.000000;0.180282
9684.000000;0.178470
9683.000000;0.176845
9682.000000;0.175272
9681.000000;0.173486
9680.000000;0.171403
9679.000000;0.169294
9678.000000;0.167585
9677.000000;0.166401
9676.000000;0.165387
9675.000000;0.164073
9674.000000;0.162380
9673.000000;0.160654
9672.000000;0.159180
9671.000000;0.157776
9670.000000;0.155981
9669.000000;0.153568
9668.000000;0.150807
9667.000000;0.148231
9666.000000;0.146216
9665.000000;0.144751
9664.000000;0.143550
9663.000000;0.142355
9662.000000;0.141136
9661.000000;0.139979
9660.000000;0.138792
9659.000000;0.137226
9658.000000;0.135009
9657.000000;0.132321
9656.000000;0.129704
9655.000000;0.127581
9654.000000;0.125942
9653.000000;0.124496
9652.000000;0.123026
9651.000000;0.121542
9650.000000;0.120147
9649.000000;0.118837
9648.000000;0.117437
9647.000000;0.115732
9646.000000;0.113709
9645.000000;0.111645
9644.000000;0.109868
9643.000000;0.108392
9642.000000;0.106886
9641.000000;0.105042
9640.000000;0.102900
9639.000000;0.100762
9638.000000;0.098858
9637.000000;0.097186
9636.000000;0.095596
9635.000000;0.093917
9634.000000;0.092044
9633.000000;0.090008
9632.000000;0.087976
9631.000000;0.086106
9630.000000;0.084386
9629.000000;0.082654
9628.000000;0.080771
9627.000000;0.078744
9626.000000;0.076720
9625.000000;0.074889
9624.000000;0.073347
9623.000000;0.071984
9622.000000;0.070541
9621.000000;0.068825
9620.000000;0.066846
9619.000000;0.064703
9618.000000;0.062442
9617.000000;0.060095
9616.000000;0.057769
9615.000000;0.055569
9614.000000;0.053472
9613.000000;0.051395
9612.000000;0.049341
9611.000000;0.047347
9610.000000;0.045351
9609.000000;0.043271
9608.000000;0.041206
9607.000000;0.039399
9606.000000;0.037919
9605.000000;0.036536
9604.000000;0.034947
9603.000000;0.033036
9602.000000;0.030861
9601.000000;0.028555
9600.000000;0.026307
9599.000000;0.024304
9598.000000;0.022547
9597.000000;0.020808
9596.000000;0.018869
9595.000000;0.016766
9594.000000;0.014721
9593.000000;0.012888
9592.000000;0.011253
9591.000000;0.009708
9590.000000;0.008118
9589.000000;0.006336
9588.000000;0.004287
9587.000000;0.002042
9586.000000;-0.000236
9585.000000;-0.002417
9584.000000;-0.004449
9583.000000;-0.006317
9582.000000;-0.008058
9581.000000;-0.009791
9580.000000;-0.011661
9579.000000;-0.013739
9578.000000;-0.016006
9577.000000;-0.018410
9576.000000;-0.020857
9575.000000;-0.023185
9574.000000;-0.025230
9573.000000;-0.026974
9572.000000;-0.028572
9571.000000;-0.030221
9570.000000;-0.032038
9569.000000;-0.034049
9568.000000;-0.036198
9567.000000;-0.038334
9566.000000;-0.040288
9565.000000;-0.042045
9564.000000;-0.043787
9563.000000;-0.045669
9562.000000;-0.047605
9561.000000;-0.049383
9560.000000;-0.050995
9559.000000;-0.052696
9558.000000;-0.054712
9557.000000;-0.056977
9556.000000;-0.059270
9555.000000;-0.061482
9554.000000;-0.063628
9553.000000;-0.065683
9552.000000;-0.067581
9551.000000;-0.069385
9550.000000;-0.071266
9549.000000;-0.073275
9548.000000;-0.075268
9547.000000;-0.077147
9546.000000;-0.079034
9545.000000;-0.081058
9544.000000;-0.083080
9543.000000;-0.084815
9542.000000;-0.086202
9541.000000;-0.087521
9540.000000;-0.089103
9539.000000;-0.091015
9538.000000;-0.093041
9537.000000;-0.094911
9536.000000;-0.096557
9535.000000;-0.098201
9534.000000;-0.100159
9533.000000;-0.102488
9532.000000;-0.104845
9531.000000;-0.106828
9530.000000;-0.108411
9529.000000;-0.109920
9528.000000;-0.111607
9527.000000;-0.113422
9526.000000;-0.115238
9525.000000;-0.117098
9524.000000;-0.119104
9523.000000;-0.121171
9522.000000;-0.123064
9521.000000;-0.124635
9520.000000;-0.125942
9519.000000;-0.127177
9518.000000;-0.128546
9517.000000;-0.130149
9516.000000;-0.131871
9515.000000;-0.133448
9514.000000;-0.134781
9513.000000;-0.136129
9512.000000;-0.137854
9511.000000;-0.139950
9510.000000;-0.141999
9509.000000;-0.143628
9508.000000;-0.144873
9507.000000;-0.146019
9506.000000;-0.147238
9505.000000;-0.148525
9504.000000;-0.149891
9503.000000;-0.151403
9502.000000;-0.153014
9501.000000;-0.154561
9500.000000;-0.156020
9499.000000;-0.157587
9498.000000;-0.159370
9497.000000;-0.161071
9496.000000;-0.162214
9495.000000;-0.162700
9494.000000;-0.162975
9493.000000;-0.163560
9492.000000;-0.164545
9491.000000;-0.165657
9490.000000;-0.166696
9489.000000;-0.167716
9488.000000;-0.168810
9487.000000;-0.169905
9486.000000;-0.170872
9485.000000;-0.171715
9484.000000;-0.172599
9483.000000;-0.173683
9482.000000;-0.174966
9481.000000;-0.176261
9480.000000;-0.177314
9479.000000;-0.177993
9478.000000;-0.178402
9477.000000;-0.178762
9476.000000;-0.179227
9475.000000;-0.179848
9474.000000;-0.180656
9473.000000;-0.181651
9472.000000;-0.182669
9471.000000;-0.183414
9470.000000;-0.183758
9469.000000;-0.183954
9468.000000;-0.184457
9467.000000;-0.185486
9466.000000;-0.186799
9465.000000;-0.187889
9464.000000;-0.188409
9463.000000;-0.188420
9462.000000;-0.188287
9461.000000;-0.188319
9460.000000;-0.188528
9459.000000;-0.188729
9458.000000;-0.188807
9457.000000;-0.188803
9456.000000;-0.188758
9455.000000;-0.188639
9454.000000;-0.188446
9453.000000;-0.188289
9452.000000;-0.188270
9451.000000;-0.188383
9450.000000;-0.188610
9449.000000;-0.188998
9448.000000;-0.189531
9447.000000;-0.189993
9446.000000;-0.190092
9445.000000;-0.189719
9444.000000;-0.188999
9443.000000;-0.188150
9442.000000;-0.187381
9441.000000;-0.186857
9440.000000;-0.186602
9439.000000;-0.186434
9438.000000;-0.186136
9437.000000;-0.185721
9436.000000;-0.185403
9435.000000;-0.185268
9434.000000;-0.185120
9433.000000;-0.184736
9432.000000;-0.184169
9431.000000;-0.183682
9430.000000;-0.183425
9429.000000;-0.183245
9428.000000;-0.182838
9427.000000;-0.182027
9426.000000;-0.180909
9425.000000;-0.179760
9424.000000;-0.178809
9423.000000;-0.178071
9422.000000;-0.177397
9421.000000;-0.176623
9420.000000;-0.175682
9419.000000;-0.174612
9418.000000;-0.173535
9417.000000;-0.172612
9416.000000;-0.171927
9415.000000;-0.171399
9414.000000;-0.170865
9413.000000;-0.170213
9412.000000;-0.169396
9411.000000;-0.168374
9410.000000;-0.167189
9409.000000;-0.166101
9408.000000;-0.165443
9407.000000;-0.165207
9406.000000;-0.164884
9405.000000;-0.163897
9404.000000;-0.162195
9403.000000;-0.160307
9402.000000;-0.158810
9401.000000;-0.157831
9400.000000;-0.157084
9399.000000;-0.156283
9398.000000;-0.155380
9397.000000;-0.154462
9396.000000;-0.153543
9395.000000;-0.152563
9394.000000;-0.151490
9393.000000;-0.150339
9392.000000;-0.149070
9391.000000;-0.147602
9390.000000;-0.145965
9389.000000;-0.144360
9388.000000;-0.142957
9387.000000;-0.141698
9386.000000;-0.140382
9385.000000;-0.138931
9384.000000;-0.137455
9383.000000;-0.136059
9382.000000;-0.134693
9381.000000;-0.133249
9380.000000;-0.131705
9379.000000;-0.130159
9378.000000;-0.128759
9377.000000;-0.127611
9376.000000;-0.126695
9375.000000;-0.125808
9374.000000;-0.124683
9373.000000;-0.123206
9372.000000;-0.121490
9371.000000;-0.119721
9370.000000;-0.118012
9369.000000;-0.116416
9368.000000;-0.114963
9367.000000;-0.113614
9366.000000;-0.112280
9365.000000;-0.110928
9364.000000;-0.109600
9363.000000;-0.108244
9362.000000;-0.106656
9361.000000;-0.104741
9360.000000;-0.102769
9359.000000;-0.101181
9358.000000;-0.100115
9357.000000;-0.099258
9356.000000;-0.098198
9355.000000;-0.096801
9354.000000;-0.095189
9353.000000;-0.093510
9352.000000;-0.091842
9351.000000;-0.090252
9350.000000;-0.088813
9349.000000;-0.087530
9348.000000;-0.086327
9347.000000;-0.085122
9346.000000;-0.083888
9345.000000;-0.082605
9344.000000;-0.081190
9343.000000;-0.079541
9342.000000;-0.077672
9341.000000;-0.075807
9340.000000;-0.074249
9339.000000;-0.073124
9338.000000;-0.072217
9337.000000;-0.071105
9336.000000;-0.069496
9335.000000;-0.067460
9334.000000;-0.065375
9333.000000;-0.063623
9332.000000;-0.062317
9331.000000;-0.061283
9330.000000;-0.060274
9329.000000;-0.059167
9328.000000;-0.057943
9327.000000;-0.056586
9326.000000;-0.055112
9325.000000;-0.053677
9324.000000;-0.052505
9323.000000;-0.051591
9322.000000;-0.050606
9321.000000;-0.049215
9320.000000;-0.047445
9319.000000;-0.045613
9318.000000;-0.043938
9317.000000;-0.042371
9316.000000;-0.040801
9315.000000;-0.039254
9314.000000;-0.037805
9313.000000;-0.036444
9312.000000;-0.035129
9311.000000;-0.033873
9310.000000;-0.032646
9309.000000;-0.031285
9308.000000;-0.029660
9307.000000;-0.027892
9306.000000;-0.026268
9305.000000;-0.024929
9304.000000;-0.023747
9303.000000;-0.022532
9302.000000;-0.021227
9301.000000;-0.019873
9300.000000;-0.018497
9299.000000;-0.017128
9298.000000;-0.015842
9297.000000;-0.014666
9296.000000;-0.013466
9295.000000;-0.012033
9294.000000;-0.010285
9293.000000;-0.008377
9292.000000;-0.006575
9291.000000;-0.005063
9290.000000;-0.003838
9289.000000;-0.002752
9288.000000;-0.001636
9287.000000;-0.000392
9286.000000;0.000990
9285.000000;0.002453
9284.000000;0.003843
9283.000000;0.004925
9282.000000;0.005564
9281.000000;0.005947
9280.000000;0.006542
9279.000000;0.007728
9278.000000;0.009485
9277.000000;0.011472
9276.000000;0.013348
9275.000000;0.014958
9274.000000;0.016311
9273.000000;0.017526
9272.000000;0.018782
9271.000000;0.020162
9270.000000;0.021524
9269.000000;0.022656
9268.000000;0.023601
9267.000000;0.024676
9266.000000;0.026108
9265.000000;0.027761
9264.000000;0.029340
9263.000000;0.030726
9262.000000;0.031994
9261.000000;0.033179
9260.000000;0.034229
9259.000000;0.035170
9258.000000;0.036144
9257.000000;0.037227
9256.000000;0.038347
9255.000000;0.039409
9254.000000;0.040403
9253.000000;0.041325
9252.000000;0.042126
9251.000000;0.042844
9250.000000;0.043706
9249.000000;0.044961
9248.000000;0.046589
9247.000000;0.048274
9246.000000;0.049670
9245.000000;0.050684
9244.000000;0.051486
9243.000000;0.052303
9242.000000;0.053235
9241.000000;0.054241
9240.000000;0.055274
9239.000000;0.056391
9238.000000;0.057705
9237.000000;0.059216
9236.000000;0.060739
9235.000000;0.062043
9234.000000;0.063062
9233.000000;0.063918
9232.000000;0.064760
9231.000000;0.065641
9230.000000;0.066542
9229.000000;0.067475
9228.000000;0.068477
9227.000000;0.069527
9226.000000;0.070527
9225.000000;0.071416
9224.000000;0.072294
9223.000000;0.073390
9222.000000;0.074832
9221.000000;0.076465
9220.000000;0.077953
9219.000000;0.079085
9218.000000;0.079921
9217.000000;0.080610
9216.000000;0.081186
9215.000000;0.081638
9214.000000;0.082107
9213.000000;0.082828
9212.000000;0.083853
9211.000000;0.084980
9210.000000;0.086013
9209.000000;0.086978
9208.000000;0.088004
9207.000000;0.089129
9206.000000;0.090313
9205.000000;0.091548
9204.000000;0.092797
9203.000000;0.093916
9202.000000;0.094815
9201.000000;0.095689
9200.000000;0.096855
9199.000000;0.098321
9198.000000;0.099701
9197.000000;0.100654
9196.000000;0.101263
9195.000000;0.101857
9194.000000;0.102567
9193.000000;0.103271
9192.000000;0.103902
9191.000000;0.104633
9190.000000;0.105675
9189.000000;0.107017
9188.000000;0.108433
9187.000000;0.109702
9186.000000;0.110758
9185.000000;0.111673
9184.000000;0.112524
9183.000000;0.113326
9182.000000;0.114070
9181.000000;0.114825
9180.000000;0.115713
9179.000000;0.116727
9178.000000;0.117646
9177.000000;0.118231
9176.000000;0.118531
9175.000000;0.118878
9174.000000;0.119562
9173.000000;0.120555
9172.000000;0.121597
9171.000000;0.122502
9170.000000;0.123301
9169.000000;0.124124
9168.000000;0.125017
9167.000000;0.125914
9166.000000;0.126737
9165.000000;0.127508
9164.000000;0.128348
9163.000000;0.129360
9162.000000;0.130499
9161.000000;0.131557
9160.000000;0.132306
9159.000000;0.132698
9158.000000;0.132922
9157.000000;0.133262
9156.000000;0.133881
9155.000000;0.134731
9154.000000;0.135640
9153.000000;0.136466
9152.000000;0.137164
9151.000000;0.137784
9150.000000;0.138451
9149.000000;0.139296
9148.000000;0.140341
9147.000000;0.141415
9146.000000;0.142278
9145.000000;0.142855
9144.000000;0.143304
9143.000000;0.143829
9142.000000;0.144505
9141.000000;0.145315
9140.000000;0.146246
9139.000000;0.147246
9138.000000;0.148144
9137.000000;0.148785
9136.000000;0.149245
9135.000000;0.149818
9134.000000;0.150705
9133.000000;0.151806
9132.000000;0.152846
9131.000000;0.153648
9130.000000;0.154239
9129.000000;0.154764
9128.000000;0.155351
9127.000000;0.156035
9126.000000;0.156738
9125.000000;0.157336
9124.000000;0.157778
9123.000000;0.158143
9122.000000;0.158563
9121.000000;0.159124
9120.000000;0.159840
9119.000000;0.160667
9118.000000;0.161492
9117.000000;0.162179
9116.000000;0.162701
9115.000000;0.163197
9114.000000;0.163819
9113.000000;0.164535
9112.000000;0.165171
9111.000000;0.165662
9110.000000;0.166152
9109.000000;0.166793
9108.000000;0.167523
9107.000000;0.168151
9106.000000;0.168633
9105.000000;0.169156
9104.000000;0.169897
9103.000000;0.170781
9102.000000;0.171537
9101.000000;0.171977
9100.000000;0.172174
9099.000000;0.172379
9098.000000;0.172828
9097.000000;0.173595
9096.000000;0.174555
9095.000000;0.175467
9094.000000;0.176184
9093.000000;0.176814
9092.000000;0.177622
9091.000000;0.178695
9090.000000;0.179770
9089.000000;0.180468
9088.000000;0.180701
9087.000000;0.180743
9086.000000;0.180901
9085.000000;0.181224
9084.000000;0.181590
9083.000000;0.181965
9082.000000;0.182473
9081.000000;0.183211
9080.000000;0.184095
9079.000000;0.184946
9078.000000;0.185682
9077.000000;0.186388
9076.000000;0.187160
9075.000000;0.187931
9074.000000;0.188477
9073.000000;0.188659
9072.000000;0.188632
9071.000000;0.188732
9070.000000;0.189150
9069.000000;0.189745
9068.000000;0.190232
9067.000000;0.190499
9066.000000;0.190667
9065.000000;0.190895
9064.000000;0.191231
9063.000000;0.191686
9062.000000;0.192314
9061.000000;0.193121
9060.000000;0.193946
9059.000000;0.194556
9058.000000;0.194891
9057.000000;0.195135
9056.000000;0.195515
9055.000000;0.196092
9054.000000;0.196760
9053.000000;0.197386
9052.000000;0.197894
9051.000000;0.198251
9050.000000;0.198462
9049.000000;0.198570
9048.000000;0.198628
9047.000000;0.198676
9046.000000;0.198787
9045.000000;0.199086
9044.000000;0.199664
9043.000000;0.200445
9042.000000;0.201225
9041.000000;0.201850
9040.000000;0.202308
9039.000000;0.202632
9038.000000;0.202830
9037.000000;0.202969
9036.000000;0.203254
9035.000000;0.203880
9034.000000;0.204778
9033.000000;0.205593
9032.000000;0.205995
9031.000000;0.206023
9030.000000;0.206074
9029.000000;0.206521
9028.000000;0.207328
9027.000000;0.208072
9026.000000;0.208366
9025.000000;0.208259
9024.000000;0.208157
9023.000000;0.208380
9022.000000;0.208866
9021.000000;0.209335
9020.000000;0.209635
9019.000000;0.209851
9018.000000;0.210127
9017.000000;0.210523
9016.000000;0.211024
9015.000000;0.211595
9014.000000;0.212151
9013.000000;0.212567
9012.000000;0.212795
9011.000000;0.212925
9010.000000;0.213084
9009.000000;0.213283
9008.000000;0.213456
9007.000000;0.213643
9006.000000;0.214020
9005.000000;0.214688
9004.000000;0.215491
9003.000000;0.216130
9002.000000;0.216467
9001.000000;0.216594
9000.000000;0.216614
8999.000000;0.216500
8998.000000;0.216247
8997.000000;0.216050
8996.000000;0.216169
8995.000000;0.216622
8994.000000;0.217146
8993.000000;0.217496
8992.000000;0.217685
8991.000000;0.217884
8990.000000;0.218186
8989.000000;0.218522
8988.000000;0.218757
8987.000000;0.218834
8986.000000;0.218879
8985.000000;0.219160
8984.000000;0.219880
8983.000000;0.220921
8982.000000;0.221863
8981.000000;0.222333
8980.000000;0.222321
8979.000000;0.222133
8978.000000;0.222083
8977.000000;0.222277
8976.000000;0.222622
8975.000000;0.222942
8974.000000;0.223117
8973.000000;0.223185
8972.000000;0.223323
8971.000000;0.223690
8970.000000;0.224286
8969.000000;0.224961
8968.000000;0.225524
8967.000000;0.225827
8966.000000;0.225836
8965.000000;0.225683
8964.000000;0.225599
8963.000000;0.225704
8962.000000;0.225904
8961.000000;0.226042
8960.000000;0.226114
8959.000000;0.226249
8958.000000;0.226512
8957.000000;0.226832
8956.000000;0.227121
8955.000000;0.227371
8954.000000;0.227601
8953.000000;0.227793
8952.000000;0.227921
8951.000000;0.228007
8950.000000;0.228103
8949.000000;0.228251
8948.000000;0.228443
8947.000000;0.228621
8946.000000;0.228708
8945.000000;0.228684
8944.000000;0.228639
8943.000000;0.228724
8942.000000;0.229038
8941.000000;0.229568
8940.000000;0.230211
8939.000000;0.230833
8938.000000;0.231335
8937.000000;0.231697
8936.000000;0.231949
8935.000000;0.232089
8934.000000;0.232078
8933.000000;0.231918
8932.000000;0.231701
8931.000000;0.231543
8930.000000;0.231520
8929.000000;0.231704
8928.000000;0.232158
8927.000000;0.232817
8926.000000;0.233432
8925.000000;0.233736
8924.000000;0.233665
8923.000000;0.233357
8922.000000;0.233005
8921.000000;0.232787
8920.000000;0.232871
8919.000000;0.233299
8918.000000;0.233845
8917.000000;0.234142
8916.000000;0.234029
8915.000000;0.233708
8914.000000;0.233502
8913.000000;0.233536
8912.000000;0.233707
8911.000000;0.233878
8910.000000;0.234032
8909.000000;0.234247
8908.000000;0.234582
8907.000000;0.234987
8906.000000;0.235323
8905.000000;0.235473
8904.000000;0.235445
8903.000000;0.235360
8902.000000;0.235340
8901.000000;0.235446
8900.000000;0.235686
8899.000000;0.236010
8898.000000;0.236297
8897.000000;0.236414
8896.000000;0.236336
8895.000000;0.236195
8894.000000;0.236151
8893.000000;0.236240
8892.000000;0.236353
8891.000000;0.236358
8890.000000;0.236252
8889.000000;0.236209
8888.000000;0.236451
8887.000000;0.237032
8886.000000;0.237728
8885.000000;0.238185
8884.000000;0.238200
8883.000000;0.237890
8882.000000;0.237588
8881.000000;0.237551
8880.000000;0.237746
8879.000000;0.237904
8878.000000;0.237830
8877.000000;0.237630
8876.000000;0.237575
8875.000000;0.237733
8874.000000;0.237868
8873.000000;0.237749
8872.000000;0.237440
8871.000000;0.237188
8870.000000;0.237135
8869.000000;0.237261
8868.000000;0.237518
8867.000000;0.237830
8866.000000;0.238015
8865.000000;0.237903
8864.000000;0.237593
8863.000000;0.237401
8862.000000;0.237492
8861.000000;0.237705
8860.000000;0.237798
8859.000000;0.237752
8858.000000;0.237706
8857.000000;0.237724
8856.000000;0.237757
8855.000000;0.237792
8854.000000;0.237911
8853.000000;0.238187
8852.000000;0.238581
8851.000000;0.238951
8850.000000;0.239122
8849.000000;0.238991
8848.000000;0.238611
8847.000000;0.238183
8846.000000;0.237910
8845.000000;0.237836
8844.000000;0.237836
8843.000000;0.237769
8842.000000;0.237611
8841.000000;0.237461
8840.000000;0.237418
8839.000000;0.237458
8838.000000;0.237454
8837.000000;0.237323
8836.000000;0.237126
8835.000000;0.237000
8834.000000;0.237035
8833.000000;0.237248
8832.000000;0.237618
8831.000000;0.238062
8830.000000;0.238384
8829.000000;0.238390
8828.000000;0.238103
8827.000000;0.237800
8826.000000;0.237759
8825.000000;0.237997
8824.000000;0.238292
8823.000000;0.238432
8822.000000;0.238398
8821.000000;0.238314
8820.000000;0.238276
8819.000000;0.238241
8818.000000;0.238095
8817.000000;0.237816
8816.000000;0.237533
8815.000000;0.237404
8814.000000;0.237474
8813.000000;0.237681
8812.000000;0.237932
8811.000000;0.238100
8810.000000;0.238002
8809.000000;0.237549
8808.000000;0.236916
8807.000000;0.236454
8806.000000;0.236356
8805.000000;0.236514
8804.000000;0.236714
8803.000000;0.236859
8802.000000;0.236926
8801.000000;0.236823
8800.000000;0.236470
8799.000000;0.235967
8798.000000;0.235550
8797.000000;0.235358
8796.000000;0.235333
8795.000000;0.235370
8794.000000;0.235458
8793.000000;0.235656
8792.000000;0.235983
8791.000000;0.236388
8790.000000;0.236768
8789.000000;0.236951
8788.000000;0.236740
8787.000000;0.236081
8786.000000;0.235202
8785.000000;0.234481
8784.000000;0.234106
8783.000000;0.233922
8782.000000;0.233679
8781.000000;0.233385
8780.000000;0.233296
8779.000000;0.233535
8778.000000;0.233870
8777.000000;0.233936
8776.000000;0.233616
8775.000000;0.233123
8774.000000;0.232760
8773.000000;0.232683
8772.000000;0.232848
8771.000000;0.233068
8770.000000;0.233136
8769.000000;0.233000
8768.000000;0.232836
8767.000000;0.232880
8766.000000;0.233166
8765.000000;0.233505
8764.000000;0.233712
8763.000000;0.233755
8762.000000;0.233674
8761.000000;0.233464
8760.000000;0.233102
8759.000000;0.232629
8758.000000;0.232142
8757.000000;0.231740
8756.000000;0.231502
8755.000000;0.231427
8754.000000;0.231395
8753.000000;0.231238
8752.000000;0.230927
8751.000000;0.230619
8750.000000;0.230472
8749.000000;0.230448
8748.000000;0.230379
8747.000000;0.230199
8746.000000;0.230018
8745.000000;0.229964
8744.000000;0.230003
8743.000000;0.229961
8742.000000;0.229736
8741.000000;0.229447
8740.000000;0.229345
8739.000000;0.229540
8738.000000;0.229866
8737.000000;0.230034
8736.000000;0.229893
8735.000000;0.229496
8734.000000;0.228984
8733.000000;0.228497
8732.000000;0.228192
8731.000000;0.228186
8730.000000;0.228411
8729.000000;0.228621
8728.000000;0.228615
8727.000000;0.228411
8726.000000;0.228150
8725.000000;0.227897
8724.000000;0.227613
8723.000000;0.227295
8722.000000;0.227049
8721.000000;0.226999
8720.000000;0.227129
8719.000000;0.227252
8718.000000;0.227144
8717.000000;0.226766
8716.000000;0.226323
8715.000000;0.226035
8714.000000;0.225848
8713.000000;0.225491
8712.000000;0.224844
8711.000000;0.224142
8710.000000;0.223729
8709.000000;0.223682
8708.000000;0.223767
8707.000000;0.223730
8706.000000;0.223524
8705.000000;0.223275
8704.000000;0.223113
8703.000000;0.223054
8702.000000;0.223006
8701.000000;0.222872
8700.000000;0.222670
8699.000000;0.222534
8698.000000;0.222559
8697.000000;0.222690
8696.000000;0.222783
8695.000000;0.222738
8694.000000;0.222530
8693.000000;0.222180
8692.000000;0.221774
8691.000000;0.221462
8690.000000;0.221307
8689.000000;0.221181
8688.000000;0.220903
8687.000000;0.220490
8686.000000;0.220150
8685.000000;0.220003
8684.000000;0.219922
8683.000000;0.219698
8682.000000;0.219280
8681.000000;0.218769
8680.000000;0.218281
8679.000000;0.217917
8678.000000;0.217805
8677.000000;0.218017
8676.000000;0.218411
8675.000000;0.218680
8674.000000;0.218617
8673.000000;0.218279
8672.000000;0.217854
8671.000000;0.217431
8670.000000;0.216997
8669.000000;0.216579
8668.000000;0.216273
8667.000000;0.216113
8666.000000;0.216016
8665.000000;0.215910
8664.000000;0.215846
8663.000000;0.215893
8662.000000;0.215964
8661.000000;0.215848
8660.000000;0.215430
8659.000000;0.214810
8658.000000;0.214190
8657.000000;0.213697
8656.000000;0.213364
8655.000000;0.213188
8654.000000;0.213122
8653.000000;0.213038
8652.000000;0.212794
8651.000000;0.212380
8650.000000;0.211941
8649.000000;0.211626
8648.000000;0.211434
8647.000000;0.211251
8646.000000;0.210995
8645.000000;0.210704
8644.000000;0.210494
8643.000000;0.210471
8642.000000;0.210651
8641.000000;0.210885
8640.000000;0.210870
8639.000000;0.210362
8638.000000;0.209448
8637.000000;0.208543
8636.000000;0.208038
8635.000000;0.207958
8634.000000;0.208040
8633.000000;0.208069
8632.000000;0.208031
8631.000000;0.207951
8630.000000;0.207759
8629.000000;0.207410
8628.000000;0.207030
8627.000000;0.206803
8626.000000;0.206757
8625.000000;0.206763
8624.000000;0.206701
8623.000000;0.206540
8622.000000;0.206273
8621.000000;0.205874
8620.000000;0.205361
8619.000000;0.204819
8618.000000;0.204339
8617.000000;0.203973
8616.000000;0.203737
8615.000000;0.203617
8614.000000;0.203542
8613.000000;0.203410
8612.000000;0.203168
8611.000000;0.202862
8610.000000;0.202597
8609.000000;0.202448
8608.000000;0.202384
8607.000000;0.202266
8606.000000;0.201937
8605.000000;0.201367
8604.000000;0.200700
8603.000000;0.200122
8602.000000;0.199709
8601.000000;0.199439
8600.000000;0.199279
8599.000000;0.199186
8598.000000;0.199057
8597.000000;0.198806
8596.000000;0.198504
8595.000000;0.198322
8594.000000;0.198305
8593.000000;0.198283
8592.000000;0.198066
8591.000000;0.197642
8590.000000;0.197135
8589.000000;0.196640
8588.000000;0.196179
8587.000000;0.195781
8586.000000;0.195496
8585.000000;0.195322
8584.000000;0.195191
8583.000000;0.195039
8582.000000;0.194855
8581.000000;0.194634
8580.000000;0.194323
8579.000000;0.193864
8578.000000;0.193304
8577.000000;0.192820
8576.000000;0.192582
8575.000000;0.192576
8574.000000;0.192610
8573.000000;0.192507
8572.000000;0.192263
8571.000000;0.191994
8570.000000;0.191767
8569.000000;0.191574
8568.000000;0.191404
8567.000000;0.191243
8566.000000;0.191017
8565.000000;0.190644
8564.000000;0.190164
8563.000000;0.189737
8562.000000;0.189472
8561.000000;0.189324
8560.000000;0.189193
8559.000000;0.189027
8558.000000;0.188815
8557.000000;0.188533
8556.000000;0.188193
8555.000000;0.187864
8554.000000;0.187604
8553.000000;0.187381
8552.000000;0.187120
8551.000000;0.186791
8550.000000;0.186412
8549.000000;0.186005
8548.000000;0.185603
8547.000000;0.185257
8546.000000;0.184980
8545.000000;0.184723
8544.000000;0.184440
8543.000000;0.184146
8542.000000;0.183853
8541.000000;0.183499
8540.000000;0.183024
8539.000000;0.182501
8538.000000;0.182088
8537.000000;0.181868
8536.000000;0.181781
8535.000000;0.181699
8534.000000;0.181506
8533.000000;0.181105
8532.000000;0.180499
8531.000000;0.179872
8530.000000;0.179505
8529.000000;0.179503
8528.000000;0.179664
8527.000000;0.179686
8526.000000;0.179459
8525.000000;0.179106
8524.000000;0.178774
8523.000000;0.178497
8522.000000;0.178249
8521.000000;0.178013
8520.000000;0.177766
8519.000000;0.177471
8518.000000;0.177151
8517.000000;0.176909
8516.000000;0.176793
8515.000000;0.176658
8514.000000;0.176266
8513.000000;0.175538
8512.000000;0.174684
8511.000000;0.174046
8510.000000;0.173821
8509.000000;0.173948
8508.000000;0.174197
8507.000000;0.174365
8506.000000;0.174377
8505.000000;0.174238
8504.000000;0.173939
8503.000000;0.173457
8502.000000;0.172864
8501.000000;0.172351
8500.000000;0.172058
8499.000000;0.171885
8498.000000;0.171584
8497.000000;0.171048
8496.000000;0.170447
8495.000000;0.170010
8494.000000;0.169760
8493.000000;0.169545
8492.000000;0.169284
8491.000000;0.169075
8490.000000;0.169046
8489.000000;0.169165
8488.000000;0.169241
8487.000000;0.169074
8486.000000;0.168606
8485.000000;0.167970
8484.000000;0.167411
8483.000000;0.167107
8482.000000;0.167014
8481.000000;0.166895
8480.000000;0.166533
8479.000000;0.165928
8478.000000;0.165280
8477.000000;0.164803
8476.000000;0.164570
8475.000000;0.164502
8474.000000;0.164465
8473.000000;0.164349
8472.000000;0.164095
8471.000000;0.163701
8470.000000;0.163218
8469.000000;0.162719
8468.000000;0.162244
8467.000000;0.161785
8466.000000;0.161341
8465.000000;0.160967
8464.000000;0.160720
8463.000000;0.160582
8462.000000;0.160467
8461.000000;0.160306
8460.000000;0.160093
8459.000000;0.159834
8458.000000;0.159518
8457.000000;0.159157
8456.000000;0.158810
8455.000000;0.158532
8454.000000;0.158322
8453.000000;0.158152
8452.000000;0.158000
8451.000000;0.157849
8450.000000;0.157659
8449.000000;0.157394
8448.000000;0.157056
8447.000000;0.156675
8446.000000;0.156282
8445.000000;0.155897
8444.000000;0.155503
8443.000000;0.155048
8442.000000;0.154516
8441.000000;0.154010
8440.000000;0.153694
8439.000000;0.153617
8438.000000;0.153638
8437.000000;0.153564
8436.000000;0.153316
8435.000000;0.152947
8434.000000;0.152558
8433.000000;0.152265
8432.000000;0.152148
8431.000000;0.152155
8430.000000;0.152099
8429.000000;0.151828
8428.000000;0.151379
8427.000000;0.150880
8426.000000;0.150377
8425.000000;0.149836
8424.000000;0.149299
8423.000000;0.148901
8422.000000;0.148710
8421.000000;0.148613
8420.000000;0.148440
8419.000000;0.148143
8418.000000;0.147828
8417.000000;0.147648
8416.000000;0.147669
8415.000000;0.147810
8414.000000;0.147893
8413.000000;0.147779
8412.000000;0.147480
8411.000000;0.147136
8410.000000;0.146885
8409.000000;0.146758
8408.000000;0.146656
8407.000000;0.146414
8406.000000;0.145954
8405.000000;0.145388
8404.000000;0.144935
8403.000000;0.144677
8402.000000;0.144462
8401.000000;0.144099
8400.000000;0.143599
8399.000000;0.143119
8398.000000;0.142741
8397.000000;0.142430
8396.000000;0.142167
8395.000000;0.141996
8394.000000;0.141890
8393.000000;0.141699
8392.000000;0.141319
8391.000000;0.140846
8390.000000;0.140497
8389.000000;0.140411
8388.000000;0.140547
8387.000000;0.140732
8386.000000;0.140789
8385.000000;0.140667
8384.000000;0.140466
8383.000000;0.140313
8382.000000;0.140207
8381.000000;0.140028
8380.000000;0.139676
8379.000000;0.139157
8378.000000;0.138525
8377.000000;0.137841
8376.000000;0.137196
8375.000000;0.136722
8374.000000;0.136499
8373.000000;0.136483
8372.000000;0.136543
8371.000000;0.136532
8370.000000;0.136342
8369.000000;0.135948
8368.000000;0.135446
8367.000000;0.134985
8366.000000;0.134621
8365.000000;0.134285
8364.000000;0.133918
8363.000000;0.133587
8362.000000;0.133388
8361.000000;0.133300
8360.000000;0.133199
8359.000000;0.133034
8358.000000;0.132900
8357.000000;0.132906
8356.000000;0.133001
8355.000000;0.132987
8354.000000;0.132705
8353.000000;0.132189
8352.000000;0.131640
8351.000000;0.131242
8350.000000;0.131011
8349.000000;0.130817
8348.000000;0.130521
8347.000000;0.130107
8346.000000;0.129693
8345.000000;0.129435
8344.000000;0.129381
8343.000000;0.129406
8342.000000;0.129312
8341.000000;0.129014
8340.000000;0.128610
8339.000000;0.128271
8338.000000;0.128104
8337.000000;0.128112
8336.000000;0.128207
8335.000000;0.128229
8334.000000;0.128024
8333.000000;0.127583
8332.000000;0.127072
8331.000000;0.126675
8330.000000;0.126430
8329.000000;0.126273
8328.000000;0.126159
8327.000000;0.126058
8326.000000;0.125895
8325.000000;0.125598
8324.000000;0.125201
8323.000000;0.124809
8322.000000;0.124477
8321.000000;0.124219
8320.000000;0.124088
8319.000000;0.124130
8318.000000;0.124239
8317.000000;0.124206
8316.000000;0.123946
8315.000000;0.123570
8314.000000;0.123210
8313.000000;0.122882
8312.000000;0.122567
8311.000000;0.122293
8310.000000;0.122072
8309.000000;0.121856
8308.000000;0.121628
8307.000000;0.121472
8306.000000;0.121442
8305.000000;0.121434
8304.000000;0.121285
8303.000000;0.120947
8302.000000;0.120506
8301.000000;0.120061
8300.000000;0.119683
8299.000000;0.119441
8298.000000;0.119355
8297.000000;0.119343
8296.000000;0.119261
8295.000000;0.119034
8294.000000;0.118698
8293.000000;0.118343
8292.000000;0.118050
8291.000000;0.117877
8290.000000;0.117809
8289.000000;0.117736
8288.000000;0.117535
8287.000000;0.117195
8286.000000;0.116843
8285.000000;0.116627
8284.000000;0.116590
8283.000000;0.116629
8282.000000;0.116552
8281.000000;0.116194
8280.000000;0.115554
8279.000000;0.114849
8278.000000;0.114383
8277.000000;0.114305
8276.000000;0.114484
8275.000000;0.114632
8274.000000;0.114572
8273.000000;0.114381
8272.000000;0.114266
8271.000000;0.114292
8270.000000;0.114289
8269.000000;0.114053
8268.000000;0.113621
8267.000000;0.113267
8266.000000;0.113208
8265.000000;0.113372
8264.000000;0.113484
8263.000000;0.113346
8262.000000;0.112998
8261.000000;0.112635
8260.000000;0.112424
8259.000000;0.112370
8258.000000;0.112341
8257.000000;0.112212
8256.000000;0.112000
8255.000000;0.111819
8254.000000;0.111720
8253.000000;0.111630
8252.000000;0.111474
8251.000000;0.111303
8250.000000;0.111207
8249.000000;0.111142
8248.000000;0.110951
8247.000000;0.110565
8246.000000;0.110115
8245.000000;0.109783
8244.000000;0.109586
8243.000000;0.109372
8242.000000;0.109011
8241.000000;0.108554
8240.000000;0.108196
8239.000000;0.108111
8238.000000;0.108319
8237.000000;0.108665
8236.000000;0.108904
8235.000000;0.108850
8234.000000;0.108505
8233.000000;0.108092
8232.000000;0.107880
8231.000000;0.107947
8230.000000;0.108101
8229.000000;0.108063
8228.000000;0.107739
8227.000000;0.107289
8226.000000;0.106968
8225.000000;0.106900
8224.000000;0.106997
8223.000000;0.107043
8222.000000;0.106866
8221.000000;0.106455
8220.000000;0.105950
8219.000000;0.105516
8218.000000;0.105234
8217.000000;0.105105
8216.000000;0.105085
8215.000000;0.105087
8214.000000;0.104996
8213.000000;0.104757
8212.000000;0.104443
8211.000000;0.104194
8210.000000;0.104080
8209.000000;0.104085
8208.000000;0.104192
8207.000000;0.104381
8206.000000;0.104551
8205.000000;0.104541
8204.000000;0.104279
8203.000000;0.103855
8202.000000;0.103430
8201.000000;0.103098
8200.000000;0.102874
8199.000000;0.102748
8198.000000;0.102690
8197.000000;0.102651
8196.000000;0.102611
8195.000000;0.102585
8194.000000;0.102565
8193.000000;0.102479
8192.000000;0.102273
8191.000000;0.101995
8190.000000;0.101747
8189.000000;0.101578
8188.000000;0.101468
8187.000000;0.101386
8186.000000;0.101316
8185.000000;0.101225
8184.000000;0.101080
8183.000000;0.100904
8182.000000;0.100778
8181.000000;0.100740
8180.000000;0.100719
8179.000000;0.100613
8178.000000;0.100418
8177.000000;0.100264
8176.000000;0.100273
8175.000000;0.100402
8174.000000;0.100457
8173.000000;0.100302
8172.000000;0.100019
8171.000000;0.099802
8170.000000;0.099729
8169.000000;0.099694
8168.000000;0.099586
8167.000000;0.099430
8166.000000;0.099301
8165.000000;0.099180
8164.000000;0.098975
8163.000000;0.098661
8162.000000;0.098321
8161.000000;0.098062
8160.000000;0.097939
8159.000000;0.097970
8158.000000;0.098133
8157.000000;0.098343
8156.000000;0.098475
8155.000000;0.098452
8154.000000;0.098297
8153.000000;0.098097
8152.000000;0.097946
8151.000000;0.097901
8150.000000;0.097941
8149.000000;0.097962
8148.000000;0.097839
8147.000000;0.097564
8146.000000;0.097280
8145.000000;0.097162
8144.000000;0.097256
8143.000000;0.097448
8142.000000;0.097578
8141.000000;0.097563
8140.000000;0.097417
8139.000000;0.097191
8138.000000;0.096921
8137.000000;0.096643
8136.000000;0.096424
8135.000000;0.096324
8134.000000;0.096319
8133.000000;0.096291
8132.000000;0.096134
8131.000000;0.095855
8130.000000;0.095561
8129.000000;0.095346
8128.000000;0.095228
8127.000000;0.095188
8126.000000;0.095212
8125.000000;0.095272
8124.000000;0.095302
8123.000000;0.095245
8122.000000;0.095117
8121.000000;0.094987
8120.000000;0.094905
8119.000000;0.094879
8118.000000;0.094919
8117.000000;0.095053
8116.000000;0.095272
8115.000000;0.095484
8114.000000;0.095565
8113.000000;0.095459
8112.000000;0.095197
8111.000000;0.094857
8110.000000;0.094502
8109.000000;0.094175
8108.000000;0.093900
8107.000000;0.093696
8106.000000;0.093590
8105.000000;0.093584
8104.000000;0.093616
8103.000000;0.093583
8102.000000;0.093435
8101.000000;0.093255
8100.000000;0.093184
8099.000000;0.093273
8098.000000;0.093447
8097.000000;0.093595
8096.000000;0.093648
8095.000000;0.093578
8094.000000;0.093386
8093.000000;0.093129
8092.000000;0.092902
8091.000000;0.092754
8090.000000;0.092649
8089.000000;0.092543
8088.000000;0.092451
8087.000000;0.092392
8086.000000;0.092320
8085.000000;0.092184
8084.000000;0.092042
8083.000000;0.092020
8082.000000;0.092150
8081.000000;0.092298
8080.000000;0.092297
8079.000000;0.092126
8078.000000;0.091922
8077.000000;0.091823
8076.000000;0.091829
8075.000000;0.091821
8074.000000;0.091705
8073.000000;0.091531
8072.000000;0.091426
8071.000000;0.091447
8070.000000;0.091531
8069.000000;0.091568
8068.000000;0.091503
8067.000000;0.091339
8066.000000;0.091132
8065.000000;0.090986
8064.000000;0.090986
8063.000000;0.091089
8062.000000;0.091137
8061.000000;0.091045
8060.000000;0.090921
8059.000000;0.090924
8058.000000;0.091058
8057.000000;0.091194
8056.000000;0.091239
8055.000000;0.091201
8054.000000;0.091100
8053.000000;0.090941
8052.000000;0.090785
8051.000000;0.090722
8050.000000;0.090752
8049.000000;0.090770
8048.000000;0.090714
8047.000000;0.090620
8046.000000;0.090528
8045.000000;0.090407
8044.000000;0.090250
8043.000000;0.090146
8042.000000;0.090179
8041.000000;0.090302
8040.000000;0.090394
8039.000000;0.090387
8038.000000;0.090284
8037.000000;0.090093
8036.000000;0.089836
8035.000000;0.089592
8034.000000;0.089450
8033.000000;0.089416
8032.000000;0.089412
8031.000000;0.089392
8030.000000;0.089381
8029.000000;0.089425
8028.000000;0.089520
8027.000000;0.089613
8026.000000;0.089640
8025.000000;0.089563
8024.000000;0.089420
8023.000000;0.089311
8022.000000;0.089297
8021.000000;0.089314
8020.000000;0.089254
8019.000000;0.089126
8018.000000;0.089073
8017.000000;0.089174
8016.000000;0.089312
8015.000000;0.089296
8014.000000;0.089104
8013.000000;0.088901
8012.000000;0.088825
8011.000000;0.088819
8010.000000;0.088737
8009.000000;0.088570
8008.000000;0.088471
8007.000000;0.088556
8006.000000;0.088755
8005.000000;0.088904
8004.000000;0.088943
8003.000000;0.088953
8002.000000;0.089016
8001.000000;0.089107
8000.000000;0.089141
7999.000000;0.089086
7998.000000;0.088970
7997.000000;0.088824
7996.000000;0.088648
7995.000000;0.088446
7994.000000;0.088261
7993.000000;0.088151
7992.000000;0.088127
7991.000000;0.088125
7990.000000;0.088054
7989.000000;0.087889
7988.000000;0.087711
7987.000000;0.087624
7986.000000;0.087650
7985.000000;0.087715
7984.000000;0.087749
7983.000000;0.087750
7982.000000;0.087757
7981.000000;0.087791
7980.000000;0.087831
7979.000000;0.087824
7978.000000;0.087708
7977.000000;0.087462
7976.000000;0.087168
7975.000000;0.086980
7974.000000;0.086980
7973.000000;0.087076
7972.000000;0.087107
7971.000000;0.087025
7970.000000;0.086937
7969.000000;0.086934
7968.000000;0.086969
7967.000000;0.086935
7966.000000;0.086835
7965.000000;0.086794
7964.000000;0.086907
7963.000000;0.087112
7962.000000;0.087247
7961.000000;0.087202
7960.000000;0.087012
7959.000000;0.086815
7958.000000;0.086742
7957.000000;0.086813
7956.000000;0.086933
7955.000000;0.086979
7954.000000;0.086920
7953.000000;0.086826
7952.000000;0.086767
7951.000000;0.086732
7950.000000;0.086663
7949.000000;0.086543
7948.000000;0.086408
7947.000000;0.086306
7946.000000;0.086265
7945.000000;0.086303
7944.000000;0.086409
7943.000000;0.086510
7942.000000;0.086516
7941.000000;0.086425
7940.000000;0.086345
7939.000000;0.086380
7938.000000;0.086497
7937.000000;0.086551
7936.000000;0.086436
7935.000000;0.086191
7934.000000;0.085959
7933.000000;0.085857
7932.000000;0.085891
7931.000000;0.085981
7930.000000;0.086072
7929.000000;0.086172
7928.000000;0.086266
7927.000000;0.086253
7926.000000;0.086043
7925.000000;0.085731
7924.000000;0.085568
7923.000000;0.085702
7922.000000;0.086010
7921.000000;0.086245
7920.000000;0.086296
7919.000000;0.086237
7918.000000;0.086172
7917.000000;0.086122
7916.000000;0.086058
7915.000000;0.085960
7914.000000;0.085806
7913.000000;0.085589
7912.000000;0.085351
7911.000000;0.085178
7910.000000;0.085121
7909.000000;0.085151
7908.000000;0.085215
7907.000000;0.085277
7906.000000;0.085316
7905.000000;0.085299
7904.000000;0.085223
7903.000000;0.085154
7902.000000;0.085185
7901.000000;0.085340
7900.000000;0.085532
7899.000000;0.085629
7898.000000;0.085575
7897.000000;0.085421
7896.000000;0.085249
7895.000000;0.085091
7894.000000;0.084943
7893.000000;0.084843
7892.000000;0.084857
7891.000000;0.084971
7890.000000;0.085062
7889.000000;0.085034
7888.000000;0.084931
7887.000000;0.084864
7886.000000;0.084876
7885.000000;0.084919
7884.000000;0.084956
7883.000000;0.084999
7882.000000;0.085053
7881.000000;0.085069
7880.000000;0.085008
7879.000000;0.084889
7878.000000;0.084785
7877.000000;0.084760
7876.000000;0.084838
7875.000000;0.084964
7874.000000;0.085026
7873.000000;0.084933
7872.000000;0.084701
7871.000000;0.084449
7870.000000;0.084300
7869.000000;0.084298
7868.000000;0.084390
7867.000000;0.084477
7866.000000;0.084472
7865.000000;0.084354
7864.000000;0.084177
7863.000000;0.084012
7862.000000;0.083901
7861.000000;0.083869
7860.000000;0.083919
7859.000000;0.084000
7858.000000;0.084012
7857.000000;0.083906
7856.000000;0.083755
7855.000000;0.083680
7854.000000;0.083716
7853.000000;0.083806
7852.000000;0.083895
7851.000000;0.083953
7850.000000;0.083942
7849.000000;0.083834
7848.000000;0.083689
7847.000000;0.083619
7846.000000;0.083654
7845.000000;0.083703
7844.000000;0.083689
7843.000000;0.083650
7842.000000;0.083670
7841.000000;0.083755
7840.000000;0.083823
7839.000000;0.083802
7838.000000;0.083698
7837.000000;0.083584
7836.000000;0.083541
7835.000000;0.083595
7834.000000;0.083684
7833.000000;0.083718
7832.000000;0.083657
7831.000000;0.083532
7830.000000;0.083388
7829.000000;0.083256
7828.000000;0.083163
7827.000000;0.083139
7826.000000;0.083173
7825.000000;0.083211
7824.000000;0.083209
7823.000000;0.083180
7822.000000;0.083164
7821.000000;0.083179
7820.000000;0.083207
7819.000000;0.083202
7818.000000;0.083108
7817.000000;0.082897
7816.000000;0.082617
7815.000000;0.082374
7814.000000;0.082271
7813.000000;0.082343
7812.000000;0.082539
7811.000000;0.082736
7810.000000;0.082795
7809.000000;0.082672
7808.000000;0.082451
7807.000000;0.082248
7806.000000;0.082089
7805.000000;0.081947
7804.000000;0.081848
7803.000000;0.081864
7802.000000;0.081990
7801.000000;0.082128
7800.000000;0.082221
7799.000000;0.082302
7798.000000;0.082396
7797.000000;0.082436
7796.000000;0.082362
7795.000000;0.082223
7794.000000;0.082132
7793.000000;0.082142
7792.000000;0.082229
7791.000000;0.082346
7790.000000;0.082440
7789.000000;0.082452
7788.000000;0.082365
7787.000000;0.082235
7786.000000;0.082127
7785.000000;0.082040
7784.000000;0.081932
7783.000000;0.081802
7782.000000;0.081697
7781.000000;0.081651
7780.000000;0.081673
7779.000000;0.081767
7778.000000;0.081918
7777.000000;0.082053
7776.000000;0.082067
7775.000000;0.081914
7774.000000;0.081659
7773.000000;0.081429
7772.000000;0.081323
7771.000000;0.081367
7770.000000;0.081499
7769.000000;0.081628
7768.000000;0.081691
7767.000000;0.081685
7766.000000;0.081636
7765.000000;0.081561
7764.000000;0.081480
7763.000000;0.081421
7762.000000;0.081408
7761.000000;0.081434
7760.000000;0.081474
7759.000000;0.081501
7758.000000;0.081495
7757.000000;0.081451
7756.000000;0.081407
7755.000000;0.081420
7754.000000;0.081495
7753.000000;0.081559
7752.000000;0.081531
7751.000000;0.081410
7750.000000;0.081267
7749.000000;0.081177
7748.000000;0.081173
7747.000000;0.081238
7746.000000;0.081312
7745.000000;0.081307
7744.000000;0.081173
7743.000000;0.080941
7742.000000;0.080694
7741.000000;0.080511
7740.000000;0.080442
7739.000000;0.080503
7738.000000;0.080646
7737.000000;0.080760
7736.000000;0.080747
7735.000000;0.080612
7734.000000;0.080459
7733.000000;0.080397
7732.000000;0.080454
7731.000000;0.080586
7730.000000;0.080728
7729.000000;0.080824
7728.000000;0.080845
7727.000000;0.080793
7726.000000;0.080705
7725.000000;0.080644
7724.000000;0.080649
7723.000000;0.080698
7722.000000;0.080721
7721.000000;0.080668
7720.000000;0.080561
7719.000000;0.080460
7718.000000;0.080391
7717.000000;0.080351
7716.000000;0.080342
7715.000000;0.080374
7714.000000;0.080423
7713.000000;0.080445
7712.000000;0.080432
7711.000000;0.080419
7710.000000;0.080413
7709.000000;0.080371
7708.000000;0.080270
7707.000000;0.080156
7706.000000;0.080085
7705.000000;0.080063
7704.000000;0.080068
7703.000000;0.080088
7702.000000;0.080103
7701.000000;0.080078
7700.000000;0.080010
7699.000000;0.079955
7698.000000;0.079965
7697.000000;0.080006
7696.000000;0.080002
7695.000000;0.079934
7694.000000;0.079857
7693.000000;0.079840
7692.000000;0.079912
7691.000000;0.080058
7690.000000;0.080218
7689.000000;0.080303
7688.000000;0.080256
7687.000000;0.080101
7686.000000;0.079917
7685.000000;0.079758
7684.000000;0.079621
7683.000000;0.079490
7682.000000;0.079364
7681.000000;0.079261
7680.000000;0.079199
7679.000000;0.079181
7678.000000;0.079186
7677.000000;0.079181
7676.000000;0.079171
7675.000000;0.079200
7674.000000;0.079285
7673.000000;0.079371
7672.000000;0.079384
7671.000000;0.079326
7670.000000;0.079275
7669.000000;0.079285
7668.000000;0.079328
7667.000000;0.079344
7666.000000;0.079322
7665.000000;0.079306
7664.000000;0.079333
7663.000000;0.079390
7662.000000;0.079435
7661.000000;0.079443
7660.000000;0.079417
7659.000000;0.079359
7658.000000;0.079248
7657.000000;0.079078
7656.000000;0.078890
7655.000000;0.078743
7654.000000;0.078648
7653.000000;0.078571
7652.000000;0.078505
7651.000000;0.078491
7650.000000;0.078564
7649.000000;0.078705
7648.000000;0.078855
7647.000000;0.078961
7646.000000;0.078985
7645.000000;0.078909
7644.000000;0.078757
7643.000000;0.078603
7642.000000;0.078507
7641.000000;0.078476
7640.000000;0.078478
7639.000000;0.078480
7638.000000;0.078461
7637.000000;0.078408
7636.000000;0.078338
7635.000000;0.078301
7634.000000;0.078317
7633.000000;0.078354
7632.000000;0.078369
7631.000000;0.078361
7630.000000;0.078351
7629.000000;0.078331
7628.000000;0.078277
7627.000000;0.078199
7626.000000;0.078129
7625.000000;0.078090
7624.000000;0.078084
7623.000000;0.078111
7622.000000;0.078160
7621.000000;0.078199
7620.000000;0.078210
7619.000000;0.078214
7618.000000;0.078236
7617.000000;0.078248
7616.000000;0.078197
7615.000000;0.078079
7614.000000;0.077949
7613.000000;0.077848
7612.000000;0.077768
7611.000000;0.077700
7610.000000;0.077675
7609.000000;0.077731
7608.000000;0.077854
7607.000000;0.077975
7606.000000;0.078022
7605.000000;0.077972
7604.000000;0.077856
7603.000000;0.077735
7602.000000;0.077650
7601.000000;0.077609
7600.000000;0.077604
7599.000000;0.077631
7598.000000;0.077675
7597.000000;0.077700
7596.000000;0.077669
7595.000000;0.077580
7594.000000;0.077477
7593.000000;0.077420
7592.000000;0.077435
7591.000000;0.077487
7590.000000;0.077515
7589.000000;0.077493
7588.000000;0.077447
7587.000000;0.077407
7586.000000;0.077352
7585.000000;0.077246
7584.000000;0.077099
7583.000000;0.076953
7582.000000;0.076824
7581.000000;0.076704
7580.000000;0.076613
7579.000000;0.076590
7578.000000;0.076623
7577.000000;0.076662
7576.000000;0.076716
7575.000000;0.076844
7574.000000;0.077039
7573.000000;0.077181
7572.000000;0.077188
7571.000000;0.077112
7570.000000;0.077045
7569.000000;0.076987
7568.000000;0.076880
7567.000000;0.076737
7566.000000;0.076633
7565.000000;0.076594
7564.000000;0.076590
7563.000000;0.076613
7562.000000;0.076682
7561.000000;0.076769
7560.000000;0.076794
7559.000000;0.076711
7558.000000;0.076553
7557.000000;0.076396
7556.000000;0.076302
7555.000000;0.076313
7554.000000;0.076416
7553.000000;0.076531
7552.000000;0.076550
7551.000000;0.076430
7550.000000;0.076217
7549.000000;0.076002
7548.000000;0.075872
7547.000000;0.075869
7546.000000;0.075946
7545.000000;0.075995
7544.000000;0.075962
7543.000000;0.075907
7542.000000;0.075909
7541.000000;0.075940
7540.000000;0.075916
7539.000000;0.075836
7538.000000;0.075784
7537.000000;0.075791
7536.000000;0.075790
7535.000000;0.075728
7534.000000;0.075647
7533.000000;0.075612
7532.000000;0.075624
7531.000000;0.075642
7530.000000;0.075649
7529.000000;0.075666
7528.000000;0.075711
7527.000000;0.075776
7526.000000;0.075832
7525.000000;0.075847
7524.000000;0.075810
7523.000000;0.075743
7522.000000;0.075670
7521.000000;0.075603
7520.000000;0.075550
7519.000000;0.075530
7518.000000;0.075535
7517.000000;0.075517
7516.000000;0.075440
7515.000000;0.075335
7514.000000;0.075250
7513.000000;0.075180
7512.000000;0.075109
7511.000000;0.075071
7510.000000;0.075108
7509.000000;0.075182
7508.000000;0.075201
7507.000000;0.075142
7506.000000;0.075068
7505.000000;0.075031
7504.000000;0.075021
7503.000000;0.075026
7502.000000;0.075055
7501.000000;0.075087
7500.000000;0.075072
7499.000000;0.074996
7498.000000;0.074906
7497.000000;0.074849
7496.000000;0.074829
7495.000000;0.074839
7494.000000;0.074856
7493.000000;0.074839
7492.000000;0.074694
7491.000000;0.074486
7490.000000;0.074330
7489.000000;0.074293
7488.000000;0.074374
7487.000000;0.074499
7486.000000;0.074604
7485.000000;0.074631
7484.000000;0.074561
7483.000000;0.074440
7482.000000;0.074346
7481.000000;0.074298
7480.000000;0.074250
7479.000000;0.074175
7478.000000;0.074115
7477.000000;0.074098
7476.000000;0.074091
7475.000000;0.074046
7474.000000;0.073972
7473.000000;0.073924
7472.000000;0.073953
7471.000000;0.074072
7470.000000;0.074232
7469.000000;0.074319
7468.000000;0.074236
7467.000000;0.074021
7466.000000;0.073821
7465.000000;0.073737
7464.000000;0.073741
7463.000000;0.073752
7462.000000;0.073739
7461.000000;0.073721
7460.000000;0.073719
7459.000000;0.073740
7458.000000;0.073758
7457.000000;0.073707
7456.000000;0.073540
7455.000000;0.073319
7454.000000;0.073177
7453.000000;0.073170
7452.000000;0.073222
7451.000000;0.073239
7450.000000;0.073212
7449.000000;0.073184
7448.000000;0.073183
7447.000000;0.073212
7446.000000;0.073262
7445.000000;0.073300
7444.000000;0.073295
7443.000000;0.073267
7442.000000;0.073260
7441.000000;0.073268
7440.000000;0.073238
7439.000000;0.073162
7438.000000;0.073098
7437.000000;0.073077
7436.000000;0.073049
7435.000000;0.072975
7434.000000;0.072890
7433.000000;0.072833
7432.000000;0.072793
7431.000000;0.072759
7430.000000;0.072756
7429.000000;0.072799
7428.000000;0.072855
7427.000000;0.072882
7426.000000;0.072845
7425.000000;0.072712
7424.000000;0.072506
7423.000000;0.072344
7422.000000;0.072360
7421.000000;0.072555
7420.000000;0.072771
7419.000000;0.072861
7418.000000;0.072812
7417.000000;0.072698
7416.000000;0.072585
7415.000000;0.072504
7414.000000;0.072465
7413.000000;0.072446
7412.000000;0.072406
7411.000000;0.072358
7410.000000;0.072365
7409.000000;0.072417
7408.000000;0.072404
7407.000000;0.072272
7406.000000;0.072104
7405.000000;0.072005
7404.000000;0.071968
7403.000000;0.071910
7402.000000;0.071811
7401.000000;0.071733
7400.000000;0.071711
7399.000000;0.071753
7398.000000;0.071870
7397.000000;0.071978
7396.000000;0.071917
7395.000000;0.071676
7394.000000;0.071405
7393.000000;0.071155
7392.000000;0.070818
7391.000000;0.070383
7390.000000;0.070095
7389.000000;0.070192
7388.000000;0.070612
7387.000000;0.071081
7386.000000;0.071381
7385.000000;0.071427
7384.000000;0.071283
7383.000000;0.071160
7382.000000;0.071231
7381.000000;0.071457
7380.000000;0.071653
7379.000000;0.071718
7378.000000;0.071695
7377.000000;0.071621
7376.000000;0.071516
7375.000000;0.071462
7374.000000;0.071525
7373.000000;0.071605
7372.000000;0.071501
7371.000000;0.071156
7370.000000;0.070766
7369.000000;0.070534
7368.000000;0.070460
7367.000000;0.070503
7366.000000;0.070700
7365.000000;0.070906
7364.000000;0.070824
7363.000000;0.070434
7362.000000;0.070031
7361.000000;0.069911
7360.000000;0.070118
7359.000000;0.070462
7358.000000;0.070657
7357.000000;0.070517
7356.000000;0.070135
7355.000000;0.069832
7354.000000;0.069905
7353.000000;0.070283
7352.000000;0.070570
7351.000000;0.070446
7350.000000;0.070002
7349.000000;0.069605
7348.000000;0.069518
7347.000000;0.069649
7346.000000;0.069645
7345.000000;0.069292
7344.000000;0.068840
7343.000000;0.068896
7342.000000;0.069774
7341.000000;0.071003
7340.000000;0.071732
7339.000000;0.071620
7338.000000;0.071106
7337.000000;0.070689
7336.000000;0.070422
7335.000000;0.070173
7334.000000;0.069921
7333.000000;0.069769
7332.000000;0.069817
7331.000000;0.069942
7330.000000;0.069901
7329.000000;0.069651
7328.000000;0.069449
7327.000000;0.069486
7326.000000;0.069618
7325.000000;0.069550
7324.000000;0.069133
7323.000000;0.068565
7322.000000;0.068276
7321.000000;0.068516
7320.000000;0.069064
7319.000000;0.069482
7318.000000;0.069644
7317.000000;0.069746
7316.000000;0.069871
7315.000000;0.069834
7314.000000;0.069465
7313.000000;0.068997
7312.000000;0.068965
7311.000000;0.069509
7310.000000;0.070094
7309.000000;0.070099
7308.000000;0.069477
7307.000000;0.068724
7306.000000;0.068333
7305.000000;0.068472
7304.000000;0.068933
7303.000000;0.069176
7302.000000;0.068799
7301.000000;0.067954
7300.000000;0.067245
7299.000000;0.067209
7298.000000;0.067800
7297.000000;0.068441
7296.000000;0.068567
7295.000000;0.068208
7294.000000;0.067918
7293.000000;0.068156
7292.000000;0.068885
7291.000000;0.069644
7290.000000;0.070015
7289.000000;0.070061
7288.000000;0.070153
7287.000000;0.070400
7286.000000;0.070486
7285.000000;0.070183
7284.000000;0.069736
7283.000000;0.069469
7282.000000;0.069413
7281.000000;0.069398
7280.000000;0.069324
7279.000000;0.069239
7278.000000;0.069180
7277.000000;0.069143
7276.000000;0.069214
7275.000000;0.069466
7274.000000;0.069760
7273.000000;0.069907
7272.000000;0.069912
7271.000000;0.069905
7270.000000;0.069927
7269.000000;0.069931
7268.000000;0.069924
7267.000000;0.069966
7266.000000;0.070083
7265.000000;0.070277
7264.000000;0.070559
7263.000000;0.070861
7262.000000;0.071001
7261.000000;0.070877
7260.000000;0.070591
7259.000000;0.070296
7258.000000;0.070070
7257.000000;0.069970
7256.000000;0.070087
7255.000000;0.070450
7254.000000;0.070930
7253.000000;0.071306
7252.000000;0.071397
7251.000000;0.071240
7250.000000;0.070998
7249.000000;0.070754
7248.000000;0.070632
7247.000000;0.070778
7246.000000;0.071114
7245.000000;0.071391
7244.000000;0.071540
7243.000000;0.071724
7242.000000;0.072053
7241.000000;0.072388
7240.000000;0.072476
7239.000000;0.072160
7238.000000;0.071572
7237.000000;0.071129
7236.000000;0.071192
7235.000000;0.071737
7234.000000;0.072413
7233.000000;0.072836
7232.000000;0.072772
7231.000000;0.072385
7230.000000;0.072034
7229.000000;0.071796
7228.000000;0.071632
7227.000000;0.071624
7226.000000;0.071756
7225.000000;0.071859
7224.000000;0.071842
7223.000000;0.071723
7222.000000;0.071472
7221.000000;0.071093
7220.000000;0.070789
7219.000000;0.070745
7218.000000;0.070855
7217.000000;0.070872
7216.000000;0.070691
7215.000000;0.070384
7214.000000;0.070086
7213.000000;0.069943
7212.000000;0.070023
7211.000000;0.070242
7210.000000;0.070393
7209.000000;0.070372
7208.000000;0.070339
7207.000000;0.070503
7206.000000;0.070800
7205.000000;0.071026
7204.000000;0.071138
7203.000000;0.071193
7202.000000;0.071120
7201.000000;0.070820
7200.000000;0.070399
7199.000000;0.070052
7198.000000;0.069832
7197.000000;0.069671
7196.000000;0.069550
7195.000000;0.069478
7194.000000;0.069403
7193.000000;0.069297
7192.000000;0.069225
7191.000000;0.069244
7190.000000;0.069279
7189.000000;0.069263
7188.000000;0.069236
7187.000000;0.069212
7186.000000;0.069103
7185.000000;0.068800
7184.000000;0.068305
7183.000000;0.067753
7182.000000;0.067351
7181.000000;0.067310
7180.000000;0.067739
7179.000000;0.068428
7178.000000;0.068872
7177.000000;0.068802
7176.000000;0.068519
7175.000000;0.068436
7174.000000;0.068569
7173.000000;0.068686
7172.000000;0.068671
7171.000000;0.068648
7170.000000;0.068741
7169.000000;0.068945
7168.000000;0.069069
7167.000000;0.068867
7166.000000;0.068393
7165.000000;0.067942
7164.000000;0.067598
7163.000000;0.067136
7162.000000;0.066496
7161.000000;0.066074
7160.000000;0.066319
7159.000000;0.067093
7158.000000;0.067735
7157.000000;0.067807
7156.000000;0.067538
7155.000000;0.067365
7154.000000;0.067399
7153.000000;0.067503
7152.000000;0.067502
7151.000000;0.067329
7150.000000;0.067100
7149.000000;0.066970
7148.000000;0.066891
7147.000000;0.066712
7146.000000;0.066429
7145.000000;0.066248
7144.000000;0.066406
7143.000000;0.066870
7142.000000;0.067293
7141.000000;0.067336
7140.000000;0.067023
7139.000000;0.066676
7138.000000;0.066561
7137.000000;0.066623
7136.000000;0.066615
7135.000000;0.066428
7134.000000;0.066212
7133.000000;0.066190
7132.000000;0.066354
7131.000000;0.066457
7130.000000;0.066355
7129.000000;0.066133
7128.000000;0.065947
7127.000000;0.065857
7126.000000;0.065830
7125.000000;0.065831
7124.000000;0.065834
7123.000000;0.065808
7122.000000;0.065764
7121.000000;0.065708
7120.000000;0.065564
7119.000000;0.065230
7118.000000;0.064783
7117.000000;0.064534
7116.000000;0.064737
7115.000000;0.065216
7114.000000;0.065519
7113.000000;0.065468
7112.000000;0.065328
7111.000000;0.065371
7110.000000;0.065556
7109.000000;0.065680
7108.000000;0.065639
7107.000000;0.065434
7106.000000;0.065134
7105.000000;0.064877
7104.000000;0.064719
7103.000000;0.064630
7102.000000;0.064584
7101.000000;0.064560
7100.000000;0.064545
7099.000000;0.064525
7098.000000;0.064416
7097.000000;0.064130
7096.000000;0.063749
7095.000000;0.063530
7094.000000;0.063678
7093.000000;0.064095
7092.000000;0.064428
7091.000000;0.064429
7090.000000;0.064204
7089.000000;0.064043
7088.000000;0.064073
7087.000000;0.064164
7086.000000;0.064158
7085.000000;0.064038
7084.000000;0.063858
7083.000000;0.063642
7082.000000;0.063402
7081.000000;0.063183
7080.000000;0.063071
7079.000000;0.063118
7078.000000;0.063237
7077.000000;0.063294
7076.000000;0.063277
7075.000000;0.063238
7074.000000;0.063143
7073.000000;0.062921
7072.000000;0.062630
7071.000000;0.062459
7070.000000;0.062525
7069.000000;0.062715
7068.000000;0.062827
7067.000000;0.062778
7066.000000;0.062666
7065.000000;0.062623
7064.000000;0.062659
7063.000000;0.062687
7062.000000;0.062643
7061.000000;0.062524
7060.000000;0.062352
7059.000000;0.062176
7058.000000;0.062023
7057.000000;0.061878
7056.000000;0.061751
7055.000000;0.061684
7054.000000;0.061690
7053.000000;0.061757
7052.000000;0.061834
7051.000000;0.061838
7050.000000;0.061710
7049.000000;0.061489
7048.000000;0.061302
7047.000000;0.061261
7046.000000;0.061362
7045.000000;0.061477
7044.000000;0.061481
7043.000000;0.061345
7042.000000;0.061151
7041.000000;0.060994
7040.000000;0.060884
7039.000000;0.060779
7038.000000;0.060647
7037.000000;0.060507
7036.000000;0.060390
7035.000000;0.060297
7034.000000;0.060207
7033.000000;0.060149
7032.000000;0.060173
7031.000000;0.060257
7030.000000;0.060304
7029.000000;0.060249
7028.000000;0.060124
7027.000000;0.059992
7026.000000;0.059865
7025.000000;0.059738
7024.000000;0.059648
7023.000000;0.059633
7022.000000;0.059653
7021.000000;0.059629
7020.000000;0.059529
7019.000000;0.059384
7018.000000;0.059240
7017.000000;0.059126
7016.000000;0.059061
7015.000000;0.059022
7014.000000;0.058957
7013.000000;0.058859
7012.000000;0.058784
7011.000000;0.058773
7010.000000;0.058776
7009.000000;0.058717
7008.000000;0.058615
7007.000000;0.058562
7006.000000;0.058584
7005.000000;0.058611
7004.000000;0.058585
7003.000000;0.058537
7002.000000;0.058502
7001.000000;0.058460
7000.000000;0.058364
6999.000000;0.058217
6998.000000;0.058057
6997.000000;0.057922
6996.000000;0.057828
6995.000000;0.057777
6994.000000;0.057746
6993.000000;0.057689
6992.000000;0.057599
6991.000000;0.057517
6990.000000;0.057484
6989.000000;0.057501
6988.000000;0.057535
6987.000000;0.057548
6986.000000;0.057518
6985.000000;0.057427
6984.000000;0.057275
6983.000000;0.057095
6982.000000;0.056938
6981.000000;0.056836
6980.000000;0.056783
6979.000000;0.056750
6978.000000;0.056697
6977.000000;0.056595
6976.000000;0.056449
6975.000000;0.056296
6974.000000;0.056167
6973.000000;0.056077
6972.000000;0.056039
6971.000000;0.056041
6970.000000;0.056035
6969.000000;0.055980
6968.000000;0.055892
6967.000000;0.055816
6966.000000;0.055772
6965.000000;0.055721
6964.000000;0.055618
6963.000000;0.055477
6962.000000;0.055357
6961.000000;0.055293
6960.000000;0.055279
6959.000000;0.055287
6958.000000;0.055290
6957.000000;0.055276
6956.000000;0.055240
6955.000000;0.055169
6954.000000;0.055037
6953.000000;0.054838
6952.000000;0.054616
6951.000000;0.054432
6950.000000;0.054317
6949.000000;0.054263
6948.000000;0.054261
6947.000000;0.054296
6946.000000;0.054329
6945.000000;0.054325
6944.000000;0.054269
6943.000000;0.054166
6942.000000;0.054036
6941.000000;0.053918
6940.000000;0.053857
6939.000000;0.053852
6938.000000;0.053837
6937.000000;0.053744
6936.000000;0.053571
6935.000000;0.053381
6934.000000;0.053221
6933.000000;0.053107
6932.000000;0.053062
6931.000000;0.053096
6930.000000;0.053157
6929.000000;0.053150
6928.000000;0.053036
6927.000000;0.052853
6926.000000;0.052670
6925.000000;0.052540
6924.000000;0.052482
6923.000000;0.052471
6922.000000;0.052468
6921.000000;0.052465
6920.000000;0.052483
6919.000000;0.052545
6918.000000;0.052629
6917.000000;0.052684
6916.000000;0.052669
6915.000000;0.052587
6914.000000;0.052460
6913.000000;0.052321
6912.000000;0.052199
6911.000000;0.052096
6910.000000;0.051980
6909.000000;0.051823
6908.000000;0.051649
6907.000000;0.051504
6906.000000;0.051401
6905.000000;0.051327
6904.000000;0.051270
6903.000000;0.051218
6902.000000;0.051159
6901.000000;0.051090
6900.000000;0.051032
6899.000000;0.051016
6898.000000;0.051060
6897.000000;0.051140
6896.000000;0.051203
6895.000000;0.051186
6894.000000;0.051055
6893.000000;0.050842
6892.000000;0.050623
6891.000000;0.050469
6890.000000;0.050391
6889.000000;0.050352
6888.000000;0.050320
6887.000000;0.050286
6886.000000;0.050250
6885.000000;0.050197
6884.000000;0.050114
6883.000000;0.050002
6882.000000;0.049878
6881.000000;0.049773
6880.000000;0.049710
6879.000000;0.049689
6878.000000;0.049672
6877.000000;0.049606
6876.000000;0.049481
6875.000000;0.049335
6874.000000;0.049215
6873.000000;0.049140
6872.000000;0.049111
6871.000000;0.049119
6870.000000;0.049133
6869.000000;0.049107
6868.000000;0.049031
6867.000000;0.048943
6866.000000;0.048875
6865.000000;0.048816
6864.000000;0.048742
6863.000000;0.048654
6862.000000;0.048573
6861.000000;0.048510
6860.000000;0.048470
6859.000000;0.048456
6858.000000;0.048438
6857.000000;0.048373
6856.000000;0.048248
6855.000000;0.048105
6854.000000;0.047978
6853.000000;0.047876
6852.000000;0.047802
6851.000000;0.047772
6850.000000;0.047777
6849.000000;0.047771
6848.000000;0.047726
6847.000000;0.047668
6846.000000;0.047637
6845.000000;0.047631
6844.000000;0.047601
6843.000000;0.047511
6842.000000;0.047379
6841.000000;0.047251
6840.000000;0.047151
6839.000000;0.047069
6838.000000;0.046989
6837.000000;0.046921
6836.000000;0.046905
6835.000000;0.046963
6834.000000;0.047057
6833.000000;0.047119
6832.000000;0.047104
6831.000000;0.047010
6830.000000;0.046868
6829.000000;0.046726
6828.000000;0.046622
6827.000000;0.046562
6826.000000;0.046508
6825.000000;0.046419
6824.000000;0.046295
6823.000000;0.046167
6822.000000;0.046068
6821.000000;0.046008
6820.000000;0.045982
6819.000000;0.045968
6818.000000;0.045936
6817.000000;0.045864
6816.000000;0.045769
6815.000000;0.045688
6814.000000;0.045640
6813.000000;0.045617
6812.000000;0.045595
6811.000000;0.045535
6810.000000;0.045411
6809.000000;0.045242
6808.000000;0.045085
6807.000000;0.044995
6806.000000;0.044980
6805.000000;0.045013
6804.000000;0.045073
6803.000000;0.045148
6802.000000;0.045214
6801.000000;0.045240
6800.000000;0.045208
6799.000000;0.045115
6798.000000;0.044968
6797.000000;0.044795
6796.000000;0.044644
6795.000000;0.044553
6794.000000;0.044512
6793.000000;0.044489
6792.000000;0.044463
6791.000000;0.044421
6790.000000;0.044360
6789.000000;0.044291
6788.000000;0.044237
6787.000000;0.044206
6786.000000;0.044174
6785.000000;0.044117
6784.000000;0.044031
6783.000000;0.043915
6782.000000;0.043769
6781.000000;0.043617
6780.000000;0.043519
6779.000000;0.043510
6778.000000;0.043549
6777.000000;0.043549
6776.000000;0.043450
6775.000000;0.043262
6774.000000;0.043041
6773.000000;0.042851
6772.000000;0.042734
6771.000000;0.042691
6770.000000;0.042691
6769.000000;0.042704
6768.000000;0.042714
6767.000000;0.042716
6766.000000;0.042706
6765.000000;0.042690
6764.000000;0.042683
6763.000000;0.042680
6762.000000;0.042647
6761.000000;0.042559
6760.000000;0.042428
6759.000000;0.042282
6758.000000;0.042149
6757.000000;0.042055
6756.000000;0.042028
6755.000000;0.042062
6754.000000;0.042105
6753.000000;0.042099
6752.000000;0.042029
6751.000000;0.041925
6750.000000;0.041822
6749.000000;0.041733
6748.000000;0.041658
6747.000000;0.041587
6746.000000;0.041513
6745.000000;0.041446
6744.000000;0.041410
6743.000000;0.041404
6742.000000;0.041404
6741.000000;0.041395
6740.000000;0.041397
6739.000000;0.041422
6738.000000;0.041431
6737.000000;0.041381
6736.000000;0.041265
6735.000000;0.041112
6734.000000;0.040951
6733.000000;0.040806
6732.000000;0.040702
6731.000000;0.040649
6730.000000;0.040637
6729.000000;0.040650
6728.000000;0.040684
6727.000000;0.040714
6726.000000;0.040682
6725.000000;0.040563
6724.000000;0.040407
6723.000000;0.040278
6722.000000;0.040190
6721.000000;0.040123
6720.000000;0.040077
6719.000000;0.040060
6718.000000;0.040045
6717.000000;0.039992
6716.000000;0.039913
6715.000000;0.039854
6714.000000;0.039841
6713.000000;0.039854
6712.000000;0.039867
6711.000000;0.039873
6710.000000;0.039827
6709.000000;0.039739
6708.000000;0.039640
6707.000000;0.039532
6706.000000;0.039456
6705.000000;0.039417
6704.000000;0.039398
6703.000000;0.039375
6702.000000;0.039315
6701.000000;0.039192
6700.000000;0.039056
6699.000000;0.038967
6698.000000;0.038950
6697.000000;0.038957
6696.000000;0.038975
6695.000000;0.038981
6694.000000;0.038961
6693.000000;0.038903
6692.000000;0.038832
6691.000000;0.038788
6690.000000;0.038776
6689.000000;0.038754
6688.000000;0.038685
6687.000000;0.038575
6686.000000;0.038470
6685.000000;0.038410
6684.000000;0.038411
6683.000000;0.038452
6682.000000;0.038490
6681.000000;0.038482
6680.000000;0.038407
6679.000000;0.038278
6678.000000;0.038133
6677.000000;0.038023
6676.000000;0.037983
6675.000000;0.037995
6674.000000;0.037999
6673.000000;0.037955
6672.000000;0.037876
6671.000000;0.037793
6670.000000;0.037713
6669.000000;0.037627
6668.000000;0.037545
6667.000000;0.037494
6666.000000;0.037490
6665.000000;0.037521
6664.000000;0.037558
6663.000000;0.037564
6662.000000;0.037518
6661.000000;0.037442
6660.000000;0.037381
6659.000000;0.037339
6658.000000;0.037271
6657.000000;0.037149
6656.000000;0.037020
6655.000000;0.036941
6654.000000;0.036907
6653.000000;0.036868
6652.000000;0.036800
6651.000000;0.036725
6650.000000;0.036663
6649.000000;0.036619
6648.000000;0.036604
6647.000000;0.036622
6646.000000;0.036642
6645.000000;0.036627
6644.000000;0.036581
6643.000000;0.036540
6642.000000;0.036514
6641.000000;0.036477
6640.000000;0.036422
6639.000000;0.036366
6638.000000;0.036319
6637.000000;0.036266
6636.000000;0.036201
6635.000000;0.036139
6634.000000;0.036085
6633.000000;0.036027
6632.000000;0.035958
6631.000000;0.035892
6630.000000;0.035840
6629.000000;0.035792
6628.000000;0.035738
6627.000000;0.035682
6626.000000;0.035650
6625.000000;0.035671
6624.000000;0.035756
6623.000000;0.035875
6622.000000;0.035957
6621.000000;0.035945
6620.000000;0.035843
6619.000000;0.035704
6618.000000;0.035569
6617.000000;0.035444
6616.000000;0.035334
6615.000000;0.035255
6614.000000;0.035220
6613.000000;0.035212
6612.000000;0.035194
6611.000000;0.035138
6610.000000;0.035042
6609.000000;0.034940
6608.000000;0.034873
6607.000000;0.034841
6606.000000;0.034799
6605.000000;0.034712
6604.000000;0.034604
6603.000000;0.034517
6602.000000;0.034463
6601.000000;0.034436
6600.000000;0.034438
6599.000000;0.034475
6598.000000;0.034526
6597.000000;0.034552
6596.000000;0.034546
6595.000000;0.034523
6594.000000;0.034479
6593.000000;0.034395
6592.000000;0.034281
6591.000000;0.034179
6590.000000;0.034123
6589.000000;0.034110
6588.000000;0.034117
6587.000000;0.034118
6586.000000;0.034102
6585.000000;0.034069
6584.000000;0.034038
6583.000000;0.034010
6582.000000;0.033968
6581.000000;0.033901
6580.000000;0.033835
6579.000000;0.033807
6578.000000;0.033804
6577.000000;0.033781
6576.000000;0.033710
6575.000000;0.033609
6574.000000;0.033509
6573.000000;0.033433
6572.000000;0.033389
6571.000000;0.033373
6570.000000;0.033363
6569.000000;0.033340
6568.000000;0.033320
6567.000000;0.033321
6566.000000;0.033330
6565.000000;0.033315
6564.000000;0.033270
6563.000000;0.033220
6562.000000;0.033175
6561.000000;0.033121
6560.000000;0.033046
6559.000000;0.032964
6558.000000;0.032900
6557.000000;0.032873
6556.000000;0.032900
6555.000000;0.032965
6554.000000;0.033016
6553.000000;0.033001
6552.000000;0.032926
6551.000000;0.032844
6550.000000;0.032786
6549.000000;0.032735
6548.000000;0.032660
6547.000000;0.032553
6546.000000;0.032427
6545.000000;0.032306
6544.000000;0.032228
6543.000000;0.032230
6542.000000;0.032302
6541.000000;0.032382
6540.000000;0.032411
6539.000000;0.032380
6538.000000;0.032319
6537.000000;0.032270
6536.000000;0.032257
6535.000000;0.032277
6534.000000;0.032302
6533.000000;0.032301
6532.000000;0.032266
6531.000000;0.032200
6530.000000;0.032105
6529.000000;0.031990
6528.000000;0.031882
6527.000000;0.031808
6526.000000;0.031762
6525.000000;0.031721
6524.000000;0.031669
6523.000000;0.031608
6522.000000;0.031542
6521.000000;0.031474
6520.000000;0.031423
6519.000000;0.031405
6518.000000;0.031404
6517.000000;0.031385
6516.000000;0.031339
6515.000000;0.031295
6514.000000;0.031277
6513.000000;0.031282
6512.000000;0.031292
6511.000000;0.031287
6510.000000;0.031255
6509.000000;0.031206
6508.000000;0.031177
6507.000000;0.031198
6506.000000;0.031249
6505.000000;0.031279
6504.000000;0.031269
6503.000000;0.031235
6502.000000;0.031187
6501.000000;0.031111
6500.000000;0.031003
6499.000000;0.030902
6498.000000;0.030852
6497.000000;0.030859
6496.000000;0.030888
6495.000000;0.030909
6494.000000;0.030921
6493.000000;0.030937
6492.000000;0.030960
6491.000000;0.030959
6490.000000;0.030901
6489.000000;0.030782
6488.000000;0.030640
6487.000000;0.030512
6486.000000;0.030405
6485.000000;0.030315
6484.000000;0.030255
6483.000000;0.030247
6482.000000;0.030280
6481.000000;0.030323
6480.000000;0.030352
6479.000000;0.030361
6478.000000;0.030347
6477.000000;0.030304
6476.000000;0.030236
6475.000000;0.030160
6474.000000;0.030093
6473.000000;0.030051
6472.000000;0.030041
6471.000000;0.030047
6470.000000;0.030031
6469.000000;0.029976
6468.000000;0.029922
6467.000000;0.029922
6466.000000;0.029977
6465.000000;0.030033
6464.000000;0.030041
6463.000000;0.029998
6462.000000;0.029934
6461.000000;0.029883
6460.000000;0.029863
6459.000000;0.029865
6458.000000;0.029855
6457.000000;0.029807
6456.000000;0.029737
6455.000000;0.029690
6454.000000;0.029690
6453.000000;0.029708
6452.000000;0.029693
6451.000000;0.029614
6450.000000;0.029482
6449.000000;0.029349
6448.000000;0.029268
6447.000000;0.029254
6446.000000;0.029262
6445.000000;0.029243
6444.000000;0.029193
6443.000000;0.029149
6442.000000;0.029127
6441.000000;0.029110
6440.000000;0.029081
6439.000000;0.029047
6438.000000;0.029022
6437.000000;0.029012
6436.000000;0.029022
6435.000000;0.029048
6434.000000;0.029070
6433.000000;0.029069
6432.000000;0.029052
6431.000000;0.029041
6430.000000;0.029045
6429.000000;0.029046
6428.000000;0.029029
6427.000000;0.028987
6426.000000;0.028932
6425.000000;0.028888
6424.000000;0.028889
6423.000000;0.028952
6422.000000;0.029040
6421.000000;0.029096
6420.000000;0.029093
6419.000000;0.029057
6418.000000;0.029022
6417.000000;0.028996
6416.000000;0.028967
6415.000000;0.028917
6414.000000;0.028840
6413.000000;0.028744
6412.000000;0.028658
6411.000000;0.028603
6410.000000;0.028571
6409.000000;0.028536
6408.000000;0.028496
6407.000000;0.028473
6406.000000;0.028470
6405.000000;0.028465
6404.000000;0.028437
6403.000000;0.028389
6402.000000;0.028345
6401.000000;0.028326
6400.000000;0.028340
6399.000000;0.028378
6398.000000;0.028406
6397.000000;0.028389
6396.000000;0.028324
6395.000000;0.028256
6394.000000;0.028231
6393.000000;0.028254
6392.000000;0.028285
6391.000000;0.028275
6390.000000;0.028218
6389.000000;0.028158
6388.000000;0.028144
6387.000000;0.028184
6386.000000;0.028233
6385.000000;0.028242
6384.000000;0.028201
6383.000000;0.028145
6382.000000;0.028110
6381.000000;0.028111
6380.000000;0.028146
6379.000000;0.028195
6378.000000;0.028235
6377.000000;0.028245
6376.000000;0.028225
6375.000000;0.028182
6374.000000;0.028124
6373.000000;0.028054
6372.000000;0.027983
6371.000000;0.027915
6370.000000;0.027854
6369.000000;0.027813
6368.000000;0.027803
6367.000000;0.027812
6366.000000;0.027795
6365.000000;0.027726
6364.000000;0.027631
6363.000000;0.027554
6362.000000;0.027510
6361.000000;0.027481
6360.000000;0.027449
6359.000000;0.027415
6358.000000;0.027386
6357.000000;0.027367
6356.000000;0.027363
6355.000000;0.027369
6354.000000;0.027366
6353.000000;0.027341
6352.000000;0.027307
6351.000000;0.027289
6350.000000;0.027293
6349.000000;0.027308
6348.000000;0.027322
6347.000000;0.027333
6346.000000;0.027345
6345.000000;0.027361
6344.000000;0.027384
6343.000000;0.027409
6342.000000;0.027423
6341.000000;0.027428
6340.000000;0.027440
6339.000000;0.027458
6338.000000;0.027457
6337.000000;0.027413
6336.000000;0.027342
6335.000000;0.027268
6334.000000;0.027194
6333.000000;0.027118
6332.000000;0.027057
6331.000000;0.027038
6330.000000;0.027053
6329.000000;0.027069
6328.000000;0.027066
6327.000000;0.027044
6326.000000;0.027011
6325.000000;0.026979
6324.000000;0.026971
6323.000000;0.026997
6322.000000;0.027029
6321.000000;0.027014
6320.000000;0.026938
6319.000000;0.026834
6318.000000;0.026749
6317.000000;0.026701
6316.000000;0.026677
6315.000000;0.026656
6314.000000;0.026631
6313.000000;0.026615
6312.000000;0.026624
6311.000000;0.026651
6310.000000;0.026660
6309.000000;0.026628
6308.000000;0.026565
6307.000000;0.026495
6306.000000;0.026433
6305.000000;0.026393
6304.000000;0.026388
6303.000000;0.026413
6302.000000;0.026442
6301.000000;0.026461
6300.000000;0.026487
6299.000000;0.026521
6298.000000;0.026525
6297.000000;0.026463
6296.000000;0.026358
6295.000000;0.026274
6294.000000;0.026245
6293.000000;0.026263
6292.000000;0.026307
6291.000000;0.026354
6290.000000;0.026385
6289.000000;0.026384
6288.000000;0.026355
6287.000000;0.026310
6286.000000;0.026246
6285.000000;0.026169
6284.000000;0.026113
6283.000000;0.026107
6282.000000;0.026141
6281.000000;0.026182
6280.000000;0.026224
6279.000000;0.026280
6278.000000;0.026335
6277.000000;0.026350
6276.000000;0.026309
6275.000000;0.026239
6274.000000;0.026179
6273.000000;0.026142
6272.000000;0.026124
6271.000000;0.026113
6270.000000;0.026091
6269.000000;0.026053
6268.000000;0.026002
6267.000000;0.025942
6266.000000;0.025867
6265.000000;0.025793
6264.000000;0.025766
6263.000000;0.025816
6262.000000;0.025914
6261.000000;0.025992
6260.000000;0.026018
6259.000000;0.026006
6258.000000;0.025970
6257.000000;0.025904
6256.000000;0.025812
6255.000000;0.025727
6254.000000;0.025684
6253.000000;0.025689
6252.000000;0.025715
6251.000000;0.025735
6250.000000;0.025737
6249.000000;0.025739
6248.000000;0.025765
6247.000000;0.025806
6246.000000;0.025810
6245.000000;0.025744
6244.000000;0.025640
6243.000000;0.025565
6242.000000;0.025546
6241.000000;0.025552
6240.000000;0.025551
6239.000000;0.025540
6238.000000;0.025520
6237.000000;0.025488
6236.000000;0.025453
6235.000000;0.025432
6234.000000;0.025424
6233.000000;0.025404
6232.000000;0.025359
6231.000000;0.025306
6230.000000;0.025280
6229.000000;0.025301
6228.000000;0.025366
6227.000000;0.025442
6226.000000;0.025479
6225.000000;0.025449
6224.000000;0.025378
6223.000000;0.025318
6222.000000;0.025290
6221.000000;0.025276
6220.000000;0.025252
6219.000000;0.025218
6218.000000;0.025191
6217.000000;0.025187
6216.000000;0.025212
6215.000000;0.025255
6214.000000;0.025284
6213.000000;0.025272
6212.000000;0.025231
6211.000000;0.025192
6210.000000;0.025162
6209.000000;0.025119
6208.000000;0.025048
6207.000000;0.024963
6206.000000;0.024889
6205.000000;0.024845
6204.000000;0.024834
6203.000000;0.024845
6202.000000;0.024848
6201.000000;0.024820
6200.000000;0.024769
6199.000000;0.024720
6198.000000;0.024688
6197.000000;0.024663
6196.000000;0.024642
6195.000000;0.024636
6194.000000;0.024650
6193.000000;0.024670
6192.000000;0.024671
6191.000000;0.024641
6190.000000;0.024582
6189.000000;0.024509
6188.000000;0.024442
6187.000000;0.024399
6186.000000;0.024391
6185.000000;0.024422
6184.000000;0.024480
6183.000000;0.024539
6182.000000;0.024567
6181.000000;0.024559
6180.000000;0.024531
6179.000000;0.024494
6178.000000;0.024444
6177.000000;0.024397
6176.000000;0.024381
6175.000000;0.024399
6174.000000;0.024409
6173.000000;0.024373
6172.000000;0.024303
6171.000000;0.024237
6170.000000;0.024195
6169.000000;0.024169
6168.000000;0.024161
6167.000000;0.024178
6166.000000;0.024198
6165.000000;0.024187
6164.000000;0.024136
6163.000000;0.024070
6162.000000;0.024023
6161.000000;0.024014
6160.000000;0.024053
6159.000000;0.024124
6158.000000;0.024190
6157.000000;0.024216
6156.000000;0.024197
6155.000000;0.024146
6154.000000;0.024075
6153.000000;0.023992
6152.000000;0.023918
6151.000000;0.023874
6150.000000;0.023853
6149.000000;0.023839
6148.000000;0.023830
6147.000000;0.023834
6146.000000;0.023844
6145.000000;0.023846
6144.000000;0.023844
6143.000000;0.023850
6142.000000;0.023859
6141.000000;0.023856
6140.000000;0.023839
6139.000000;0.023820
6138.000000;0.023795
6137.000000;0.023751
6136.000000;0.023690
6135.000000;0.023634
6134.000000;0.023601
6133.000000;0.023596
6132.000000;0.023615
6131.000000;0.023641
6130.000000;0.023643
6129.000000;0.023599
6128.000000;0.023521
6127.000000;0.023439
6126.000000;0.023369
6125.000000;0.023301
6124.000000;0.023221
6123.000000;0.023128
6122.000000;0.023038
6121.000000;0.022981
6120.000000;0.022993
6119.000000;0.023085
6118.000000;0.023219
6117.000000;0.023338
6116.000000;0.023398
6115.000000;0.023382
6114.000000;0.023297
6113.000000;0.023166
6112.000000;0.023024
6111.000000;0.022896
6110.000000;0.022797
6109.000000;0.022752
6108.000000;0.022781
6107.000000;0.022860
6106.000000;0.022921
6105.000000;0.022916
6104.000000;0.022867
6103.000000;0.022821
6102.000000;0.022806
6101.000000;0.022816
6100.000000;0.022846
6099.000000;0.022886
6098.000000;0.022910
6097.000000;0.022901
6096.000000;0.022867
6095.000000;0.022814
6094.000000;0.022729
6093.000000;0.022617
6092.000000;0.022522
6091.000000;0.022484
6090.000000;0.022486
6089.000000;0.022489
6088.000000;0.022488
6087.000000;0.022499
6086.000000;0.022501
6085.000000;0.022453
6084.000000;0.022352
6083.000000;0.022241
6082.000000;0.022160
6081.000000;0.022117
6080.000000;0.022106
6079.000000;0.022122
6078.000000;0.022148
6077.000000;0.022163
6076.000000;0.022160
6075.000000;0.022137
6074.000000;0.022088
6073.000000;0.022014
6072.000000;0.021947
6071.000000;0.021917
6070.000000;0.021912
6069.000000;0.021895
6068.000000;0.021864
6067.000000;0.021843
6066.000000;0.021837
6065.000000;0.021820
6064.000000;0.021779
6063.000000;0.021732
6062.000000;0.021695
6061.000000;0.021673
6060.000000;0.021670
6059.000000;0.021692
6058.000000;0.021728
6057.000000;0.021750
6056.000000;0.021743
6055.000000;0.021711
6054.000000;0.021656
6053.000000;0.021577
6052.000000;0.021483
6051.000000;0.021396
6050.000000;0.021336
6049.000000;0.021310
6048.000000;0.021315
6047.000000;0.021324
6046.000000;0.021294
6045.000000;0.021219
6044.000000;0.021141
6043.000000;0.021102
6042.000000;0.021094
6041.000000;0.021081
6040.000000;0.021054
6039.000000;0.021032
6038.000000;0.021017
6037.000000;0.020985
6036.000000;0.020919
6035.000000;0.020834
6034.000000;0.020746
6033.000000;0.020674
6032.000000;0.020639
6031.000000;0.020644
6030.000000;0.020663
6029.000000;0.020667
6028.000000;0.020664
6027.000000;0.020672
6026.000000;0.020676
6025.000000;0.020642
6024.000000;0.020563
6023.000000;0.020465
6022.000000;0.020371
6021.000000;0.020285
6020.000000;0.020215
6019.000000;0.020171
6018.000000;0.020143
6017.000000;0.020121
6016.000000;0.020116
6015.000000;0.020151
6014.000000;0.020208
6013.000000;0.020242
6012.000000;0.020221
6011.000000;0.020155
6010.000000;0.020069
6009.000000;0.019986
6008.000000;0.019934
6007.000000;0.019927
6006.000000;0.019947
6005.000000;0.019961
6004.000000;0.019955
6003.000000;0.019936
6002.000000;0.019895
6001.000000;0.019816
6000.000000;0.019704
5999.000000;0.019592
5998.000000;0.019507
5997.000000;0.019451
5996.000000;0.019414
5995.000000;0.019384
5994.000000;0.019346
5993.000000;0.019295
5992.000000;0.019251
5991.000000;0.019233
5990.000000;0.019228
5989.000000;0.019212
5988.000000;0.019188
5987.000000;0.019183
5986.000000;0.019198
5985.000000;0.019204
5984.000000;0.019179
5983.000000;0.019126
5982.000000;0.019053
5981.000000;0.018973
5980.000000;0.018905
5979.000000;0.018871
5978.000000;0.018868
5977.000000;0.018877
5976.000000;0.018892
5975.000000;0.018908
5974.000000;0.018903
5973.000000;0.018845
5972.000000;0.018737
5971.000000;0.018614
5970.000000;0.018505
5969.000000;0.018408
5968.000000;0.018320
5967.000000;0.018249
5966.000000;0.018205
5965.000000;0.018188
5964.000000;0.018186
5963.000000;0.018175
5962.000000;0.018120
5961.000000;0.018014
5960.000000;0.017896
5959.000000;0.017822
5958.000000;0.017812
5957.000000;0.017844
5956.000000;0.017889
5955.000000;0.017925
5954.000000;0.017932
5953.000000;0.017897
5952.000000;0.017827
5951.000000;0.017746
5950.000000;0.017659
5949.000000;0.017565
5948.000000;0.017469
5947.000000;0.017383
5946.000000;0.017309
5945.000000;0.017255
5944.000000;0.017236
5943.000000;0.017256
5942.000000;0.017282
5941.000000;0.017270
5940.000000;0.017215
5939.000000;0.017147
5938.000000;0.017086
5937.000000;0.017034
5936.000000;0.016988
5935.000000;0.016943
5934.000000;0.016883
5933.000000;0.016806
5932.000000;0.016738
5931.000000;0.016707
5930.000000;0.016703
5929.000000;0.016706
5928.000000;0.016711
5927.000000;0.016721
5926.000000;0.016712
5925.000000;0.016653
5924.000000;0.016549
5923.000000;0.016440
5922.000000;0.016351
5921.000000;0.016286
5920.000000;0.016242
5919.000000;0.016212
5918.000000;0.016166
5917.000000;0.016079
5916.000000;0.015965
5915.000000;0.015864
5914.000000;0.015790
5913.000000;0.015736
5912.000000;0.015704
5911.000000;0.015708
5910.000000;0.015730
5909.000000;0.015725
5908.000000;0.015668
5907.000000;0.015576
5906.000000;0.015476
5905.000000;0.015386
5904.000000;0.015321
5903.000000;0.015281
5902.000000;0.015242
5901.000000;0.015184
5900.000000;0.015109
5899.000000;0.015035
5898.000000;0.014962
5897.000000;0.014877
5896.000000;0.014787
5895.000000;0.014715
5894.000000;0.014664
5893.000000;0.014622
5892.000000;0.014588
5891.000000;0.014568
5890.000000;0.014541
5889.000000;0.014482
5888.000000;0.014396
5887.000000;0.014317
5886.000000;0.014260
5885.000000;0.014212
5884.000000;0.014163
5883.000000;0.014115
5882.000000;0.014061
5881.000000;0.013994
5880.000000;0.013927
5879.000000;0.013884
5878.000000;0.013859
5877.000000;0.013825
5876.000000;0.013771
5875.000000;0.013712
5874.000000;0.013655
5873.000000;0.013590
5872.000000;0.013520
5871.000000;0.013458
5870.000000;0.013403
5869.000000;0.013342
5868.000000;0.013275
5867.000000;0.013214
5866.000000;0.013153
5865.000000;0.013073
5864.000000;0.012975
5863.000000;0.012887
5862.000000;0.012833
5861.000000;0.012821
5860.000000;0.012843
5859.000000;0.012871
5858.000000;0.012865
5857.000000;0.012803
5856.000000;0.012715
5855.000000;0.012642
5854.000000;0.012581
5853.000000;0.012497
5852.000000;0.012388
5851.000000;0.012291
5850.000000;0.012233
5849.000000;0.012200
5848.000000;0.012168
5847.000000;0.012124
5846.000000;0.012066
5845.000000;0.011993
5844.000000;0.011915
5843.000000;0.011836
5842.000000;0.011739
5841.000000;0.011616
5840.000000;0.011489
5839.000000;0.011391
5838.000000;0.011320
5837.000000;0.011248
5836.000000;0.011164
5835.000000;0.011078
5834.000000;0.010988
5833.000000;0.010879
5832.000000;0.010753
5831.000000;0.010633
5830.000000;0.010534
5829.000000;0.010448
5828.000000;0.010362
5827.000000;0.010273
5826.000000;0.010189
5825.000000;0.010132
5824.000000;0.010121
5823.000000;0.010145
5822.000000;0.010161
5821.000000;0.010138
5820.000000;0.010084
5819.000000;0.010010
5818.000000;0.009905
5817.000000;0.009771
5816.000000;0.009656
5815.000000;0.009608
5814.000000;0.009610
5813.000000;0.009601
5812.000000;0.009556
5811.000000;0.009488
5810.000000;0.009407
5809.000000;0.009313
5808.000000;0.009226
5807.000000;0.009168
5806.000000;0.009115
5805.000000;0.009019
5804.000000;0.008873
5803.000000;0.008720
5802.000000;0.008603
5801.000000;0.008526
5800.000000;0.008476
5799.000000;0.008438
5798.000000;0.008385
5797.000000;0.008295
5796.000000;0.008184
5795.000000;0.008092
5794.000000;0.008034
5793.000000;0.007989
5792.000000;0.007932
5791.000000;0.007851
5790.000000;0.007737
5789.000000;0.007595
5788.000000;0.007458
5787.000000;0.007359
5786.000000;0.007293
5785.000000;0.007238
5784.000000;0.007195
5783.000000;0.007170
5782.000000;0.007140
5781.000000;0.007062
5780.000000;0.006932
5779.000000;0.006782
5778.000000;0.006641
5777.000000;0.006509
5776.000000;0.006386
5775.000000;0.006276
5774.000000;0.006172
5773.000000;0.006069
5772.000000;0.005979
5771.000000;0.005912
5770.000000;0.005850
5769.000000;0.005775
5768.000000;0.005699
5767.000000;0.005637
5766.000000;0.005567
5765.000000;0.005455
5764.000000;0.005308
5763.000000;0.005169
5762.000000;0.005063
5761.000000;0.004972
5760.000000;0.004875
5759.000000;0.004767
5758.000000;0.004649
5757.000000;0.004528
5756.000000;0.004428
5755.000000;0.004353
5754.000000;0.004270
5753.000000;0.004144
5752.000000;0.003996
5751.000000;0.003877
5750.000000;0.003796
5749.000000;0.003724
5748.000000;0.003648
5747.000000;0.003585
5746.000000;0.003536
5745.000000;0.003479
5744.000000;0.003405
5743.000000;0.003329
5742.000000;0.003250
5741.000000;0.003151
5740.000000;0.003030
5739.000000;0.002906
5738.000000;0.002787
5737.000000;0.002662
5736.000000;0.002533
5735.000000;0.002421
5734.000000;0.002332
5733.000000;0.002261
5732.000000;0.002202
5731.000000;0.002150
5730.000000;0.002072
5729.000000;0.001935
5728.000000;0.001751
5727.000000;0.001566
5726.000000;0.001416
5725.000000;0.001299
5724.000000;0.001203
5723.000000;0.001123
5722.000000;0.001047
5721.000000;0.000964
5720.000000;0.000878
5719.000000;0.000796
5718.000000;0.000707
5717.000000;0.000600
5716.000000;0.000483
5715.000000;0.000369
5714.000000;0.000254
5713.000000;0.000135
5712.000000;0.000031
5711.000000;-0.000042
5710.000000;-0.000106
5709.000000;-0.000187
5708.000000;-0.000274
5707.000000;-0.000354
5706.000000;-0.000455
5705.000000;-0.000617
5704.000000;-0.000826
5703.000000;-0.001027
5702.000000;-0.001189
5701.000000;-0.001321
5700.000000;-0.001427
5699.000000;-0.001504
5698.000000;-0.001575
5697.000000;-0.001676
5696.000000;-0.001808
5695.000000;-0.001941
5694.000000;-0.002075
5693.000000;-0.002195
5692.000000;-0.002323
5691.000000;-0.002452
5690.000000;-0.002583
5689.000000;-0.002721
5688.000000;-0.002844
5687.000000;-0.002927
5686.000000;-0.002978
5685.000000;-0.003029
5684.000000;-0.003097
5683.000000;-0.003180
5682.000000;-0.003288
5681.000000;-0.003432
5680.000000;-0.003597
5679.000000;-0.003753
5678.000000;-0.003898
5677.000000;-0.004044
5676.000000;-0.004183
5675.000000;-0.004299
5674.000000;-0.004402
5673.000000;-0.004512
5672.000000;-0.004624
5671.000000;-0.004724
5670.000000;-0.004825
5669.000000;-0.004950
5668.000000;-0.005089
5667.000000;-0.005225
5666.000000;-0.005374
5665.000000;-0.005559
5664.000000;-0.005759
5663.000000;-0.005928
5662.000000;-0.006061
5661.000000;-0.006180
5660.000000;-0.006288
5659.000000;-0.006375
5658.000000;-0.006458
5657.000000;-0.006561
5656.000000;-0.006665
5655.000000;-0.006740
5654.000000;-0.006807
5653.000000;-0.006914
5652.000000;-0.007057
5651.000000;-0.007187
5650.000000;-0.007278
5649.000000;-0.007353
5648.000000;-0.007430
5647.000000;-0.007508
5646.000000;-0.007599
5645.000000;-0.007720
5644.000000;-0.007850
5643.000000;-0.007964
5642.000000;-0.008073
5641.000000;-0.008206
5640.000000;-0.008349
5639.000000;-0.008466
5638.000000;-0.008560
5637.000000;-0.008666
5636.000000;-0.008796
5635.000000;-0.008932
5634.000000;-0.009081
5633.000000;-0.009268
5632.000000;-0.009475
5631.000000;-0.009659
5630.000000;-0.009813
5629.000000;-0.009959
5628.000000;-0.010100
5627.000000;-0.010213
5626.000000;-0.010296
5625.000000;-0.010381
5624.000000;-0.010476
5623.000000;-0.010569
5622.000000;-0.010662
5621.000000;-0.010773
5620.000000;-0.010901
5619.000000;-0.011030
5618.000000;-0.011171
5617.000000;-0.011348
5616.000000;-0.011556
5615.000000;-0.011753
5614.000000;-0.011915
5613.000000;-0.012042
5612.000000;-0.012126
5611.000000;-0.012166
5610.000000;-0.012195
5609.000000;-0.012268
5608.000000;-0.012397
5607.000000;-0.012552
5606.000000;-0.012708
5605.000000;-0.012848
5604.000000;-0.012944
5603.000000;-0.012989
5602.000000;-0.013041
5601.000000;-0.013171
5600.000000;-0.013372
5599.000000;-0.013575
5598.000000;-0.013741
5597.000000;-0.013881
5596.000000;-0.014005
5595.000000;-0.014103
5594.000000;-0.014192
5593.000000;-0.014295
5592.000000;-0.014404
5591.000000;-0.014501
5590.000000;-0.014613
5589.000000;-0.014786
5588.000000;-0.014998
5587.000000;-0.015187
5586.000000;-0.015334
5585.000000;-0.015465
5584.000000;-0.015581
5583.000000;-0.015661
5582.000000;-0.015724
5581.000000;-0.015814
5580.000000;-0.015930
5579.000000;-0.016040
5578.000000;-0.016160
5577.000000;-0.016331
5576.000000;-0.016538
5575.000000;-0.016715
5574.000000;-0.016853
5573.000000;-0.016995
5572.000000;-0.017141
5571.000000;-0.017257
5570.000000;-0.017353
5569.000000;-0.017486
5568.000000;-0.017662
5567.000000;-0.017819
5566.000000;-0.017928
5565.000000;-0.018028
5564.000000;-0.018156
5563.000000;-0.018305
5562.000000;-0.018479
5561.000000;-0.018696
5560.000000;-0.018922
5559.000000;-0.019096
5558.000000;-0.019224
5557.000000;-0.019366
5556.000000;-0.019528
5555.000000;-0.019663
5554.000000;-0.019770
5553.000000;-0.019900
5552.000000;-0.020061
5551.000000;-0.020210
5550.000000;-0.020342
5549.000000;-0.020487
5548.000000;-0.020630
5547.000000;-0.020727
5546.000000;-0.020807
5545.000000;-0.020944
5544.000000;-0.021125
5543.000000;-0.021262
5542.000000;-0.021337
5541.000000;-0.021408
5540.000000;-0.021500
5539.000000;-0.021597
5538.000000;-0.021722
5537.000000;-0.021919
5536.000000;-0.022165
5535.000000;-0.022387
5534.000000;-0.022569
5533.000000;-0.022745
5532.000000;-0.022906
5531.000000;-0.023015
5530.000000;-0.023101
5529.000000;-0.023224
5528.000000;-0.023382
5527.000000;-0.023521
5526.000000;-0.023641
5525.000000;-0.023814
5524.000000;-0.024044
5523.000000;-0.024253
5522.000000;-0.024403
5521.000000;-0.024513
5520.000000;-0.024610
5519.000000;-0.024713
5518.000000;-0.024857
5517.000000;-0.025072
5516.000000;-0.025305
5515.000000;-0.025487
5514.000000;-0.025650
5513.000000;-0.025852
5512.000000;-0.026047
5511.000000;-0.026155
5510.000000;-0.026216
5509.000000;-0.026344
5508.000000;-0.026549
5507.000000;-0.026738
5506.000000;-0.026880
5505.000000;-0.027045
5504.000000;-0.027236
5503.000000;-0.027398
5502.000000;-0.027569
5501.000000;-0.027805
5500.000000;-0.028064
5499.000000;-0.028267
5498.000000;-0.028373
5497.000000;-0.028441
5496.000000;-0.028528
5495.000000;-0.028640
5494.000000;-0.028763
5493.000000;-0.028869
5492.000000;-0.028940
5491.000000;-0.029005
5490.000000;-0.029148
5489.000000;-0.029398
5488.000000;-0.029655
5487.000000;-0.029822
5486.000000;-0.029946
5485.000000;-0.030146
5484.000000;-0.030395
5483.000000;-0.030551
5482.000000;-0.030657
5481.000000;-0.030827
5480.000000;-0.031003
5479.000000;-0.031101
5478.000000;-0.031175
5477.000000;-0.031331
5476.000000;-0.031523
5475.000000;-0.031645
5474.000000;-0.031741
5473.000000;-0.031946
5472.000000;-0.032251
5471.000000;-0.032533
5470.000000;-0.032765
5469.000000;-0.032968
5468.000000;-0.033104
5467.000000;-0.033196
5466.000000;-0.033373
5465.000000;-0.033672
5464.000000;-0.033904
5463.000000;-0.033944
5462.000000;-0.033993
5461.000000;-0.034202
5460.000000;-0.034370
5459.000000;-0.034397
5458.000000;-0.034537
5457.000000;-0.034889
5456.000000;-0.035167
5455.000000;-0.035217
5454.000000;-0.035260
5453.000000;-0.035480
5452.000000;-0.035744
5451.000000;-0.035906
5450.000000;-0.036059
5449.000000;-0.036217
5448.000000;-0.036304
5447.000000;-0.036422
5446.000000;-0.036679
5445.000000;-0.036923
5444.000000;-0.037022
5443.000000;-0.037114
5442.000000;-0.037405
5441.000000;-0.037765
5440.000000;-0.037871
5439.000000;-0.037772
5438.000000;-0.037880
5437.000000;-0.038262
5436.000000;-0.038560
5435.000000;-0.038629
5434.000000;-0.038666
5433.000000;-0.038797
5432.000000;-0.039050
5431.000000;-0.039456
5430.000000;-0.039870
5429.000000;-0.040040
5428.000000;-0.039989
5427.000000;-0.039980
5426.000000;-0.040173
5425.000000;-0.040471
5424.000000;-0.040695
5423.000000;-0.040818
5422.000000;-0.040920
5421.000000;-0.041087
5420.000000;-0.041327
5419.000000;-0.041539
5418.000000;-0.041688
5417.000000;-0.041825
5416.000000;-0.041979
5415.000000;-0.042121
5414.000000;-0.042254
5413.000000;-0.042448
5412.000000;-0.042744
5411.000000;-0.043125
5410.000000;-0.043503
5409.000000;-0.043704
5408.000000;-0.043676
5407.000000;-0.043630
5406.000000;-0.043823
5405.000000;-0.044194
5404.000000;-0.044465
5403.000000;-0.044626
5402.000000;-0.044764
5401.000000;-0.044902
5400.000000;-0.045097
5399.000000;-0.045314
5398.000000;-0.045491
5397.000000;-0.045680
5396.000000;-0.045927
5395.000000;-0.046180
5394.000000;-0.046330
5393.000000;-0.046380
5392.000000;-0.046399
5391.000000;-0.046390
5390.000000;-0.046408
5389.000000;-0.046575
5388.000000;-0.046899
5387.000000;-0.047244
5386.000000;-0.047544
5385.000000;-0.047767
5384.000000;-0.047898
5383.000000;-0.048015
5382.000000;-0.048115
5381.000000;-0.048172
5380.000000;-0.048325
5379.000000;-0.048630
5378.000000;-0.048914
5377.000000;-0.049088
5376.000000;-0.049258
5375.000000;-0.049453
5374.000000;-0.049543
5373.000000;-0.049564
5372.000000;-0.049690
5371.000000;-0.049928
5370.000000;-0.050152
5369.000000;-0.050350
5368.000000;-0.050595
5367.000000;-0.050846
5366.000000;-0.051027
5365.000000;-0.051135
5364.000000;-0.051291
5363.000000;-0.051545
5362.000000;-0.051743
5361.000000;-0.051846
5360.000000;-0.052020
5359.000000;-0.052265
5358.000000;-0.052399
5357.000000;-0.052427
5356.000000;-0.052559
5355.000000;-0.052820
5354.000000;-0.053017
5353.000000;-0.053037
5352.000000;-0.053027
5351.000000;-0.053212
5350.000000;-0.053528
5349.000000;-0.053687
5348.000000;-0.053687
5347.000000;-0.053725
5346.000000;-0.053817
5345.000000;-0.053934
5344.000000;-0.054107
5343.000000;-0.054238
5342.000000;-0.054203
5341.000000;-0.054227
5340.000000;-0.054500
5339.000000;-0.054826
5338.000000;-0.054993
5337.000000;-0.055046
5336.000000;-0.055159
5335.000000;-0.055422
5334.000000;-0.055771
5333.000000;-0.056008
5332.000000;-0.056099
5331.000000;-0.056250
5330.000000;-0.056517
5329.000000;-0.056792
5328.000000;-0.057080
5327.000000;-0.057340
5326.000000;-0.057400
5325.000000;-0.057304
5324.000000;-0.057307
5323.000000;-0.057481
5322.000000;-0.057639
5321.000000;-0.057705
5320.000000;-0.057841
5319.000000;-0.058153
5318.000000;-0.058494
5317.000000;-0.058708
5316.000000;-0.058817
5315.000000;-0.058874
5314.000000;-0.058920
5313.000000;-0.058999
5312.000000;-0.059125
5311.000000;-0.059310
5310.000000;-0.059561
5309.000000;-0.059833
5308.000000;-0.060025
5307.000000;-0.060095
5306.000000;-0.060108
5305.000000;-0.060164
5304.000000;-0.060312
5303.000000;-0.060510
5302.000000;-0.060676
5301.000000;-0.060781
5300.000000;-0.060875
5299.000000;-0.060989
5298.000000;-0.061067
5297.000000;-0.061127
5296.000000;-0.061243
5295.000000;-0.061391
5294.000000;-0.061552
5293.000000;-0.061756
5292.000000;-0.061993
5291.000000;-0.062180
5290.000000;-0.062254
5289.000000;-0.062252
5288.000000;-0.062260
5287.000000;-0.062369
5286.000000;-0.062565
5285.000000;-0.062705
5284.000000;-0.062733
5283.000000;-0.062765
5282.000000;-0.062926
5281.000000;-0.063192
5280.000000;-0.063423
5279.000000;-0.063542
5278.000000;-0.063590
5277.000000;-0.063671
5276.000000;-0.063836
5275.000000;-0.063991
5274.000000;-0.064046
5273.000000;-0.064082
5272.000000;-0.064176
5271.000000;-0.064324
5270.000000;-0.064462
5269.000000;-0.064520
5268.000000;-0.064522
5267.000000;-0.064566
5266.000000;-0.064666
5265.000000;-0.064731
5264.000000;-0.064757
5263.000000;-0.064798
5262.000000;-0.064862
5261.000000;-0.064971
5260.000000;-0.065113
5259.000000;-0.065209
5258.000000;-0.065267
5257.000000;-0.065375
5256.000000;-0.065537
5255.000000;-0.065706
5254.000000;-0.065853
5253.000000;-0.065970
5252.000000;-0.066014
5251.000000;-0.066065
5250.000000;-0.066187
5249.000000;-0.066241
5248.000000;-0.066193
5247.000000;-0.066220
5246.000000;-0.066431
5245.000000;-0.066711
5244.000000;-0.066897
5243.000000;-0.066959
5242.000000;-0.067040
5241.000000;-0.067262
5240.000000;-0.067529
5239.000000;-0.067656
5238.000000;-0.067667
5237.000000;-0.067721
5236.000000;-0.067813
5235.000000;-0.067901
5234.000000;-0.068039
5233.000000;-0.068196
5232.000000;-0.068272
5231.000000;-0.068305
5230.000000;-0.068398
5229.000000;-0.068512
5228.000000;-0.068559
5227.000000;-0.068553
5226.000000;-0.068551
5225.000000;-0.068568
5224.000000;-0.068589
5223.000000;-0.068677
5222.000000;-0.068905
5221.000000;-0.069187
5220.000000;-0.069356
5219.000000;-0.069409
5218.000000;-0.069517
5217.000000;-0.069713
5216.000000;-0.069886
5215.000000;-0.070023
5214.000000;-0.070151
5213.000000;-0.070241
5212.000000;-0.070283
5211.000000;-0.070296
5210.000000;-0.070266
5209.000000;-0.070182
5208.000000;-0.070080
5207.000000;-0.070039
5206.000000;-0.070124
5205.000000;-0.070310
5204.000000;-0.070524
5203.000000;-0.070736
5202.000000;-0.070916
5201.000000;-0.071020
5200.000000;-0.071060
5199.000000;-0.071099
5198.000000;-0.071206
5197.000000;-0.071368
5196.000000;-0.071549
5195.000000;-0.071729
5194.000000;-0.071849
5193.000000;-0.071875
5192.000000;-0.071873
5191.000000;-0.071915
5190.000000;-0.072004
5189.000000;-0.072117
5188.000000;-0.072247
5187.000000;-0.072362
5186.000000;-0.072406
5185.000000;-0.072372
5184.000000;-0.072364
5183.000000;-0.072489
5182.000000;-0.072714
5181.000000;-0.072930
5180.000000;-0.073094
5179.000000;-0.073221
5178.000000;-0.073312
5177.000000;-0.073380
5176.000000;-0.073479
5175.000000;-0.073617
5174.000000;-0.073728
5173.000000;-0.073760
5172.000000;-0.073766
5171.000000;-0.073818
5170.000000;-0.073908
5169.000000;-0.074006
5168.000000;-0.074136
5167.000000;-0.074315
5166.000000;-0.074457
5165.000000;-0.074475
5164.000000;-0.074426
5163.000000;-0.074427
5162.000000;-0.074493
5161.000000;-0.074552
5160.000000;-0.074590
5159.000000;-0.074636
5158.000000;-0.074671
5157.000000;-0.074673
5156.000000;-0.074689
5155.000000;-0.074771
5154.000000;-0.074901
5153.000000;-0.075038
5152.000000;-0.075172
5151.000000;-0.075314
5150.000000;-0.075451
5149.000000;-0.075550
5148.000000;-0.075609
5147.000000;-0.075663
5146.000000;-0.075732
5145.000000;-0.075809
5144.000000;-0.075892
5143.000000;-0.075983
5142.000000;-0.076065
5141.000000;-0.076118
5140.000000;-0.076169
5139.000000;-0.076271
5138.000000;-0.076427
5137.000000;-0.076596
5136.000000;-0.076763
5135.000000;-0.076929
5134.000000;-0.077064
5133.000000;-0.077129
5132.000000;-0.077142
5131.000000;-0.077153
5130.000000;-0.077175
5129.000000;-0.077191
5128.000000;-0.077221
5127.000000;-0.077283
5126.000000;-0.077345
5125.000000;-0.077374
5124.000000;-0.077398
5123.000000;-0.077466
5122.000000;-0.077578
5121.000000;-0.077697
5120.000000;-0.077808
5119.000000;-0.077915
5118.000000;-0.078003
5117.000000;-0.078063
5116.000000;-0.078125
5115.000000;-0.078222
5114.000000;-0.078342
5113.000000;-0.078460
5112.000000;-0.078594
5111.000000;-0.078753
5110.000000;-0.078895
5109.000000;-0.078975
5108.000000;-0.079018
5107.000000;-0.079084
5106.000000;-0.079191
5105.000000;-0.079308
5104.000000;-0.079417
5103.000000;-0.079526
5102.000000;-0.079625
5101.000000;-0.079689
5100.000000;-0.079729
5099.000000;-0.079778
5098.000000;-0.079844
5097.000000;-0.079909
5096.000000;-0.079961
5095.000000;-0.079998
5094.000000;-0.080012
5093.000000;-0.080011
5092.000000;-0.080040
5091.000000;-0.080126
5090.000000;-0.080235
5089.000000;-0.080312
5088.000000;-0.080348
5087.000000;-0.080365
5086.000000;-0.080367
5085.000000;-0.080355
5084.000000;-0.080373
5083.000000;-0.080468
5082.000000;-0.080619
5081.000000;-0.080757
5080.000000;-0.080856
5079.000000;-0.080949
5078.000000;-0.081051
5077.000000;-0.081146
5076.000000;-0.081236
5075.000000;-0.081343
5074.000000;-0.081467
5073.000000;-0.081573
5072.000000;-0.081650
5071.000000;-0.081718
5070.000000;-0.081789
5069.000000;-0.081847
5068.000000;-0.081896
5067.000000;-0.081958
5066.000000;-0.082036
5065.000000;-0.082109
5064.000000;-0.082165
5063.000000;-0.082213
5062.000000;-0.082254
5061.000000;-0.082291
5060.000000;-0.082342
5059.000000;-0.082422
5058.000000;-0.082509
5057.000000;-0.082562
5056.000000;-0.082573
5055.000000;-0.082569
5054.000000;-0.082576
5053.000000;-0.082609
5052.000000;-0.082688
5051.000000;-0.082815
5050.000000;-0.082951
5049.000000;-0.083049
5048.000000;-0.083107
5047.000000;-0.083165
5046.000000;-0.083251
5045.000000;-0.083369
5044.000000;-0.083520
5043.000000;-0.083682
5042.000000;-0.083805
5041.000000;-0.083848
5040.000000;-0.083832
5039.000000;-0.083822
5038.000000;-0.083858
5037.000000;-0.083940
5036.000000;-0.084054
5035.000000;-0.084178
5034.000000;-0.084273
5033.000000;-0.084315
5032.000000;-0.084334
5031.000000;-0.084383
5030.000000;-0.084476
5029.000000;-0.084583
5028.000000;-0.084682
5027.000000;-0.084773
5026.000000;-0.084857
5025.000000;-0.084922
5024.000000;-0.084970
5023.000000;-0.085017
5022.000000;-0.085065
5021.000000;-0.085113
5020.000000;-0.085178
5019.000000;-0.085280
5018.000000;-0.085404
5017.000000;-0.085510
5016.000000;-0.085583
5015.000000;-0.085645
5014.000000;-0.085721
5013.000000;-0.085816
5012.000000;-0.085918
5011.000000;-0.086007
5010.000000;-0.086055
5009.000000;-0.086063
5008.000000;-0.086068
5007.000000;-0.086108
5006.000000;-0.086180
5005.000000;-0.086261
5004.000000;-0.086334
5003.000000;-0.086397
5002.000000;-0.086439
5001.000000;-0.086460
5000.000000;-0.086483
4999.000000;-0.086533
4998.000000;-0.086607
4997.000000;-0.086687
4996.000000;-0.086764
4995.000000;-0.086833
4994.000000;-0.086878
4993.000000;-0.086901
4992.000000;-0.086932
4991.000000;-0.087001
4990.000000;-0.087098
4989.000000;-0.087189
4988.000000;-0.087268
4987.000000;-0.087345
4986.000000;-0.087425
4985.000000;-0.087512
4984.000000;-0.087628
4983.000000;-0.087780
4982.000000;-0.087928
4981.000000;-0.088026
4980.000000;-0.088083
4979.000000;-0.088148
4978.000000;-0.088251
4977.000000;-0.088375
4976.000000;-0.088494
4975.000000;-0.088598
4974.000000;-0.088688
4973.000000;-0.088767
4972.000000;-0.088839
4971.000000;-0.088899
4970.000000;-0.088933
4969.000000;-0.088955
4968.000000;-0.089008
4967.000000;-0.089117
4966.000000;-0.089247
4965.000000;-0.089345
4964.000000;-0.089398
4963.000000;-0.089429
4962.000000;-0.089464
4961.000000;-0.089522
4960.000000;-0.089624
4959.000000;-0.089765
4958.000000;-0.089902
4957.000000;-0.089997
4956.000000;-0.090057
4955.000000;-0.090117
4954.000000;-0.090190
4953.000000;-0.090273
4952.000000;-0.090372
4951.000000;-0.090485
4950.000000;-0.090579
4949.000000;-0.090619
4948.000000;-0.090617
4947.000000;-0.090615
4946.000000;-0.090634
4945.000000;-0.090683
4944.000000;-0.090772
4943.000000;-0.090907
4942.000000;-0.091059
4941.000000;-0.091194
4940.000000;-0.091323
4939.000000;-0.091477
4938.000000;-0.091654
4937.000000;-0.091810
4936.000000;-0.091919
4935.000000;-0.091988
4934.000000;-0.092036
4933.000000;-0.092084
4932.000000;-0.092153
4931.000000;-0.092252
4930.000000;-0.092367
4929.000000;-0.092479
4928.000000;-0.092596
4927.000000;-0.092724
4926.000000;-0.092838
4925.000000;-0.092921
4924.000000;-0.093001
4923.000000;-0.093128
4922.000000;-0.093300
4921.000000;-0.093456
4920.000000;-0.093545
4919.000000;-0.093569
4918.000000;-0.093568
4917.000000;-0.093588
4916.000000;-0.093661
4915.000000;-0.093789
4914.000000;-0.093943
4913.000000;-0.094087
4912.000000;-0.094205
4911.000000;-0.094296
4910.000000;-0.094356
4909.000000;-0.094400
4908.000000;-0.094472
4907.000000;-0.094605
4906.000000;-0.094772
4905.000000;-0.094924
4904.000000;-0.095048
4903.000000;-0.095166
4902.000000;-0.095294
4901.000000;-0.095427
4900.000000;-0.095574
4899.000000;-0.095733
4898.000000;-0.095877
4897.000000;-0.095973
4896.000000;-0.096027
4895.000000;-0.096078
4894.000000;-0.096142
4893.000000;-0.096220
4892.000000;-0.096328
4891.000000;-0.096486
4890.000000;-0.096674
4889.000000;-0.096844
4888.000000;-0.096971
4887.000000;-0.097073
4886.000000;-0.097166
4885.000000;-0.097246
4884.000000;-0.097318
4883.000000;-0.097405
4882.000000;-0.097512
4881.000000;-0.097621
4880.000000;-0.097716
4879.000000;-0.097795
4878.000000;-0.097852
4877.000000;-0.097889
4876.000000;-0.097932
4875.000000;-0.098011
4874.000000;-0.098118
4873.000000;-0.098212
4872.000000;-0.098276
4871.000000;-0.098337
4870.000000;-0.098423
4869.000000;-0.098540
4868.000000;-0.098684
4867.000000;-0.098845
4866.000000;-0.099001
4865.000000;-0.099121
4864.000000;-0.099206
4863.000000;-0.099288
4862.000000;-0.099402
4861.000000;-0.099553
4860.000000;-0.099719
4859.000000;-0.099870
4858.000000;-0.099981
4857.000000;-0.100054
4856.000000;-0.100127
4855.000000;-0.100237
4854.000000;-0.100384
4853.000000;-0.100537
4852.000000;-0.100674
4851.000000;-0.100792
4850.000000;-0.100879
4849.000000;-0.100919
4848.000000;-0.100924
4847.000000;-0.100933
4846.000000;-0.100985
4845.000000;-0.101086
4844.000000;-0.101219
4843.000000;-0.101351
4842.000000;-0.101448
4841.000000;-0.101502
4840.000000;-0.101543
4839.000000;-0.101609
4838.000000;-0.101715
4837.000000;-0.101849
4836.000000;-0.101999
4835.000000;-0.102155
4834.000000;-0.102294
4833.000000;-0.102395
4832.000000;-0.102467
4831.000000;-0.102542
4830.000000;-0.102639
4829.000000;-0.102755
4828.000000;-0.102883
4827.000000;-0.103016
4826.000000;-0.103145
4825.000000;-0.103263
4824.000000;-0.103383
4823.000000;-0.103521
4822.000000;-0.103664
4821.000000;-0.103786
4820.000000;-0.103878
4819.000000;-0.103949
4818.000000;-0.104004
4817.000000;-0.104045
4816.000000;-0.104090
4815.000000;-0.104168
4814.000000;-0.104285
4813.000000;-0.104414
4812.000000;-0.104519
4811.000000;-0.104585
4810.000000;-0.104614
4809.000000;-0.104633
4808.000000;-0.104682
4807.000000;-0.104787
4806.000000;-0.104933
4805.000000;-0.105075
4804.000000;-0.105183
4803.000000;-0.105247
4802.000000;-0.105278
4801.000000;-0.105304
4800.000000;-0.105377
4799.000000;-0.105530
4798.000000;-0.105737
4797.000000;-0.105925
4796.000000;-0.106047
4795.000000;-0.106111
4794.000000;-0.106163
4793.000000;-0.106242
4792.000000;-0.106361
4791.000000;-0.106499
4790.000000;-0.106617
4789.000000;-0.106692
4788.000000;-0.106744
4787.000000;-0.106817
4786.000000;-0.106939
4785.000000;-0.107108
4784.000000;-0.107293
4783.000000;-0.107445
4782.000000;-0.107511
4781.000000;-0.107481
4780.000000;-0.107410
4779.000000;-0.107375
4778.000000;-0.107410
4777.000000;-0.107502
4776.000000;-0.107627
4775.000000;-0.107763
4774.000000;-0.107876
4773.000000;-0.107935
4772.000000;-0.107945
4771.000000;-0.107952
4770.000000;-0.107995
4769.000000;-0.108086
4768.000000;-0.108210
4767.000000;-0.108337
4766.000000;-0.108435
4765.000000;-0.108485
4764.000000;-0.108510
4763.000000;-0.108546
4762.000000;-0.108607
4761.000000;-0.108683
4760.000000;-0.108771
4759.000000;-0.108879
4758.000000;-0.109003
4757.000000;-0.109115
4756.000000;-0.109198
4755.000000;-0.109268
4754.000000;-0.109348
4753.000000;-0.109451
4752.000000;-0.109572
4751.000000;-0.109689
4750.000000;-0.109774
4749.000000;-0.109810
4748.000000;-0.109808
4747.000000;-0.109812
4746.000000;-0.109867
4745.000000;-0.109998
4744.000000;-0.110190
4743.000000;-0.110394
4742.000000;-0.110551
4741.000000;-0.110633
4740.000000;-0.110658
4739.000000;-0.110665
4738.000000;-0.110687
4737.000000;-0.110738
4736.000000;-0.110815
4735.000000;-0.110897
4734.000000;-0.110957
4733.000000;-0.110996
4732.000000;-0.111049
4731.000000;-0.111142
4730.000000;-0.111262
4729.000000;-0.111382
4728.000000;-0.111490
4727.000000;-0.111586
4726.000000;-0.111661
4725.000000;-0.111718
4724.000000;-0.111792
4723.000000;-0.111912
4722.000000;-0.112059
4721.000000;-0.112178
4720.000000;-0.112238
4719.000000;-0.112252
4718.000000;-0.112256
4717.000000;-0.112286
4716.000000;-0.112363
4715.000000;-0.112482
4714.000000;-0.112610
4713.000000;-0.112714
4712.000000;-0.112782
4711.000000;-0.112820
4710.000000;-0.112828
4709.000000;-0.112819
4708.000000;-0.112823
4707.000000;-0.112869
4706.000000;-0.112948
4705.000000;-0.113026
4704.000000;-0.113082
4703.000000;-0.113109
4702.000000;-0.113102
4701.000000;-0.113085
4700.000000;-0.113109
4699.000000;-0.113212
4698.000000;-0.113359
4697.000000;-0.113475
4696.000000;-0.113524
4695.000000;-0.113539
4694.000000;-0.113570
4693.000000;-0.113643
4692.000000;-0.113759
4691.000000;-0.113901
4690.000000;-0.114036
4689.000000;-0.114132
4688.000000;-0.114183
4687.000000;-0.114206
4686.000000;-0.114215
4685.000000;-0.114217
4684.000000;-0.114230
4683.000000;-0.114266
4682.000000;-0.114301
4681.000000;-0.114296
4680.000000;-0.114239
4679.000000;-0.114160
4678.000000;-0.114101
4677.000000;-0.114089
4676.000000;-0.114137
4675.000000;-0.114233
4674.000000;-0.114338
4673.000000;-0.114425
4672.000000;-0.114497
4671.000000;-0.114573
4670.000000;-0.114646
4669.000000;-0.114691
4668.000000;-0.114713
4667.000000;-0.114742
4666.000000;-0.114787
4665.000000;-0.114825
4664.000000;-0.114830
4663.000000;-0.114810
4662.000000;-0.114783
4661.000000;-0.114761
4660.000000;-0.114751
4659.000000;-0.114752
4658.000000;-0.114747
4657.000000;-0.114722
4656.000000;-0.114687
4655.000000;-0.114673
4654.000000;-0.114697
4653.000000;-0.114754
4652.000000;-0.114832
4651.000000;-0.114918
4650.000000;-0.114977
4649.000000;-0.114966
4648.000000;-0.114877
4647.000000;-0.114761
4646.000000;-0.114687
4645.000000;-0.114689
4644.000000;-0.114745
4643.000000;-0.114795
4642.000000;-0.114778
4641.000000;-0.114677
4640.000000;-0.114536
4639.000000;-0.114421
4638.000000;-0.114369
4637.000000;-0.114370
4636.000000;-0.114393
4635.000000;-0.114418
4634.000000;-0.114431
4633.000000;-0.114434
4632.000000;-0.114441
4631.000000;-0.114465
4630.000000;-0.114497
4629.000000;-0.114512
4628.000000;-0.114496
4627.000000;-0.114457
4626.000000;-0.114402
4625.000000;-0.114338
4624.000000;-0.114276
4623.000000;-0.114228
4622.000000;-0.114193
4621.000000;-0.114160
4620.000000;-0.114130
4619.000000;-0.114112
4618.000000;-0.114096
4617.000000;-0.114059
4616.000000;-0.113991
4615.000000;-0.113905
4614.000000;-0.113822
4613.000000;-0.113766
4612.000000;-0.113743
4611.000000;-0.113730
4610.000000;-0.113667
4609.000000;-0.113515
4608.000000;-0.113299
4607.000000;-0.113088
4606.000000;-0.112927
4605.000000;-0.112807
4604.000000;-0.112702
4603.000000;-0.112600
4602.000000;-0.112497
4601.000000;-0.112393
4600.000000;-0.112302
4599.000000;-0.112232
4598.000000;-0.112167
4597.000000;-0.112070
4596.000000;-0.111926
4595.000000;-0.111760
4594.000000;-0.111595
4593.000000;-0.111436
4592.000000;-0.111280
4591.000000;-0.111137
4590.000000;-0.111024
4589.000000;-0.110945
4588.000000;-0.110886
4587.000000;-0.110813
4586.000000;-0.110691
4585.000000;-0.110510
4584.000000;-0.110304
4583.000000;-0.110114
4582.000000;-0.109940
4581.000000;-0.109740
4580.000000;-0.109475
4579.000000;-0.109144
4578.000000;-0.108773
4577.000000;-0.108400
4576.000000;-0.108067
4575.000000;-0.107805
4574.000000;-0.107601
4573.000000;-0.107406
4572.000000;-0.107167
4571.000000;-0.106855
4570.000000;-0.106470
4569.000000;-0.106031
4568.000000;-0.105572
4567.000000;-0.105126
4566.000000;-0.104710
4565.000000;-0.104337
4564.000000;-0.104014
4563.000000;-0.103725
4562.000000;-0.103424
4561.000000;-0.103069
4560.000000;-0.102672
4559.000000;-0.102266
4558.000000;-0.101845
4557.000000;-0.101374
4556.000000;-0.100850
4555.000000;-0.100335
4554.000000;-0.099893
4553.000000;-0.099528
4552.000000;-0.099184
4551.000000;-0.098784
4550.000000;-0.098265
4549.000000;-0.097620
4548.000000;-0.096909
4547.000000;-0.096228
4546.000000;-0.095628
4545.000000;-0.095090
4544.000000;-0.094569
4543.000000;-0.094044
4542.000000;-0.093509
4541.000000;-0.092953
4540.000000;-0.092375
4539.000000;-0.091812
4538.000000;-0.091308
4537.000000;-0.090870
4536.000000;-0.090455
4535.000000;-0.090019
4534.000000;-0.089546
4533.000000;-0.089050
4532.000000;-0.088556
4531.000000;-0.088093
4530.000000;-0.087677
4529.000000;-0.087300
4528.000000;-0.086936
4527.000000;-0.086571
4526.000000;-0.086219
4525.000000;-0.085902
4524.000000;-0.085629
4523.000000;-0.085379
4522.000000;-0.085130
4521.000000;-0.084880
4520.000000;-0.084645
4519.000000;-0.084432
4518.000000;-0.084222
4517.000000;-0.083986
4516.000000;-0.083722
4515.000000;-0.083468
4514.000000;-0.083266
4513.000000;-0.083118
4512.000000;-0.082965
4511.000000;-0.082727
4510.000000;-0.082372
4509.000000;-0.081959
4508.000000;-0.081594
4507.000000;-0.081344
4506.000000;-0.081202
4505.000000;-0.081110
4504.000000;-0.081009
4503.000000;-0.080854
4502.000000;-0.080630
4501.000000;-0.080366
4500.000000;-0.080121
4499.000000;-0.079925
4498.000000;-0.079752
4497.000000;-0.079544
4496.000000;-0.079272
4495.000000;-0.078945
4494.000000;-0.078585
4493.000000;-0.078223
4492.000000;-0.077907
4491.000000;-0.077669
4490.000000;-0.077490
4489.000000;-0.077302
4488.000000;-0.077041
4487.000000;-0.076692
4486.000000;-0.076293
4485.000000;-0.075905
4484.000000;-0.075580
4483.000000;-0.075328
4482.000000;-0.075103
4481.000000;-0.074844
4480.000000;-0.074526
4479.000000;-0.074167
4478.000000;-0.073793
4477.000000;-0.073416
4476.000000;-0.073043
4475.000000;-0.072673
4474.000000;-0.072286
4473.000000;-0.071866
4472.000000;-0.071421
4471.000000;-0.070984
4470.000000;-0.070572
4469.000000;-0.070173
4468.000000;-0.069768
4467.000000;-0.069352
4466.000000;-0.068934
4465.000000;-0.068517
4464.000000;-0.068094
4463.000000;-0.067647
4462.000000;-0.067162
4461.000000;-0.066648
4460.000000;-0.066142
4459.000000;-0.065681
4458.000000;-0.065262
4457.000000;-0.064850
4456.000000;-0.064406
4455.000000;-0.063916
4454.000000;-0.063407
4453.000000;-0.062929
4452.000000;-0.062522
4451.000000;-0.062171
4450.000000;-0.061805
4449.000000;-0.061357
4448.000000;-0.060816
4447.000000;-0.060214
4446.000000;-0.059589
4445.000000;-0.058980
4444.000000;-0.058435
4443.000000;-0.057969
4442.000000;-0.057531
4441.000000;-0.057045
4440.000000;-0.056481
4439.000000;-0.055878
4438.000000;-0.055296
4437.000000;-0.054762
4436.000000;-0.054274
4435.000000;-0.053813
4434.000000;-0.053342
4433.000000;-0.052827
4432.000000;-0.052249
4431.000000;-0.051618
4430.000000;-0.050964
4429.000000;-0.050327
4428.000000;-0.049749
4427.000000;-0.049230
4426.000000;-0.048701
4425.000000;-0.048084
4424.000000;-0.047380
4423.000000;-0.046676
4422.000000;-0.046065
4421.000000;-0.045556
4420.000000;-0.045080
4419.000000;-0.044546
4418.000000;-0.043901
4417.000000;-0.043153
4416.000000;-0.042367
4415.000000;-0.041618
4414.000000;-0.040935
4413.000000;-0.040296
4412.000000;-0.039673
4411.000000;-0.039053
4410.000000;-0.038428
4409.000000;-0.037769
4408.000000;-0.037048
4407.000000;-0.036282
4406.000000;-0.035536
4405.000000;-0.034866
4404.000000;-0.034265
4403.000000;-0.033667
4402.000000;-0.033002
4401.000000;-0.032258
4400.000000;-0.031479
4399.000000;-0.030712
4398.000000;-0.029975
4397.000000;-0.029253
4396.000000;-0.028509
4395.000000;-0.027703
4394.000000;-0.026814
4393.000000;-0.025878
4392.000000;-0.024965
4391.000000;-0.024122
4390.000000;-0.023337
4389.000000;-0.022570
4388.000000;-0.021789
4387.000000;-0.020967
4386.000000;-0.020074
4385.000000;-0.019105
4384.000000;-0.018099
4383.000000;-0.017109
4382.000000;-0.016157
4381.000000;-0.015230
4380.000000;-0.014302
4379.000000;-0.013344
4378.000000;-0.012323
4377.000000;-0.011235
4376.000000;-0.010122
4375.000000;-0.009040
4374.000000;-0.008012
4373.000000;-0.007033
4372.000000;-0.006089
4371.000000;-0.005155
4370.000000;-0.004173
4369.000000;-0.003099
4368.000000;-0.001951
4367.000000;-0.000802
4366.000000;0.000291
4365.000000;0.001330
4364.000000;0.002354
4363.000000;0.003404
4362.000000;0.004494
4361.000000;0.005608
4360.000000;0.006725
4359.000000;0.007850
4358.000000;0.009015
4357.000000;0.010230
4356.000000;0.011460
4355.000000;0.012672
4354.000000;0.013893
4353.000000;0.015180
4352.000000;0.016532
4351.000000;0.017879
4350.000000;0.019153
4349.000000;0.020361
4348.000000;0.021568
4347.000000;0.022836
4346.000000;0.024178
4345.000000;0.025546
4344.000000;0.026873
4343.000000;0.028130
4342.000000;0.029347
4341.000000;0.030587
4340.000000;0.031905
4339.000000;0.033339
4338.000000;0.034906
4337.000000;0.036566
4336.000000;0.038215
4335.000000;0.039749
4334.000000;0.041146
4333.000000;0.042463
4332.000000;0.043784
4331.000000;0.045179
4330.000000;0.046688
4329.000000;0.048288
4328.000000;0.049889
4327.000000;0.051399
4326.000000;0.052806
4325.000000;0.054168
4324.000000;0.055542
4323.000000;0.056953
4322.000000;0.058417
4321.000000;0.059944
4320.000000;0.061516
4319.000000;0.063092
4318.000000;0.064652
4317.000000;0.066206
4316.000000;0.067768
4315.000000;0.069353
4314.000000;0.070980
4313.000000;0.072641
4312.000000;0.074273
4311.000000;0.075814
4310.000000;0.077293
4309.000000;0.078831
4308.000000;0.080528
4307.000000;0.082372
4306.000000;0.084248
4305.000000;0.086027
4304.000000;0.087648
4303.000000;0.089140
4302.000000;0.090606
4301.000000;0.092150
4300.000000;0.093821
4299.000000;0.095610
4298.000000;0.097476
4297.000000;0.099365
4296.000000;0.101207
4295.000000;0.102967
4294.000000;0.104679
4293.000000;0.106428
4292.000000;0.108260
4291.000000;0.110145
4290.000000;0.112017
4289.000000;0.113834
4288.000000;0.115619
4287.000000;0.117444
4286.000000;0.119371
4285.000000;0.121394
4284.000000;0.123434
4283.000000;0.125404
4282.000000;0.127275
4281.000000;0.129070
4280.000000;0.130827
4279.000000;0.132592
4278.000000;0.134425
4277.000000;0.136375
4276.000000;0.138439
4275.000000;0.140566
4274.000000;0.142690
4273.000000;0.144746
4272.000000;0.146686
4271.000000;0.148512
4270.000000;0.150306
4269.000000;0.152185
4268.000000;0.154238
4267.000000;0.156473
4266.000000;0.158805
4265.000000;0.161098
4264.000000;0.163256
4263.000000;0.165303
4262.000000;0.167351
4261.000000;0.169485
4260.000000;0.171692
4259.000000;0.173914
4258.000000;0.176103
4257.000000;0.178223
4256.000000;0.180272
4255.000000;0.182343
4254.000000;0.184581
4253.000000;0.187019
4252.000000;0.189498
4251.000000;0.191837
4250.000000;0.194020
4249.000000;0.196158
4248.000000;0.198305
4247.000000;0.200434
4246.000000;0.202568
4245.000000;0.204813
4244.000000;0.207230
4243.000000;0.209748
4242.000000;0.212218
4241.000000;0.214536
4240.000000;0.216686
4239.000000;0.218744
4238.000000;0.220837
4237.000000;0.223078
4236.000000;0.225497
4235.000000;0.228043
4234.000000;0.230646
4233.000000;0.233244
4232.000000;0.235796
4231.000000;0.238309
4230.000000;0.240851
4229.000000;0.243477
4228.000000;0.246159
4227.000000;0.248824
4226.000000;0.251449
4225.000000;0.254064
4224.000000;0.256692
4223.000000;0.259336
4222.000000;0.262015
4221.000000;0.264756
4220.000000;0.267543
4219.000000;0.270333
4218.000000;0.273111
4217.000000;0.275893
4216.000000;0.278682
4215.000000;0.281466
4214.000000;0.284248
4213.000000;0.287041
4212.000000;0.289845
4211.000000;0.292660
4210.000000;0.295497
4209.000000;0.298351
4208.000000;0.301193
4207.000000;0.304043
4206.000000;0.307011
4205.000000;0.310191
4204.000000;0.313539
4203.000000;0.316911
4202.000000;0.320194
4201.000000;0.323347
4200.000000;0.326370
4199.000000;0.329320
4198.000000;0.332345
4197.000000;0.335592
4196.000000;0.339071
4195.000000;0.342650
4194.000000;0.346178
4193.000000;0.349552
4192.000000;0.352707
4191.000000;0.355661
4190.000000;0.358592
4189.000000;0.361754
4188.000000;0.365253
4187.000000;0.368940
4186.000000;0.372561
4185.000000;0.376003
4184.000000;0.379361
4183.000000;0.382795
4182.000000;0.386352
4181.000000;0.389938
4180.000000;0.393456
4179.000000;0.396922
4178.000000;0.400416
4177.000000;0.403947
4176.000000;0.407464
4175.000000;0.410998
4174.000000;0.414683
4173.000000;0.418563
4172.000000;0.422484
4171.000000;0.426275
4170.000000;0.429954
4169.000000;0.433672
4168.000000;0.437510
4167.000000;0.441419
4166.000000;0.445332
4165.000000;0.449221
4164.000000;0.453082
4163.000000;0.456936
4162.000000;0.460820
4161.000000;0.464688
4160.000000;0.468378
4159.000000;0.471804
4158.000000;0.475161
4157.000000;0.478839
4156.000000;0.483074
4155.000000;0.487702
4154.000000;0.492257
4153.000000;0.496316
4152.000000;0.499820
4151.000000;0.503107
4150.000000;0.506605
4149.000000;0.510466
4148.000000;0.514542
4147.000000;0.518663
4146.000000;0.522789
4145.000000;0.526879
4144.000000;0.530823
4143.000000;0.534649
4142.000000;0.538625
4141.000000;0.542954
4140.000000;0.547460
4139.000000;0.551752
4138.000000;0.555648
4137.000000;0.559299
4136.000000;0.562950
4135.000000;0.566762
4134.000000;0.570787
4133.000000;0.574962
4132.000000;0.579122
4131.000000;0.583163
4130.000000;0.587173
4129.000000;0.591340
4128.000000;0.595758
4127.000000;0.600399
4126.000000;0.605154
4125.000000;0.609792
4124.000000;0.614025
4123.000000;0.617809
4122.000000;0.621503
4121.000000;0.625517
4120.000000;0.629881
4119.000000;0.634281
4118.000000;0.638423
4117.000000;0.642186
4116.000000;0.645543
4115.000000;0.648632
4114.000000;0.651861
4113.000000;0.655658
4112.000000;0.660055
4111.000000;0.664676
4110.000000;0.669133
4109.000000;0.673305
4108.000000;0.677261
4107.000000;0.681125
4106.000000;0.685010
4105.000000;0.688928
4104.000000;0.692745
4103.000000;0.696362
4102.000000;0.699890
4101.000000;0.703513
4100.000000;0.707239
4099.000000;0.710965
4098.000000;0.714721
4097.000000;0.718620
4096.000000;0.722610
4095.000000;0.726488
4094.000000;0.730180
4093.000000;0.733816
4092.000000;0.737527
4091.000000;0.741349
4090.000000;0.745289
4089.000000;0.749286
4088.000000;0.753069
4087.000000;0.756330
4086.000000;0.759095
4085.000000;0.761813
4084.000000;0.765014
4083.000000;0.768987
4082.000000;0.773700
4081.000000;0.778764
4080.000000;0.783440
4079.000000;0.787011
4078.000000;0.789378
4077.000000;0.791170
4076.000000;0.793131
4075.000000;0.795506
4074.000000;0.798138
4073.000000;0.800979
4072.000000;0.804220
4071.000000;0.807887
4070.000000;0.811536
4069.000000;0.814574
4068.000000;0.816882
4067.000000;0.818997
4066.000000;0.821654
4065.000000;0.825197
4064.000000;0.829347
4063.000000;0.833382
4062.000000;0.836556
4061.000000;0.838584
4060.000000;0.839866
4059.000000;0.841159
4058.000000;0.842930
4057.000000;0.845110
4056.000000;0.847458
4055.000000;0.849892
4054.000000;0.852306
4053.000000;0.854404
4052.000000;0.856039
4051.000000;0.857527
4050.000000;0.859327
4049.000000;0.861537
4048.000000;0.863958
4047.000000;0.866433
4046.000000;0.868809
4045.000000;0.870753
4044.000000;0.872066
4043.000000;0.873037
4042.000000;0.874066
4041.000000;0.875032
4040.000000;0.875460
4039.000000;0.875326
4038.000000;0.875266
4037.000000;0.875886
4036.000000;0.877133
4035.000000;0.878429
4034.000000;0.879171
4033.000000;0.879147
4032.000000;0.878679
4031.000000;0.878353
4030.000000;0.878410
4029.000000;0.878499
4028.000000;0.878202
4027.000000;0.877579
4026.000000;0.876931
4025.000000;0.876341
4024.000000;0.875858
4023.000000;0.875838
4022.000000;0.876493
4021.000000;0.877201
4020.000000;0.876874
4019.000000;0.875125
4018.000000;0.872641
4017.000000;0.870372
4016.000000;0.868738
4015.000000;0.867640
4014.000000;0.866763
4013.000000;0.865740
4012.000000;0.864297
4011.000000;0.862359
4010.000000;0.859970
4009.000000;0.857268
4008.000000;0.854653
4007.000000;0.852708
4006.000000;0.851628
4005.000000;0.850848
4004.000000;0.849585
4003.000000;0.847606
4002.000000;0.845139
4001.000000;0.842306
4000.000000;0.839083
3999.000000;0.835642
3998.000000;0.832252
3997.000000;0.828954
3996.000000;0.825737
3995.000000;0.822882
3994.000000;0.820646
3993.000000;0.818730
3992.000000;0.816562
3991.000000;0.814079
3990.000000;0.811683
3989.000000;0.809427
3988.000000;0.806799
3987.000000;0.803516
3986.000000;0.800024
3985.000000;0.796938
3984.000000;0.794260
3983.000000;0.791446
3982.000000;0.788084
3981.000000;0.784313
3980.000000;0.780609
3979.000000;0.777256
3978.000000;0.774024
3977.000000;0.770448
3976.000000;0.766476
3975.000000;0.762674
3974.000000;0.759542
3973.000000;0.756825
3972.000000;0.753729
3971.000000;0.749795
3970.000000;0.745350
3969.000000;0.741090
3968.000000;0.737488
3967.000000;0.734603
3966.000000;0.732151
3965.000000;0.729630
3964.000000;0.726610
3963.000000;0.723054
3962.000000;0.719210
3961.000000;0.715202
3960.000000;0.711022
3959.000000;0.706968
3958.000000;0.703704
3957.000000;0.701525
3956.000000;0.699715
3955.000000;0.697016
3954.000000;0.692851
3953.000000;0.687828
3952.000000;0.682861
3951.000000;0.678106
3950.000000;0.673088
3949.000000;0.667752
3948.000000;0.662836
3947.000000;0.658963
3946.000000;0.655680
3945.000000;0.651868
3944.000000;0.647132
3943.000000;0.642369
3942.000000;0.638797
3941.000000;0.636664
3940.000000;0.635078
3939.000000;0.632926
3938.000000;0.629766
3937.000000;0.625878
3936.000000;0.621635
3935.000000;0.616976
3934.000000;0.611625
3933.000000;0.605783
3932.000000;0.600363
3931.000000;0.596247
3930.000000;0.593380
3929.000000;0.590810
3928.000000;0.587589
3927.000000;0.583495
3926.000000;0.578993
3925.000000;0.574732
3924.000000;0.571064
3923.000000;0.567827
3922.000000;0.564488
3921.000000;0.560615
3920.000000;0.556256
3919.000000;0.551798
3918.000000;0.547526
3917.000000;0.543459
3916.000000;0.539580
3915.000000;0.536011
3914.000000;0.532911
3913.000000;0.530303
3912.000000;0.527957
3911.000000;0.525366
3910.000000;0.521939
3909.000000;0.517474
3908.000000;0.512366
3907.000000;0.507163
3906.000000;0.502020
3905.000000;0.496850
3904.000000;0.491858
3903.000000;0.487506
3902.000000;0.483926
3901.000000;0.480806
3900.000000;0.477914
3899.000000;0.475383
3898.000000;0.473287
3897.000000;0.471242
3896.000000;0.468710
3895.000000;0.465553
3894.000000;0.462028
3893.000000;0.458454
3892.000000;0.455126
3891.000000;0.452364
3890.000000;0.450252
3889.000000;0.448339
3888.000000;0.445878
3887.000000;0.442522
3886.000000;0.438731
3885.000000;0.435289
3884.000000;0.432460
3883.000000;0.429776
3882.000000;0.426696
3881.000000;0.423369
3880.000000;0.420570
3879.000000;0.418837
3878.000000;0.417772
3877.000000;0.416320
3876.000000;0.413761
3875.000000;0.410359
3874.000000;0.406872
3873.000000;0.403612
3872.000000;0.400342
3871.000000;0.396970
3870.000000;0.393918
3869.000000;0.391670
3868.000000;0.390161
3867.000000;0.388757
3866.000000;0.386847
3865.000000;0.384465
3864.000000;0.382170
3863.000000;0.380303
3862.000000;0.378599
3861.000000;0.376692
3860.000000;0.374658
3859.000000;0.372746
3858.000000;0.370700
3857.000000;0.367782
3856.000000;0.363671
3855.000000;0.359166
3854.000000;0.355595
3853.000000;0.353564
3852.000000;0.352472
3851.000000;0.351293
3850.000000;0.349726
3849.000000;0.348040
3848.000000;0.346275
3847.000000;0.344201
3846.000000;0.341685
3845.000000;0.338967
3844.000000;0.336478
3843.000000;0.334416
3842.000000;0.332559
3841.000000;0.330424
3840.000000;0.327671
3839.000000;0.324480
3838.000000;0.321455
3837.000000;0.319083
3836.000000;0.317316
3835.000000;0.315651
3834.000000;0.313557
3833.000000;0.310891
3832.000000;0.307998
3831.000000;0.305450
3830.000000;0.303620
3829.000000;0.302397
3828.000000;0.301292
3827.000000;0.299844
3826.000000;0.297875
3825.000000;0.295411
3824.000000;0.292574
3823.000000;0.289641
3822.000000;0.286998
3821.000000;0.284823
3820.000000;0.282887
3819.000000;0.280853
3818.000000;0.278690
3817.000000;0.276466
3816.000000;0.273965
3815.000000;0.271050
3814.000000;0.268094
3813.000000;0.265635
3812.000000;0.263725
3811.000000;0.261891
3810.000000;0.259724
3809.000000;0.257280
3808.000000;0.254886
3807.000000;0.252699
3806.000000;0.250606
3805.000000;0.248393
3804.000000;0.245889
3803.000000;0.243097
3802.000000;0.240332
3801.000000;0.238018
3800.000000;0.236172
3799.000000;0.234286
3798.000000;0.231872
3797.000000;0.229070
3796.000000;0.226557
3795.000000;0.224777
3794.000000;0.223453
3793.000000;0.221958
3792.000000;0.219937
3791.000000;0.217465
3790.000000;0.214809
3789.000000;0.212165
3788.000000;0.209635
3787.000000;0.207264
3786.000000;0.205062
3785.000000;0.202947
3784.000000;0.200748
3783.000000;0.198329
3782.000000;0.195799
3781.000000;0.193470
3780.000000;0.191500
3779.000000;0.189643
3778.000000;0.187511
3777.000000;0.185066
3776.000000;0.182654
3775.000000;0.180479
3774.000000;0.178320
3773.000000;0.175849
3772.000000;0.172983
3771.000000;0.169894
3770.000000;0.166804
3769.000000;0.163827
3768.000000;0.160966
3767.000000;0.158208
3766.000000;0.155599
3765.000000;0.153180
3764.000000;0.150862
3763.000000;0.148421
3762.000000;0.145731
3761.000000;0.142952
3760.000000;0.140339
3759.000000;0.137844
3758.000000;0.135132
3757.000000;0.132054
3756.000000;0.128861
3755.000000;0.125867
3754.000000;0.123156
3753.000000;0.120663
3752.000000;0.118215
3751.000000;0.115488
3750.000000;0.112307
3749.000000;0.109085
3748.000000;0.106620
3747.000000;0.105094
3746.000000;0.103769
3745.000000;0.102042
3744.000000;0.099996
3743.000000;0.097794
3742.000000;0.095106
3741.000000;0.091443
3740.000000;0.087126
3739.000000;0.083149
3738.000000;0.079959
3737.000000;0.077224
3736.000000;0.074565
3735.000000;0.071913
3734.000000;0.069320
3733.000000;0.066866
3732.000000;0.064712
3731.000000;0.062811
3730.000000;0.060720
3729.000000;0.057999
3728.000000;0.054655
3727.000000;0.051045
3726.000000;0.047520
3725.000000;0.044298
3724.000000;0.041522
3723.000000;0.039169
3722.000000;0.036972
3721.000000;0.034587
3720.000000;0.031886
3719.000000;0.028971
3718.000000;0.025917
3717.000000;0.022687
3716.000000;0.019269
3715.000000;0.015743
3714.000000;0.012220
3713.000000;0.008807
3712.000000;0.005568
3711.000000;0.002425
3710.000000;-0.000804
3709.000000;-0.004142
3708.000000;-0.007361
3707.000000;-0.010322
3706.000000;-0.013116
3705.000000;-0.015818
3704.000000;-0.018395
3703.000000;-0.020850
3702.000000;-0.023276
3701.000000;-0.025787
3700.000000;-0.028498
3699.000000;-0.031550
3698.000000;-0.035027
3697.000000;-0.038778
3696.000000;-0.042472
3695.000000;-0.046005
3694.000000;-0.049626
3693.000000;-0.053454
3692.000000;-0.057117
3691.000000;-0.060157
3690.000000;-0.062695
3689.000000;-0.065424
3688.000000;-0.068892
3687.000000;-0.072889
3686.000000;-0.076693
3685.000000;-0.079842
3684.000000;-0.082442
3683.000000;-0.085013
3682.000000;-0.088155
3681.000000;-0.091970
3680.000000;-0.095926
3679.000000;-0.099484
3678.000000;-0.102604
3677.000000;-0.105512
3676.000000;-0.108308
3675.000000;-0.111093
3674.000000;-0.114215
3673.000000;-0.117896
3672.000000;-0.121836
3671.000000;-0.125621
3670.000000;-0.129193
3669.000000;-0.132810
3668.000000;-0.136650
3667.000000;-0.140439
3666.000000;-0.143751
3665.000000;-0.146540
3664.000000;-0.149097
3663.000000;-0.151796
3662.000000;-0.154981
3661.000000;-0.158727
3660.000000;-0.162721
3659.000000;-0.166618
3658.000000;-0.170457
3657.000000;-0.174469
3656.000000;-0.178544
3655.000000;-0.182245
3654.000000;-0.185434
3653.000000;-0.188592
3652.000000;-0.192274
3651.000000;-0.196446
3650.000000;-0.200575
3649.000000;-0.204233
3648.000000;-0.207388
3647.000000;-0.210141
3646.000000;-0.212593
3645.000000;-0.215154
3644.000000;-0.218297
3643.000000;-0.221958
3642.000000;-0.225708
3641.000000;-0.229353
3640.000000;-0.233067
3639.000000;-0.237031
3638.000000;-0.241190
3637.000000;-0.245373
3636.000000;-0.249466
3635.000000;-0.253353
3634.000000;-0.256841
3633.000000;-0.259867
3632.000000;-0.262739
3631.000000;-0.265896
3630.000000;-0.269365
3629.000000;-0.272746
3628.000000;-0.275865
3627.000000;-0.279155
3626.000000;-0.282983
3625.000000;-0.287012
3624.000000;-0.290633
3623.000000;-0.293708
3622.000000;-0.296720
3621.000000;-0.300089
3620.000000;-0.303669
3619.000000;-0.307197
3618.000000;-0.310800
3617.000000;-0.314615
3616.000000;-0.318312
3615.000000;-0.321492
3614.000000;-0.324318
3613.000000;-0.327294
3612.000000;-0.330615
3611.000000;-0.334015
3610.000000;-0.337167
3609.000000;-0.339957
3608.000000;-0.342348
3607.000000;-0.344333
3606.000000;-0.346137
3605.000000;-0.348191
3604.000000;-0.350801
3603.000000;-0.353942
3602.000000;-0.357318
3601.000000;-0.360571
3600.000000;-0.363447
3599.000000;-0.365901
3598.000000;-0.368104
3597.000000;-0.370263
3596.000000;-0.372379
3595.000000;-0.374306
3594.000000;-0.376029
3593.000000;-0.377763
3592.000000;-0.379691
3591.000000;-0.381705
3590.000000;-0.383472
3589.000000;-0.384721
3588.000000;-0.385528
3587.000000;-0.386380
3586.000000;-0.387829
3585.000000;-0.389941
3584.000000;-0.392228
3583.000000;-0.394231
3582.000000;-0.395882
3581.000000;-0.397293
3580.000000;-0.398537
3579.000000;-0.399682
3578.000000;-0.400886
3577.000000;-0.402237
3576.000000;-0.403519
3575.000000;-0.404370
3574.000000;-0.404705
3573.000000;-0.404843
3572.000000;-0.405133
3571.000000;-0.405585
3570.000000;-0.405985
3569.000000;-0.406221
3568.000000;-0.406343
3567.000000;-0.406346
3566.000000;-0.406088
3565.000000;-0.405466
3564.000000;-0.404641
3563.000000;-0.404022
3562.000000;-0.403819
3561.000000;-0.403659
3560.000000;-0.402989
3559.000000;-0.401824
3558.000000;-0.400795
3557.000000;-0.400471
3556.000000;-0.400806
3555.000000;-0.401285
3554.000000;-0.401376
3553.000000;-0.400739
3552.000000;-0.399268
3551.000000;-0.397168
3550.000000;-0.394949
3549.000000;-0.393116
3548.000000;-0.391768
3547.000000;-0.390550
3546.000000;-0.388983
3545.000000;-0.386880
3544.000000;-0.384534
3543.000000;-0.382581
3542.000000;-0.381535
3541.000000;-0.381272
3540.000000;-0.381038
3539.000000;-0.380153
3538.000000;-0.378631
3537.000000;-0.376946
3536.000000;-0.375315
3535.000000;-0.373487
3534.000000;-0.371238
3533.000000;-0.368795
3532.000000;-0.366629
3531.000000;-0.364929
3530.000000;-0.363444
3529.000000;-0.361788
3528.000000;-0.359816
3527.000000;-0.357675
3526.000000;-0.355547
3525.000000;-0.353418
3524.000000;-0.351145
3523.000000;-0.348720
3522.000000;-0.346340
3521.000000;-0.344190
3520.000000;-0.342259
3519.000000;-0.340459
3518.000000;-0.338789
3517.000000;-0.337253
3516.000000;-0.335659
3515.000000;-0.333667
3514.000000;-0.331027
3513.000000;-0.327767
3512.000000;-0.324202
3511.000000;-0.320792
3510.000000;-0.317863
3509.000000;-0.315403
3508.000000;-0.313156
3507.000000;-0.310938
3506.000000;-0.308745
3505.000000;-0.306574
3504.000000;-0.304358
3503.000000;-0.302179
3502.000000;-0.300290
3501.000000;-0.298687
3500.000000;-0.296882
3499.000000;-0.294401
3498.000000;-0.291412
3497.000000;-0.288603
3496.000000;-0.286483
3495.000000;-0.284964
3494.000000;-0.283556
3493.000000;-0.281776
3492.000000;-0.279415
3491.000000;-0.276584
3490.000000;-0.273507
3489.000000;-0.270206
3488.000000;-0.266571
3487.000000;-0.262877
3486.000000;-0.259934
3485.000000;-0.258313
3484.000000;-0.257533
3483.000000;-0.256450
3482.000000;-0.254436
3481.000000;-0.251841
3480.000000;-0.249326
3479.000000;-0.247166
3478.000000;-0.245303
3477.000000;-0.243628
3476.000000;-0.241951
3475.000000;-0.239985
3474.000000;-0.237644
3473.000000;-0.235173
3472.000000;-0.232817
3471.000000;-0.230559
3470.000000;-0.228362
3469.000000;-0.226398
3468.000000;-0.224754
3467.000000;-0.223087
3466.000000;-0.220941
3465.000000;-0.218362
3464.000000;-0.215887
3463.000000;-0.213873
3462.000000;-0.212115
3461.000000;-0.210199
3460.000000;-0.207970
3459.000000;-0.205515
3458.000000;-0.202916
3457.000000;-0.200273
3456.000000;-0.197860
3455.000000;-0.195971
3454.000000;-0.194537
3453.000000;-0.193124
3452.000000;-0.191435
3451.000000;-0.189645
3450.000000;-0.188059
3449.000000;-0.186578
3448.000000;-0.184781
3447.000000;-0.182555
3446.000000;-0.180349
3445.000000;-0.178650
3444.000000;-0.177395
3443.000000;-0.176085
3442.000000;-0.174326
3441.000000;-0.172122
3440.000000;-0.169758
3439.000000;-0.167580
3438.000000;-0.165770
3437.000000;-0.164185
3436.000000;-0.162466
3435.000000;-0.160467
3434.000000;-0.158467
3433.000000;-0.156782
3432.000000;-0.155299
3431.000000;-0.153621
3430.000000;-0.151631
3429.000000;-0.149653
3428.000000;-0.148069
3427.000000;-0.146954
3426.000000;-0.146055
3425.000000;-0.144915
3424.000000;-0.143104
3423.000000;-0.140609
3422.000000;-0.138005
3421.000000;-0.135981
3420.000000;-0.134651
3419.000000;-0.133582
3418.000000;-0.132424
3417.000000;-0.131176
3416.000000;-0.129839
3415.000000;-0.128240
3414.000000;-0.126386
3413.000000;-0.124631
3412.000000;-0.123240
3411.000000;-0.122013
3410.000000;-0.120561
3409.000000;-0.118787
3408.000000;-0.116865
3407.000000;-0.114948
3406.000000;-0.113128
3405.000000;-0.111531
3404.000000;-0.110224
3403.000000;-0.109082
3402.000000;-0.107931
3401.000000;-0.106717
3400.000000;-0.105408
3399.000000;-0.103852
3398.000000;-0.101960
3397.000000;-0.099944
3396.000000;-0.098170
3395.000000;-0.096788
3394.000000;-0.095653
3393.000000;-0.094590
3392.000000;-0.093563
3391.000000;-0.092581
3390.000000;-0.091571
3389.000000;-0.090383
3388.000000;-0.088882
3387.000000;-0.087043
3386.000000;-0.084998
3385.000000;-0.082938
3384.000000;-0.080944
3383.000000;-0.079021
3382.000000;-0.077296
3381.000000;-0.076020
3380.000000;-0.075254
3379.000000;-0.074738
3378.000000;-0.074181
3377.000000;-0.073562
3376.000000;-0.072963
3375.000000;-0.072246
3374.000000;-0.071150
3373.000000;-0.069640
3372.000000;-0.067951
3371.000000;-0.066249
3370.000000;-0.064474
3369.000000;-0.062574
3368.000000;-0.060717
3367.000000;-0.059146
3366.000000;-0.057913
3365.000000;-0.056846
3364.000000;-0.055791
3363.000000;-0.054774
3362.000000;-0.053899
3361.000000;-0.053112
3360.000000;-0.052150
3359.000000;-0.050799
3358.000000;-0.049179
3357.000000;-0.047670
3356.000000;-0.046542
3355.000000;-0.045752
3354.000000;-0.045094
3353.000000;-0.044424
3352.000000;-0.043695
3351.000000;-0.042911
3350.000000;-0.042142
3349.000000;-0.041451
3348.000000;-0.040745
3347.000000;-0.039798
3346.000000;-0.038511
3345.000000;-0.036999
3344.000000;-0.035352
3343.000000;-0.033542
3342.000000;-0.031708
3341.000000;-0.030302
3340.000000;-0.029629
3339.000000;-0.029379
3338.000000;-0.028928
3337.000000;-0.028069
3336.000000;-0.027146
3335.000000;-0.026495
3334.000000;-0.026033
3333.000000;-0.025450
3332.000000;-0.024559
3331.000000;-0.023340
3330.000000;-0.021896
3329.000000;-0.020469
3328.000000;-0.019336
3327.000000;-0.018542
3326.000000;-0.017885
3325.000000;-0.017235
3324.000000;-0.016686
3323.000000;-0.016291
3322.000000;-0.015853
3321.000000;-0.015130
3320.000000;-0.014108
3319.000000;-0.012925
3318.000000;-0.011672
3317.000000;-0.010450
3316.000000;-0.009467
3315.000000;-0.008814
3314.000000;-0.008198
3313.000000;-0.007155
3312.000000;-0.005565
3311.000000;-0.003757
3310.000000;-0.002119
3309.000000;-0.000800
3308.000000;0.000169
3307.000000;0.000759
3306.000000;0.001088
3305.000000;0.001508
3304.000000;0.002327
3303.000000;0.003502
3302.000000;0.004766
3301.000000;0.005969
3300.000000;0.007131
3299.000000;0.008190
3298.000000;0.008905
3297.000000;0.009108
3296.000000;0.008971
3295.000000;0.008918
3294.000000;0.009298
3293.000000;0.010164
3292.000000;0.011345
3291.000000;0.012653
3290.000000;0.014009
3289.000000;0.015382
3288.000000;0.016661
3287.000000;0.017648
3286.000000;0.018225
3285.000000;0.018494
3284.000000;0.018702
3283.000000;0.019026
3282.000000;0.019501
3281.000000;0.020159
3280.000000;0.021119
3279.000000;0.022459
3278.000000;0.023992
3277.000000;0.025293
3276.000000;0.026017
3275.000000;0.026191
3274.000000;0.026144
3273.000000;0.026158
3272.000000;0.026286
3271.000000;0.026556
3270.000000;0.027209
3269.000000;0.028532
3268.000000;0.030395
3267.000000;0.032180
3266.000000;0.033334
3265.000000;0.033905
3264.000000;0.034333
3263.000000;0.034806
3262.000000;0.035112
3261.000000;0.035153
3260.000000;0.035292
3259.000000;0.035990
3258.000000;0.037266
3257.000000;0.038700
3256.000000;0.039869
3255.000000;0.040594
3254.000000;0.040877
3253.000000;0.040852
3252.000000;0.040810
3251.000000;0.041025
3250.000000;0.041477
3249.000000;0.041905
3248.000000;0.042183
3247.000000;0.042519
3246.000000;0.043186
3245.000000;0.044227
3244.000000;0.045514
3243.000000;0.046966
3242.000000;0.048544
3241.000000;0.050099
3240.000000;0.051395
3239.000000;0.052261
3238.000000;0.052672
3237.000000;0.052713
3236.000000;0.052562
3235.000000;0.052448
3234.000000;0.052503
3233.000000;0.052674
3232.000000;0.052853
3231.000000;0.053076
3230.000000;0.053479
3229.000000;0.054097
3228.000000;0.054824
3227.000000;0.055573
3226.000000;0.056314
3225.000000;0.056954
3224.000000;0.057360
3223.000000;0.057577
3222.000000;0.057889
3221.000000;0.058519
3220.000000;0.059384
3219.000000;0.060264
3218.000000;0.061120
3217.000000;0.062038
3216.000000;0.062956
3215.000000;0.063687
3214.000000;0.064232
3213.000000;0.064841
3212.000000;0.065621
3211.000000;0.066299
3210.000000;0.066559
3209.000000;0.066510
3208.000000;0.066582
3207.000000;0.067003
3206.000000;0.067628
3205.000000;0.068256
3204.000000;0.068860
3203.000000;0.069450
3202.000000;0.069951
3201.000000;0.070350
3200.000000;0.070791
3199.000000;0.071342
3198.000000;0.071813
3197.000000;0.072046
3196.000000;0.072282
3195.000000;0.072956
3194.000000;0.074095
3193.000000;0.075177
3192.000000;0.075671
3191.000000;0.075535
3190.000000;0.075117
3189.000000;0.074807
3188.000000;0.074936
3187.000000;0.075735
3186.000000;0.077078
3185.000000;0.078351
3184.000000;0.078896
3183.000000;0.078677
3182.000000;0.078318
3181.000000;0.078450
3180.000000;0.079216
3179.000000;0.080417
3178.000000;0.081877
3177.000000;0.083489
3176.000000;0.085069
3175.000000;0.086399
3174.000000;0.087403
3173.000000;0.088153
3172.000000;0.088749
3171.000000;0.089278
3170.000000;0.089811
3169.000000;0.090248
3168.000000;0.090248
3167.000000;0.089535
3166.000000;0.088354
3165.000000;0.087449
3164.000000;0.087454
3163.000000;0.088377
3162.000000;0.089658
3161.000000;0.090645
3160.000000;0.090987
3159.000000;0.090754
3158.000000;0.090344
3157.000000;0.090230
3156.000000;0.090653
3155.000000;0.091520
3154.000000;0.092608
3153.000000;0.093774
3152.000000;0.094913
3151.000000;0.095847
3150.000000;0.096422
3149.000000;0.096728
3148.000000;0.097050
3147.000000;0.097572
3146.000000;0.098216
3145.000000;0.098819
3144.000000;0.099373
3143.000000;0.099988
3142.000000;0.100657
3141.000000;0.101168
3140.000000;0.101327
3139.000000;0.101243
3138.000000;0.101322
3137.000000;0.101864
3136.000000;0.102687
3135.000000;0.103258
3134.000000;0.103284
3133.000000;0.103084
3132.000000;0.103245
3131.000000;0.103956
3130.000000;0.104804
3129.000000;0.105239
3128.000000;0.105125
3127.000000;0.104799
3126.000000;0.104743
3125.000000;0.105255
3124.000000;0.106317
3123.000000;0.107593
3122.000000;0.108563
3121.000000;0.108840
3120.000000;0.108430
3119.000000;0.107728
3118.000000;0.107256
3117.000000;0.107419
3116.000000;0.108391
3115.000000;0.110037
3114.000000;0.111863
3113.000000;0.113173
3112.000000;0.113501
3111.000000;0.113003
3110.000000;0.112335
3109.000000;0.112082
3108.000000;0.112313
3107.000000;0.112687
3106.000000;0.112929
3105.000000;0.113098
3104.000000;0.113435
3103.000000;0.114056
3102.000000;0.114848
3101.000000;0.115588
3100.000000;0.116129
3099.000000;0.116500
3098.000000;0.116894
3097.000000;0.117490
3096.000000;0.118274
3095.000000;0.119030
3094.000000;0.119531
3093.000000;0.119716
3092.000000;0.119715
3091.000000;0.119789
3090.000000;0.120218
3089.000000;0.121077
3088.000000;0.122040
3087.000000;0.122566
3086.000000;0.122428
3085.000000;0.122006
3084.000000;0.121874
3083.000000;0.122175
3082.000000;0.122547
3081.000000;0.122650
3080.000000;0.122584
3079.000000;0.122726
3078.000000;0.123302
3077.000000;0.124203
3076.000000;0.125160
3075.000000;0.126023
3074.000000;0.126843
3073.000000;0.127709
3072.000000;0.128549
3071.000000;0.129179
3070.000000;0.129571
3069.000000;0.129944
3068.000000;0.130491
3067.000000;0.131119
3066.000000;0.131594
3065.000000;0.131857
3064.000000;0.132005
3063.000000;0.132019
3062.000000;0.131800
3061.000000;0.131511
3060.000000;0.131616
3059.000000;0.132392
3058.000000;0.133521
3057.000000;0.134324
3056.000000;0.134386
3055.000000;0.133908
3054.000000;0.133508
3053.000000;0.133769
3052.000000;0.134857
3051.000000;0.136425
3050.000000;0.137831
3049.000000;0.138569
3048.000000;0.138620
3047.000000;0.138460
3046.000000;0.138696
3045.000000;0.139575
3044.000000;0.140723
3043.000000;0.141445
3042.000000;0.141420
3041.000000;0.141073
3040.000000;0.141080
3039.000000;0.141565
3038.000000;0.142018
3037.000000;0.142034
3036.000000;0.141906
3035.000000;0.142297
3034.000000;0.143481
3033.000000;0.145055
3032.000000;0.146301
3031.000000;0.146710
3030.000000;0.146287
3029.000000;0.145549
3028.000000;0.145199
3027.000000;0.145599
3026.000000;0.146509
3025.000000;0.147403
3024.000000;0.148021
3023.000000;0.148484
3022.000000;0.148890
3021.000000;0.149023
3020.000000;0.148619
3019.000000;0.147869
3018.000000;0.147441
3017.000000;0.147907
3016.000000;0.149149
3015.000000;0.150423
3014.000000;0.151056
3013.000000;0.151051
3012.000000;0.150971
3011.000000;0.151278
3010.000000;0.151888
3009.000000;0.152384
3008.000000;0.152546
3007.000000;0.152620
3006.000000;0.153078
3005.000000;0.154155
3004.000000;0.155607
3003.000000;0.156941
3002.000000;0.157891
3001.000000;0.158600
3000.000000;0.159295
2999.000000;0.159884
2998.000000;0.160064
2997.000000;0.159775
2996.000000;0.159372
2995.000000;0.159307
2994.000000;0.159745
2993.000000;0.160508
2992.000000;0.161260
2991.000000;0.161743
2990.000000;0.161977
2989.000000;0.162259
2988.000000;0.162826
2987.000000;0.163506
2986.000000;0.163878
2985.000000;0.163813
2984.000000;0.163648
2983.000000;0.163748
2982.000000;0.164117
2981.000000;0.164572
2980.000000;0.165053
2979.000000;0.165577
2978.000000;0.166025
2977.000000;0.166263
2976.000000;0.166371
2975.000000;0.166559
2974.000000;0.166896
2973.000000;0.167321
2972.000000;0.167867
2971.000000;0.168656
2970.000000;0.169706
2969.000000;0.170875
2968.000000;0.171991
2967.000000;0.172845
2966.000000;0.173129
2965.000000;0.172679
2964.000000;0.171839
2963.000000;0.171382
2962.000000;0.171874
2961.000000;0.173207
2960.000000;0.174792
2959.000000;0.176099
2958.000000;0.176918
2957.000000;0.177263
2956.000000;0.177260
2955.000000;0.177120
2954.000000;0.177040
2953.000000;0.177047
2952.000000;0.177030
2951.000000;0.176977
2950.000000;0.177092
2949.000000;0.177568
2948.000000;0.178300
2947.000000;0.178967
2946.000000;0.179426
2945.000000;0.179892
2944.000000;0.180594
2943.000000;0.181392
2942.000000;0.181897
2941.000000;0.181930
2940.000000;0.181707
2939.000000;0.181542
2938.000000;0.181576
2937.000000;0.181824
2936.000000;0.182296
2935.000000;0.182948
2934.000000;0.183614
2933.000000;0.184125
2932.000000;0.184457
2931.000000;0.184716
2930.000000;0.185053
2929.000000;0.185637
2928.000000;0.186588
2927.000000;0.187808
2926.000000;0.188974
2925.000000;0.189800
2924.000000;0.190258
2923.000000;0.190480
2922.000000;0.190563
2921.000000;0.190579
2920.000000;0.190670
2919.000000;0.190947
2918.000000;0.191326
2917.000000;0.191604
2916.000000;0.191719
2915.000000;0.191829
2914.000000;0.192175
2913.000000;0.192911
2912.000000;0.194035
2911.000000;0.195362
2910.000000;0.196584
2909.000000;0.197429
2908.000000;0.197819
2907.000000;0.197887
2906.000000;0.197905
2905.000000;0.198160
2904.000000;0.198728
2903.000000;0.199314
2902.000000;0.199484
2901.000000;0.199188
2900.000000;0.198920
2899.000000;0.199199
2898.000000;0.200031
2897.000000;0.201020
2896.000000;0.201878
2895.000000;0.202598
2894.000000;0.203223
2893.000000;0.203739
2892.000000;0.204181
2891.000000;0.204617
2890.000000;0.204963
2889.000000;0.205065
2888.000000;0.205029
2887.000000;0.205274
2886.000000;0.206103
2885.000000;0.207295
2884.000000;0.208288
2883.000000;0.208735
2882.000000;0.208826
2881.000000;0.209022
2880.000000;0.209544
2879.000000;0.210181
2878.000000;0.210626
2877.000000;0.210902
2876.000000;0.211273
2875.000000;0.211733
2874.000000;0.211917
2873.000000;0.211698
2872.000000;0.211562
2871.000000;0.212076
2870.000000;0.213123
2869.000000;0.214072
2868.000000;0.214642
2867.000000;0.215182
2866.000000;0.216000
2865.000000;0.216856
2864.000000;0.217350
2863.000000;0.217508
2862.000000;0.217696
2861.000000;0.218124
2860.000000;0.218734
2859.000000;0.219467
2858.000000;0.220355
2857.000000;0.221332
2856.000000;0.222177
2855.000000;0.222725
2854.000000;0.223047
2853.000000;0.223375
2852.000000;0.223867
2851.000000;0.224465
2850.000000;0.224950
2849.000000;0.225165
2848.000000;0.225193
2847.000000;0.225259
2846.000000;0.225457
2845.000000;0.225682
2844.000000;0.225874
2843.000000;0.226175
2842.000000;0.226739
2841.000000;0.227492
2840.000000;0.228208
2839.000000;0.228770
2838.000000;0.229203
2837.000000;0.229476
2836.000000;0.229459
2835.000000;0.229139
2834.000000;0.228782
2833.000000;0.228777
2832.000000;0.229309
2831.000000;0.230228
2830.000000;0.231228
2829.000000;0.232128
2828.000000;0.232967
2827.000000;0.233827
2826.000000;0.234633
2825.000000;0.235221
2824.000000;0.235585
2823.000000;0.235966
2822.000000;0.236629
2821.000000;0.237587
2820.000000;0.238611
2819.000000;0.239468
2818.000000;0.240102
2817.000000;0.240598
2816.000000;0.241060
2815.000000;0.241543
2814.000000;0.242036
2813.000000;0.242471
2812.000000;0.242804
2811.000000;0.243132
2810.000000;0.243688
2809.000000;0.244585
2808.000000;0.245536
2807.000000;0.246007
2806.000000;0.245778
2805.000000;0.245274
2804.000000;0.245159
2803.000000;0.245631
2802.000000;0.246312
2801.000000;0.246829
2800.000000;0.247268
2799.000000;0.247941
2798.000000;0.248917
2797.000000;0.249984
2796.000000;0.250952
2795.000000;0.251810
2794.000000;0.252648
2793.000000;0.253558
2792.000000;0.254538
2791.000000;0.255362
2790.000000;0.255665
2789.000000;0.255359
2788.000000;0.254851
2787.000000;0.254649
2786.000000;0.254857
2785.000000;0.255277
2784.000000;0.255816
2783.000000;0.256442
2782.000000;0.256863
2781.000000;0.256751
2780.000000;0.256353
2779.000000;0.256419
2778.000000;0.257339
2777.000000;0.258669
2776.000000;0.259731
2775.000000;0.260339
2774.000000;0.260679
2773.000000;0.260831
2772.000000;0.260824
2771.000000;0.260957
2770.000000;0.261608
2769.000000;0.262737
2768.000000;0.263899
2767.000000;0.264804
2766.000000;0.265576
2765.000000;0.266396
2764.000000;0.267151
2763.000000;0.267589
2762.000000;0.267695
2761.000000;0.267755
2760.000000;0.268069
2759.000000;0.268634
2758.000000;0.269170
2757.000000;0.269510
2756.000000;0.269897
2755.000000;0.270717
2754.000000;0.271882
2753.000000;0.272741
2752.000000;0.272802
2751.000000;0.272393
2750.000000;0.272344
2749.000000;0.273101
2748.000000;0.274395
2747.000000;0.275689
2746.000000;0.276658
2745.000000;0.277243
2744.000000;0.277508
2743.000000;0.277595
2742.000000;0.277675
2741.000000;0.277852
2740.000000;0.278179
2739.000000;0.278782
2738.000000;0.279765
2737.000000;0.280971
2736.000000;0.281994
2735.000000;0.282564
2734.000000;0.282827
2733.000000;0.283173
2732.000000;0.283817
2731.000000;0.284584
2730.000000;0.285056
2729.000000;0.284962
2728.000000;0.284503
2727.000000;0.284272
2726.000000;0.284739
2725.000000;0.285783
2724.000000;0.286808
2723.000000;0.287312
2722.000000;0.287290
2721.000000;0.287147
2720.000000;0.287338
2719.000000;0.288062
2718.000000;0.289111
2717.000000;0.290014
2716.000000;0.290518
2715.000000;0.290925
2714.000000;0.291759
2713.000000;0.293051
2712.000000;0.294195
2711.000000;0.294637
2710.000000;0.294508
2709.000000;0.294407
2708.000000;0.294720
2707.000000;0.295345
2706.000000;0.295969
2705.000000;0.296386
2704.000000;0.296573
2703.000000;0.296650
2702.000000;0.296832
2701.000000;0.297298
2700.000000;0.298058
2699.000000;0.298974
2698.000000;0.299892
2697.000000;0.300705
2696.000000;0.301359
2695.000000;0.301862
2694.000000;0.302285
2693.000000;0.302701
2692.000000;0.303152
2691.000000;0.303672
2690.000000;0.304270
2689.000000;0.304872
2688.000000;0.305347
2687.000000;0.305663
2686.000000;0.305931
2685.000000;0.306224
2684.000000;0.306428
2683.000000;0.306405
2682.000000;0.306220
2681.000000;0.306132
2680.000000;0.306382
2679.000000;0.307137
2678.000000;0.308515
2677.000000;0.310487
2676.000000;0.312683
2675.000000;0.314476
2674.000000;0.315372
2673.000000;0.315320
2672.000000;0.314677
2671.000000;0.313965
2670.000000;0.313627
2669.000000;0.313865
2668.000000;0.314576
2667.000000;0.315485
2666.000000;0.316368
2665.000000;0.317147
2664.000000;0.317831
2663.000000;0.318482
2662.000000;0.319223
2661.000000;0.320114
2660.000000;0.320994
2659.000000;0.321587
2658.000000;0.321840
2657.000000;0.322044
2656.000000;0.322512
2655.000000;0.323272
2654.000000;0.324150
2653.000000;0.324991
2652.000000;0.325660
2651.000000;0.325948
2650.000000;0.325792
2649.000000;0.325522
2648.000000;0.325646
2647.000000;0.326280
2646.000000;0.327009
2645.000000;0.327409
2644.000000;0.327586
2643.000000;0.328024
2642.000000;0.329005
2641.000000;0.330285
2640.000000;0.331313
2639.000000;0.331690
2638.000000;0.331483
2637.000000;0.331197
2636.000000;0.331373
2635.000000;0.332133
2634.000000;0.333119
2633.000000;0.333942
2632.000000;0.334572
2631.000000;0.335206
2630.000000;0.335883
2629.000000;0.336448
2628.000000;0.336844
2627.000000;0.337203
2626.000000;0.337624
2625.000000;0.338081
2624.000000;0.338601
2623.000000;0.339297
2622.000000;0.340141
2621.000000;0.340913
2620.000000;0.341509
2619.000000;0.342137
2618.000000;0.342980
2617.000000;0.343826
2616.000000;0.344240
2615.000000;0.344098
2614.000000;0.343751
2613.000000;0.343689
2612.000000;0.344157
2611.000000;0.345088
2610.000000;0.346218
2609.000000;0.347233
2608.000000;0.347956
2607.000000;0.348452
2606.000000;0.348890
2605.000000;0.349307
2604.000000;0.349625
2603.000000;0.349857
2602.000000;0.350148
2601.000000;0.350563
2600.000000;0.351016
2599.000000;0.351504
2598.000000;0.352212
2597.000000;0.353220
2596.000000;0.354223
2595.000000;0.354759
2594.000000;0.354741
2593.000000;0.354595
2592.000000;0.354809
2591.000000;0.355493
2590.000000;0.356418
2589.000000;0.357346
2588.000000;0.358150
2587.000000;0.358724
2586.000000;0.359009
2585.000000;0.359178
2584.000000;0.359589
2583.000000;0.360405
2582.000000;0.361336
2581.000000;0.361925
2580.000000;0.362067
2579.000000;0.362082
2578.000000;0.362305
2577.000000;0.362800
2576.000000;0.363480
2575.000000;0.364258
2574.000000;0.364970
2573.000000;0.365382
2572.000000;0.365499
2571.000000;0.365732
2570.000000;0.366480
2569.000000;0.367575
2568.000000;0.368391
2567.000000;0.368567
2566.000000;0.368439
2565.000000;0.368662
2564.000000;0.369530
2563.000000;0.370771
2562.000000;0.371915
2561.000000;0.372742
2560.000000;0.373381
2559.000000;0.374051
2558.000000;0.374766
2557.000000;0.375350
2556.000000;0.375692
2555.000000;0.375881
2554.000000;0.376026
2553.000000;0.376072
2552.000000;0.375950
2551.000000;0.375846
2550.000000;0.376122
2549.000000;0.376936
2548.000000;0.378064
2547.000000;0.379107
2546.000000;0.379791
2545.000000;0.380082
2544.000000;0.380174
2543.000000;0.380391
2542.000000;0.380938
2541.000000;0.381688
2540.000000;0.382322
2539.000000;0.382722
2538.000000;0.383118
2537.000000;0.383798
2536.000000;0.384807
2535.000000;0.385974
2534.000000;0.387070
2533.000000;0.387870
2532.000000;0.388228
2531.000000;0.388264
2530.000000;0.388386
2529.000000;0.388929
2528.000000;0.389788
2527.000000;0.390524
2526.000000;0.390871
2525.000000;0.391049
2524.000000;0.391540
2523.000000;0.392580
2522.000000;0.393868
2521.000000;0.394779
2520.000000;0.394916
2519.000000;0.394517
2518.000000;0.394283
2517.000000;0.394758
2516.000000;0.395850
2515.000000;0.396949
2514.000000;0.397487
2513.000000;0.397432
2512.000000;0.397302
2511.000000;0.397690
2510.000000;0.398711
2509.000000;0.399923
2508.000000;0.400810
2507.000000;0.401322
2506.000000;0.401825
2505.000000;0.402548
2504.000000;0.403281
2503.000000;0.403674
2502.000000;0.403673
2501.000000;0.403536
2500.000000;0.403500
2499.000000;0.403601
2498.000000;0.403782
2497.000000;0.404042
2496.000000;0.404437
2495.000000;0.404992
2494.000000;0.405659
2493.000000;0.406361
2492.000000;0.407067
2491.000000;0.407776
2490.000000;0.408443
2489.000000;0.409027
2488.000000;0.409682
2487.000000;0.410718
2486.000000;0.412181
2485.000000;0.413589
2484.000000;0.414387
2483.000000;0.414644
2482.000000;0.414970
2481.000000;0.415660
2480.000000;0.416312
2479.000000;0.416469
2478.000000;0.416317
2477.000000;0.416440
2476.000000;0.417065
2475.000000;0.417873
2474.000000;0.418434
2473.000000;0.418560
2472.000000;0.418308
2471.000000;0.417938
2470.000000;0.417902
2469.000000;0.418549
2468.000000;0.419741
2467.000000;0.420918
2466.000000;0.421624
2465.000000;0.421884
2464.000000;0.422049
2463.000000;0.422418
2462.000000;0.423053
2461.000000;0.423858
2460.000000;0.424717
2459.000000;0.425599
2458.000000;0.426530
2457.000000;0.427442
2456.000000;0.428130
2455.000000;0.428462
2454.000000;0.428604
2453.000000;0.428925
2452.000000;0.429652
2451.000000;0.430671
2450.000000;0.431611
2449.000000;0.432116
2448.000000;0.432113
2447.000000;0.431924
2446.000000;0.432019
2445.000000;0.432575
2444.000000;0.433323
2443.000000;0.433896
2442.000000;0.434202
2441.000000;0.434380
2440.000000;0.434569
2439.000000;0.434905
2438.000000;0.435557
2437.000000;0.436516
2436.000000;0.437447
2435.000000;0.438033
2434.000000;0.438383
2433.000000;0.438822
2432.000000;0.439344
2431.000000;0.439620
2430.000000;0.439572
2429.000000;0.439569
2428.000000;0.439940
2427.000000;0.440611
2426.000000;0.441352
2425.000000;0.442112
2424.000000;0.442900
2423.000000;0.443598
2422.000000;0.444146
2421.000000;0.444754
2420.000000;0.445649
2419.000000;0.446677
2418.000000;0.447379
2417.000000;0.447474
2416.000000;0.447154
2415.000000;0.446933
2414.000000;0.447298
2413.000000;0.448383
2412.000000;0.449806
2411.000000;0.450877
2410.000000;0.451186
2409.000000;0.451027
2408.000000;0.451130
2407.000000;0.451941
2406.000000;0.453248
2405.000000;0.454469
2404.000000;0.455195
2403.000000;0.455434
2402.000000;0.455478
2401.000000;0.455657
2400.000000;0.456194
2399.000000;0.457126
2398.000000;0.458262
2397.000000;0.459266
2396.000000;0.459872
2395.000000;0.460069
2394.000000;0.460062
2393.000000;0.460057
2392.000000;0.460150
2391.000000;0.460402
2390.000000;0.460827
2389.000000;0.461247
2388.000000;0.461353
2387.000000;0.461109
2386.000000;0.460997
2385.000000;0.461598
2384.000000;0.462939
2383.000000;0.464417
2382.000000;0.465399
2381.000000;0.465775
2380.000000;0.465898
2379.000000;0.466188
2378.000000;0.466825
2377.000000;0.467647
2376.000000;0.468286
2375.000000;0.468522
2374.000000;0.468557
2373.000000;0.468813
2372.000000;0.469472
2371.000000;0.470372
2370.000000;0.471286
2369.000000;0.472051
2368.000000;0.472434
2367.000000;0.472231
2366.000000;0.471683
2365.000000;0.471459
2364.000000;0.471998
2363.000000;0.473063
2362.000000;0.474180
2361.000000;0.475242
2360.000000;0.476414
2359.000000;0.477622
2358.000000;0.478437
2357.000000;0.478598
2356.000000;0.478334
2355.000000;0.478091
2354.000000;0.478186
2353.000000;0.478619
2352.000000;0.479196
2351.000000;0.479737
2350.000000;0.480271
2349.000000;0.480972
2348.000000;0.481790
2347.000000;0.482467
2346.000000;0.482846
2345.000000;0.483167
2344.000000;0.483832
2343.000000;0.484869
2342.000000;0.485916
2341.000000;0.486570
2340.000000;0.486828
2339.000000;0.486949
2338.000000;0.487133
2337.000000;0.487475
2336.000000;0.487948
2335.000000;0.488421
2334.000000;0.488722
2333.000000;0.488849
2332.000000;0.489026
2331.000000;0.489514
2330.000000;0.490370
2329.000000;0.491410
2328.000000;0.492308
2327.000000;0.492937
2326.000000;0.493441
2325.000000;0.494073
2324.000000;0.494849
2323.000000;0.495451
2322.000000;0.495644
2321.000000;0.495537
2320.000000;0.495516
2319.000000;0.495824
2318.000000;0.496455
2317.000000;0.497287
2316.000000;0.498119
2315.000000;0.498686
2314.000000;0.498788
2313.000000;0.498603
2312.000000;0.498634
2311.000000;0.499326
2310.000000;0.500656
2309.000000;0.502170
2308.000000;0.503330
2307.000000;0.503915
2306.000000;0.504144
2305.000000;0.504396
2304.000000;0.504754
2303.000000;0.504916
2302.000000;0.504674
2301.000000;0.504376
2300.000000;0.504654
2299.000000;0.505711
2298.000000;0.507109
2297.000000;0.508330
2296.000000;0.509284
2295.000000;0.510156
2294.000000;0.510959
2293.000000;0.511491
2292.000000;0.511656
2291.000000;0.511580
2290.000000;0.511419
2289.000000;0.511216
2288.000000;0.511027
2287.000000;0.511058
2286.000000;0.511564
2285.000000;0.512576
2284.000000;0.513779
2283.000000;0.514720
2282.000000;0.515186
2281.000000;0.515376
2280.000000;0.515676
2279.000000;0.516300
2278.000000;0.517185
2277.000000;0.518132
2276.000000;0.518954
2275.000000;0.519538
2274.000000;0.519932
2273.000000;0.520376
2272.000000;0.521145
2271.000000;0.522284
2270.000000;0.523560
2269.000000;0.524642
2268.000000;0.525227
2267.000000;0.525105
2266.000000;0.524350
2265.000000;0.523492
2264.000000;0.523267
2263.000000;0.523982
2262.000000;0.525231
2261.000000;0.526341
2260.000000;0.527002
2259.000000;0.527377
2258.000000;0.527718
2257.000000;0.528102
2256.000000;0.528540
2255.000000;0.529128
2254.000000;0.529987
2253.000000;0.531094
2252.000000;0.532201
2251.000000;0.532958
2250.000000;0.533155
2249.000000;0.532910
2248.000000;0.532597
2247.000000;0.532584
2246.000000;0.533060
2245.000000;0.534039
2244.000000;0.535347
2243.000000;0.536582
2242.000000;0.537299
2241.000000;0.537425
2240.000000;0.537390
2239.000000;0.537684
2238.000000;0.538336
2237.000000;0.538953
2236.000000;0.539232
2235.000000;0.539266
2234.000000;0.539371
2233.000000;0.539740
2232.000000;0.540323
2231.000000;0.540914
2230.000000;0.541342
2229.000000;0.541669
2228.000000;0.542197
2227.000000;0.543186
2226.000000;0.544551
2225.000000;0.545903
2224.000000;0.546899
2223.000000;0.547452
2222.000000;0.547668
2221.000000;0.547721
2220.000000;0.547819
2219.000000;0.548122
2218.000000;0.548585
2217.000000;0.549008
2216.000000;0.549349
2215.000000;0.549864
2214.000000;0.550775
2213.000000;0.551828
2212.000000;0.552397
2211.000000;0.552141
2210.000000;0.551439
2209.000000;0.551053
2208.000000;0.551420
2207.000000;0.552393
2206.000000;0.553615
2205.000000;0.554927
2204.000000;0.556264
2203.000000;0.557381
2202.000000;0.557947
2201.000000;0.557928
2200.000000;0.557633
2199.000000;0.557344
2198.000000;0.557126
2197.000000;0.557092
2196.000000;0.557563
2195.000000;0.558703
2194.000000;0.560133
2193.000000;0.561205
2192.000000;0.561675
2191.000000;0.561880
2190.000000;0.562255
2189.000000;0.562903
2188.000000;0.563654
2187.000000;0.564313
2186.000000;0.564725
2185.000000;0.564798
2184.000000;0.564608
2183.000000;0.564447
2182.000000;0.564662
2181.000000;0.565425
2180.000000;0.566622
2179.000000;0.567865
2178.000000;0.568660
2177.000000;0.568810
2176.000000;0.568698
2175.000000;0.568986
2174.000000;0.569906
2173.000000;0.570987
2172.000000;0.571587
2171.000000;0.571609
2170.000000;0.571523
2169.000000;0.571812
2168.000000;0.572580
2167.000000;0.573614
2166.000000;0.574642
2165.000000;0.575490
2164.000000;0.576130
2163.000000;0.576638
2162.000000;0.577089
2161.000000;0.577518
2160.000000;0.577992
2159.000000;0.578604
2158.000000;0.579315
2157.000000;0.579916
2156.000000;0.580274
2155.000000;0.580538
2154.000000;0.580928
2153.000000;0.581398
2152.000000;0.581726
2151.000000;0.581909
2150.000000;0.582227
2149.000000;0.582867
2148.000000;0.583647
2147.000000;0.584220
2146.000000;0.584436
2145.000000;0.584445
2144.000000;0.584543
2143.000000;0.584980
2142.000000;0.585807
2141.000000;0.586806
2140.000000;0.587621
2139.000000;0.588069
2138.000000;0.588295
2137.000000;0.588595
2136.000000;0.589131
2135.000000;0.589857
2134.000000;0.590622
2133.000000;0.591275
2132.000000;0.591741
2131.000000;0.592085
2130.000000;0.592500
2129.000000;0.593171
2128.000000;0.594129
2127.000000;0.595208
2126.000000;0.596083
2125.000000;0.596424
2124.000000;0.596188
2123.000000;0.595816
2122.000000;0.595948
2121.000000;0.596778
2120.000000;0.597779
2119.000000;0.598270
2118.000000;0.598197
2117.000000;0.598160
2116.000000;0.598719
2115.000000;0.599875
2114.000000;0.601242
2113.000000;0.602454
2112.000000;0.603283
2111.000000;0.603558
2110.000000;0.603264
2109.000000;0.602687
2108.000000;0.602278
2107.000000;0.602329
2106.000000;0.602855
2105.000000;0.603796
2104.000000;0.605151
2103.000000;0.606812
2102.000000;0.608374
2101.000000;0.609313
2100.000000;0.609437
2099.000000;0.609105
2098.000000;0.608930
2097.000000;0.609263
2096.000000;0.609972
2095.000000;0.610671
2094.000000;0.611118
2093.000000;0.611386
2092.000000;0.611694
2091.000000;0.612160
2090.000000;0.612743
2089.000000;0.613379
2088.000000;0.614074
2087.000000;0.614821
2086.000000;0.615480
2085.000000;0.615862
2084.000000;0.615935
2083.000000;0.615888
2082.000000;0.615918
2081.000000;0.616074
2080.000000;0.616397
2079.000000;0.617111
2078.000000;0.618430
2077.000000;0.620137
2076.000000;0.621551
2075.000000;0.622113
2074.000000;0.621937
2073.000000;0.621614
2072.000000;0.621566
2071.000000;0.621772
2070.000000;0.622093
2069.000000;0.622580
2068.000000;0.623343
2067.000000;0.624325
2066.000000;0.625354
2065.000000;0.626325
2064.000000;0.627206
2063.000000;0.627945
2062.000000;0.628541
2061.000000;0.629150
2060.000000;0.629930
2059.000000;0.630782
2058.000000;0.631400
2057.000000;0.631644
2056.000000;0.631713
2055.000000;0.631888
2054.000000;0.632206
2053.000000;0.632481
2052.000000;0.632589
2051.000000;0.632635
2050.000000;0.632845
2049.000000;0.633343
2048.000000;0.634035
2047.000000;0.634692
2046.000000;0.635183
2045.000000;0.635607
2044.000000;0.636160
2043.000000;0.636875
2042.000000;0.637562
2041.000000;0.638029
2040.000000;0.638271
2039.000000;0.638447
2038.000000;0.638738
2037.000000;0.639272
2036.000000;0.640051
2035.000000;0.640896
2034.000000;0.641577
2033.000000;0.642087
2032.000000;0.642651
2031.000000;0.643376
2030.000000;0.644047
2029.000000;0.644447
2028.000000;0.644754
2027.000000;0.645369
2026.000000;0.646352
2025.000000;0.647301
2024.000000;0.647845
2023.000000;0.648067
2022.000000;0.648322
2021.000000;0.648815
2020.000000;0.649476
2019.000000;0.650146
2018.000000;0.650709
2017.000000;0.651108
2016.000000;0.651349
2015.000000;0.651541
2014.000000;0.651846
2013.000000;0.652381
2012.000000;0.653139
2011.000000;0.653947
2010.000000;0.654531
2009.000000;0.654766
2008.000000;0.654911
2007.000000;0.655452
2006.000000;0.656603
2005.000000;0.658001
2004.000000;0.659020
2003.000000;0.659358
2002.000000;0.659222
2001.000000;0.659015
2000.000000;0.658959
1999.000000;0.659043
1998.000000;0.659228
1997.000000;0.659599
1996.000000;0.660300
1995.000000;0.661298
1994.000000;0.662270
1993.000000;0.662874
1992.000000;0.663129
1991.000000;0.663383
1990.000000;0.663832
1989.000000;0.664273
1988.000000;0.664473
1987.000000;0.664607
1986.000000;0.665103
1985.000000;0.666126
1984.000000;0.667458
1983.000000;0.668829
1982.000000;0.670138
1981.000000;0.671285
1980.000000;0.672071
1979.000000;0.672403
1978.000000;0.672509
1977.000000;0.672768
1976.000000;0.673341
1975.000000;0.673996
1974.000000;0.674258
1973.000000;0.673825
1972.000000;0.672946
1971.000000;0.672363
1970.000000;0.672684
1969.000000;0.673802
1968.000000;0.675067
1967.000000;0.676068
1966.000000;0.676986
1965.000000;0.678087
1964.000000;0.679145
1963.000000;0.679659
1962.000000;0.679513
1961.000000;0.679134
1960.000000;0.679047
1959.000000;0.679486
1958.000000;0.680408
1957.000000;0.681629
1956.000000;0.682874
1955.000000;0.683868
1954.000000;0.684488
1953.000000;0.684795
1952.000000;0.684911
1951.000000;0.684964
1950.000000;0.685136
1949.000000;0.685624
1948.000000;0.686460
1947.000000;0.687446
1946.000000;0.688318
1945.000000;0.688955
1944.000000;0.689435
1943.000000;0.689947
1942.000000;0.690647
1941.000000;0.691541
1940.000000;0.692485
1939.000000;0.693335
1938.000000;0.694046
1937.000000;0.694569
1936.000000;0.694774
1935.000000;0.694679
1934.000000;0.694653
1933.000000;0.695135
1932.000000;0.696106
1931.000000;0.697056
1930.000000;0.697563
1929.000000;0.697696
1928.000000;0.697772
1927.000000;0.697984
1926.000000;0.698423
1925.000000;0.699231
1924.000000;0.700449
1923.000000;0.701787
1922.000000;0.702807
1921.000000;0.703347
1920.000000;0.703616
1919.000000;0.703911
1918.000000;0.704352
1917.000000;0.704837
1916.000000;0.705127
1915.000000;0.705030
1914.000000;0.704694
1913.000000;0.704600
1912.000000;0.705082
1911.000000;0.705929
1910.000000;0.706705
1909.000000;0.707349
1908.000000;0.708142
1907.000000;0.709136
1906.000000;0.709984
1905.000000;0.710464
1904.000000;0.710831
1903.000000;0.711473
1902.000000;0.712423
1901.000000;0.713379
1900.000000;0.714032
1899.000000;0.714254
1898.000000;0.714167
1897.000000;0.714159
1896.000000;0.714583
1895.000000;0.715307
1894.000000;0.715809
1893.000000;0.715900
1892.000000;0.716075
1891.000000;0.716883
1890.000000;0.718192
1889.000000;0.719410
1888.000000;0.720236
1887.000000;0.720789
1886.000000;0.721193
1885.000000;0.721432
1884.000000;0.721481
1883.000000;0.721166
1882.000000;0.720138
1881.000000;0.718499
1880.000000;0.717323
1879.000000;0.717806
1878.000000;0.719817
1877.000000;0.721948
1876.000000;0.723256
1875.000000;0.724291
1874.000000;0.725924
1873.000000;0.727860
1872.000000;0.729065
1871.000000;0.729319
1870.000000;0.729490
1869.000000;0.730332
1868.000000;0.731718
1867.000000;0.733089
1866.000000;0.734055
1865.000000;0.734479
1864.000000;0.734439
1863.000000;0.734265
1862.000000;0.734276
1861.000000;0.734379
1860.000000;0.734216
1859.000000;0.733812
1858.000000;0.733742
1857.000000;0.734521
1856.000000;0.736071
1855.000000;0.737915
1854.000000;0.739592
1853.000000;0.740733
1852.000000;0.741052
1851.000000;0.740594
1850.000000;0.739863
1849.000000;0.739466
1848.000000;0.739657
1847.000000;0.740302
1846.000000;0.741079
1845.000000;0.741625
1844.000000;0.741734
1843.000000;0.741636
1842.000000;0.741883
1841.000000;0.742731
1840.000000;0.743892
1839.000000;0.745066
1838.000000;0.746466
1837.000000;0.748416
1836.000000;0.750510
1835.000000;0.751644
1834.000000;0.751150
1833.000000;0.749663
1832.000000;0.748494
1831.000000;0.748361
1830.000000;0.748933
1829.000000;0.749491
1828.000000;0.749815
1827.000000;0.750304
1826.000000;0.751392
1825.000000;0.752922
1824.000000;0.754138
1823.000000;0.754471
1822.000000;0.754249
1821.000000;0.754383
1820.000000;0.755328
1819.000000;0.756568
1818.000000;0.757310
1817.000000;0.757517
1816.000000;0.757909
1815.000000;0.758943
1814.000000;0.760163
1813.000000;0.760737
1812.000000;0.760494
1811.000000;0.760133
1810.000000;0.760426
1809.000000;0.761399
1808.000000;0.762373
1807.000000;0.762732
1806.000000;0.762501
1805.000000;0.762226
1804.000000;0.762468
1803.000000;0.763444
1802.000000;0.764935
1801.000000;0.766404
1800.000000;0.767318
1799.000000;0.767526
1798.000000;0.767334
1797.000000;0.767164
1796.000000;0.767168
1795.000000;0.767248
1794.000000;0.767377
1793.000000;0.767738
1792.000000;0.768499
1791.000000;0.769572
1790.000000;0.770684
1789.000000;0.771587
1788.000000;0.772212
1787.000000;0.772631
1786.000000;0.772955
1785.000000;0.773347
1784.000000;0.773976
1783.000000;0.774853
1782.000000;0.775789
1781.000000;0.776587
1780.000000;0.777276
1779.000000;0.778041
1778.000000;0.778979
1777.000000;0.780036
1776.000000;0.781147
1775.000000;0.782303
1774.000000;0.783406
1773.000000;0.784211
1772.000000;0.784517
1771.000000;0.784413
1770.000000;0.784190
1769.000000;0.784034
1768.000000;0.784044
1767.000000;0.784309
1766.000000;0.784833
1765.000000;0.785490
1764.000000;0.786149
1763.000000;0.786802
1762.000000;0.787489
1761.000000;0.788098
1760.000000;0.788392
1759.000000;0.788299
1758.000000;0.788150
1757.000000;0.788440
1756.000000;0.789327
1755.000000;0.790499
1754.000000;0.791502
1753.000000;0.792163
1752.000000;0.792687
1751.000000;0.793393
1750.000000;0.794406
1749.000000;0.795503
1748.000000;0.796252
1747.000000;0.796440
1746.000000;0.796370
1745.000000;0.796566
1744.000000;0.797210
1743.000000;0.798014
1742.000000;0.798696
1741.000000;0.799340
1740.000000;0.800137
1739.000000;0.800988
1738.000000;0.801615
1737.000000;0.801977
1736.000000;0.802364
1735.000000;0.803003
1734.000000;0.803772
1733.000000;0.804486
1732.000000;0.805187
1731.000000;0.805860
1730.000000;0.806406
1729.000000;0.806762
1728.000000;0.806952
1727.000000;0.807142
1726.000000;0.807547
1725.000000;0.808280
1724.000000;0.809223
1723.000000;0.810075
1722.000000;0.810645
1721.000000;0.811095
1720.000000;0.811786
1719.000000;0.812805
1718.000000;0.813746
1717.000000;0.814161
1716.000000;0.814131
1715.000000;0.814120
1714.000000;0.814515
1713.000000;0.815423
1712.000000;0.816594
1711.000000;0.817610
1710.000000;0.818201
1709.000000;0.818426
1708.000000;0.818552
1707.000000;0.818755
1706.000000;0.818979
1705.000000;0.819146
1704.000000;0.819363
1703.000000;0.819769
1702.000000;0.820347
1701.000000;0.821013
1700.000000;0.821688
1699.000000;0.822354
1698.000000;0.822975
1697.000000;0.823476
1696.000000;0.824068
1695.000000;0.825083
1694.000000;0.826426
1693.000000;0.827517
1692.000000;0.828045
1691.000000;0.828291
1690.000000;0.828547
1689.000000;0.828709
1688.000000;0.828561
1687.000000;0.828247
1686.000000;0.828196
1685.000000;0.828572
1684.000000;0.829003
1683.000000;0.829197
1682.000000;0.829310
1681.000000;0.829533
1680.000000;0.830243
1679.000000;0.831658
1678.000000;0.833430
1677.000000;0.834990
1676.000000;0.836038
1675.000000;0.836673
1674.000000;0.837160
1673.000000;0.837649
1672.000000;0.838151
1671.000000;0.838727
1670.000000;0.839488
1669.000000;0.840454
1668.000000;0.841534
1667.000000;0.842494
1666.000000;0.843069
1665.000000;0.843181
1664.000000;0.842971
1663.000000;0.842726
1662.000000;0.842752
1661.000000;0.843123
1660.000000;0.843555
1659.000000;0.843748
1658.000000;0.843808
1657.000000;0.844144
1656.000000;0.845026
1655.000000;0.846282
1654.000000;0.847405
1653.000000;0.847960
1652.000000;0.848268
1651.000000;0.848868
1650.000000;0.849514
1649.000000;0.850082
1648.000000;0.850447
1647.000000;0.850410
1646.000000;0.850313
1645.000000;0.850879
1644.000000;0.852210
1643.000000;0.853645
1642.000000;0.854528
1641.000000;0.854802
1640.000000;0.854969
1639.000000;0.855419
1638.000000;0.855949
1637.000000;0.856109
1636.000000;0.855891
1635.000000;0.855927
1634.000000;0.856884
1633.000000;0.858601
1632.000000;0.860375
1631.000000;0.861706
1630.000000;0.862464
1629.000000;0.862836
1628.000000;0.863197
1627.000000;0.863845
1626.000000;0.864764
1625.000000;0.865610
1624.000000;0.865996
1623.000000;0.865805
1622.000000;0.865334
1621.000000;0.865125
1620.000000;0.865541
1619.000000;0.866504
1618.000000;0.867536
1617.000000;0.868179
1616.000000;0.868475
1615.000000;0.868888
1614.000000;0.869669
1613.000000;0.870691
1612.000000;0.871745
1611.000000;0.872633
1610.000000;0.873203
1609.000000;0.873451
1608.000000;0.873564
1607.000000;0.873768
1606.000000;0.874164
1605.000000;0.874772
1604.000000;0.875589
1603.000000;0.876449
1602.000000;0.876978
1601.000000;0.876975
1600.000000;0.876760
1599.000000;0.876883
1598.000000;0.877475
1597.000000;0.878150
1596.000000;0.878590
1595.000000;0.878953
1594.000000;0.879579
1593.000000;0.880531
1592.000000;0.881620
1591.000000;0.882708
1590.000000;0.883759
1589.000000;0.884678
1588.000000;0.885282
1587.000000;0.885453
1586.000000;0.885238
1585.000000;0.884849
1584.000000;0.884600
1583.000000;0.884753
1582.000000;0.885303
1581.000000;0.886018
1580.000000;0.886714
1579.000000;0.887457
1578.000000;0.888414
1577.000000;0.889587
1576.000000;0.890797
1575.000000;0.891932
1574.000000;0.892947
1573.000000;0.893749
1572.000000;0.894322
1571.000000;0.894586
1570.000000;0.894374
1569.000000;0.893880
1568.000000;0.893833
1567.000000;0.894736
1566.000000;0.896216
1565.000000;0.897439
1564.000000;0.897990
1563.000000;0.898192
1562.000000;0.898518
1561.000000;0.899038
1560.000000;0.899565
1559.000000;0.899966
1558.000000;0.900458
1557.000000;0.901411
1556.000000;0.901973
1555.000000;0.901907
1554.000000;0.902042
1553.000000;0.902855
1552.000000;0.904043
1551.000000;0.905051
1550.000000;0.905667
1549.000000;0.906052
1548.000000;0.906447
1547.000000;0.906952
1546.000000;0.907486
1545.000000;0.907890
1544.000000;0.908153
1543.000000;0.908518
1542.000000;0.909120
1541.000000;0.909624
1540.000000;0.909590
1539.000000;0.909268
1538.000000;0.909302
1537.000000;0.909703
1536.000000;0.910235
1535.000000;0.910840
1534.000000;0.911536
1533.000000;0.912320
1532.000000;0.913165
1531.000000;0.913987
1530.000000;0.914729
1529.000000;0.915451
1528.000000;0.916152
1527.000000;0.916765
1526.000000;0.917336
1525.000000;0.918036
1524.000000;0.919013
1523.000000;0.920254
1522.000000;0.921528
1521.000000;0.922488
1520.000000;0.922971
1519.000000;0.923054
1518.000000;0.923014
1517.000000;0.923156
1516.000000;0.923530
1515.000000;0.924031
1514.000000;0.924591
1513.000000;0.925256
1512.000000;0.926088
1511.000000;0.927018
1510.000000;0.927933
1509.000000;0.928763
1508.000000;0.929454
1507.000000;0.930018
1506.000000;0.930724
1505.000000;0.931790
1504.000000;0.932520
1503.000000;0.932451
1502.000000;0.932042
1501.000000;0.931935
1500.000000;0.932364
1499.000000;0.933097
1498.000000;0.933769
1497.000000;0.934223
1496.000000;0.934572
1495.000000;0.935046
1494.000000;0.935813
1493.000000;0.936886
1492.000000;0.938041
1491.000000;0.938870
1490.000000;0.939102
1489.000000;0.938929
1488.000000;0.938843
1487.000000;0.939154
1486.000000;0.939843
1485.000000;0.940700
1484.000000;0.941466
1483.000000;0.941968
1482.000000;0.942253
1481.000000;0.942616
1480.000000;0.943333
1479.000000;0.944317
1478.000000;0.945144
1477.000000;0.945516
1476.000000;0.945608
1475.000000;0.945867
1474.000000;0.946484
1473.000000;0.947211
1472.000000;0.947759
1471.000000;0.948147
1470.000000;0.948550
1469.000000;0.949130
1468.000000;0.950011
1467.000000;0.951139
1466.000000;0.952252
1465.000000;0.953066
1464.000000;0.953496
1463.000000;0.953649
1462.000000;0.953650
1461.000000;0.953650
1460.000000;0.953869
1459.000000;0.954430
1458.000000;0.955186
1457.000000;0.955861
1456.000000;0.956415
1455.000000;0.956904
1454.000000;0.957259
1453.000000;0.957592
1452.000000;0.958130
1451.000000;0.959078
1450.000000;0.960472
1449.000000;0.962028
1448.000000;0.963287
1447.000000;0.964012
1446.000000;0.964339
1445.000000;0.964498
1444.000000;0.964585
1443.000000;0.964636
1442.000000;0.964811
1441.000000;0.965352
1440.000000;0.966338
1439.000000;0.967543
1438.000000;0.968570
1437.000000;0.969173
1436.000000;0.969469
1435.000000;0.969846
1434.000000;0.970527
1433.000000;0.971352
1432.000000;0.971961
1431.000000;0.972181
1430.000000;0.972263
1429.000000;0.972651
1428.000000;0.973472
1427.000000;0.974395
1426.000000;0.975086
1425.000000;0.975651
1424.000000;0.976441
1423.000000;0.977525
1422.000000;0.978578
1421.000000;0.979322
1420.000000;0.979835
1419.000000;0.980269
1418.000000;0.980545
1417.000000;0.980506
1416.000000;0.980170
1415.000000;0.979795
1414.000000;0.979612
1413.000000;0.979682
1412.000000;0.980084
1411.000000;0.980947
1410.000000;0.982204
1409.000000;0.983509
1408.000000;0.984534
1407.000000;0.985244
1406.000000;0.985824
1405.000000;0.986430
1404.000000;0.987091
1403.000000;0.987713
1402.000000;0.988169
1401.000000;0.988484
1400.000000;0.988881
1399.000000;0.989527
1398.000000;0.990315
1397.000000;0.991013
1396.000000;0.991595
1395.000000;0.992238
1394.000000;0.992998
1393.000000;0.993735
1392.000000;0.994396
1391.000000;0.995095
1390.000000;0.995754
1389.000000;0.995977
1388.000000;0.995568
1387.000000;0.994931
1386.000000;0.994695
1385.000000;0.995083
1384.000000;0.995894
1383.000000;0.996935
1382.000000;0.998112
1381.000000;0.999204
1380.000000;0.999901
1379.000000;1.000153
1378.000000;1.000272
1377.000000;1.000599
1376.000000;1.001168
1375.000000;1.001722
1374.000000;1.002022
1373.000000;1.002116
1372.000000;1.002307
1371.000000;1.002839
1370.000000;1.003633
1369.000000;1.004333
1368.000000;1.004731
1367.000000;1.005068
1366.000000;1.005777
1365.000000;1.006960
1364.000000;1.008259
1363.000000;1.009246
1362.000000;1.009873
1361.000000;1.010437
1360.000000;1.011133
1359.000000;1.011800
1358.000000;1.012185
1357.000000;1.012336
1356.000000;1.012581
1355.000000;1.013068
1354.000000;1.013544
1353.000000;1.013770
1352.000000;1.013907
1351.000000;1.014208
1350.000000;1.014546
1349.000000;1.014660
1348.000000;1.014798
1347.000000;1.015554
1346.000000;1.017006
1345.000000;1.018482
1344.000000;1.019413
1343.000000;1.019970
1342.000000;1.020593
1341.000000;1.021299
1340.000000;1.021841
1339.000000;1.022216
1338.000000;1.022566
1337.000000;1.022840
1336.000000;1.023007
1335.000000;1.023447
1334.000000;1.024627
1333.000000;1.026407
1332.000000;1.028079
1331.000000;1.029096
1330.000000;1.029506
1329.000000;1.029691
1328.000000;1.029957
1327.000000;1.030395
1326.000000;1.030981
1325.000000;1.031796
1324.000000;1.033134
1323.000000;1.035119
1322.000000;1.037071
1321.000000;1.037703
1320.000000;1.036430
1319.000000;1.034287
1318.000000;1.032988
1317.000000;1.033187
1316.000000;1.034092
1315.000000;1.034733
1314.000000;1.035059
1313.000000;1.035560
1312.000000;1.036312
1311.000000;1.036833
1310.000000;1.036747
1309.000000;1.036240
1308.000000;1.035867
1307.000000;1.036029
1306.000000;1.036683
1305.000000;1.037534
1304.000000;1.038485
1303.000000;1.039779
1302.000000;1.041565
1301.000000;1.043453
1300.000000;1.044764
1299.000000;1.045238
1298.000000;1.045258
1297.000000;1.045349
1296.000000;1.045690
1295.000000;1.046202
1294.000000;1.046824
1293.000000;1.047506
1292.000000;1.048089
1291.000000;1.048371
1290.000000;1.048318
1289.000000;1.048118
1288.000000;1.048005
1287.000000;1.048022
1286.000000;1.048002
1285.000000;1.047867
1284.000000;1.047919
1283.000000;1.048615
1282.000000;1.049998
1281.000000;1.051554
1280.000000;1.052809
1279.000000;1.053817
1278.000000;1.054833
1277.000000;1.055762
1276.000000;1.056320
1275.000000;1.056564
1274.000000;1.056856
1273.000000;1.057341
1272.000000;1.057857
1271.000000;1.058333
1270.000000;1.058849
1269.000000;1.059285
1268.000000;1.059377
1267.000000;1.059262
1266.000000;1.059553
1265.000000;1.060630
1264.000000;1.062141
1263.000000;1.063424
1262.000000;1.064185
1261.000000;1.064542
1260.000000;1.064656
1259.000000;1.064588
1258.000000;1.064414
1257.000000;1.064245
1256.000000;1.064202
1255.000000;1.064465
1254.000000;1.065199
1253.000000;1.066295
1252.000000;1.067313
1251.000000;1.067884
1250.000000;1.068104
1249.000000;1.068399
1248.000000;1.069066
1247.000000;1.070052
1246.000000;1.071113
1245.000000;1.072056
1244.000000;1.072844
1243.000000;1.073522
1242.000000;1.074050
1241.000000;1.074247
1240.000000;1.073998
1239.000000;1.073499
1238.000000;1.073142
1237.000000;1.073149
1236.000000;1.073452
1235.000000;1.073936
1234.000000;1.074612
1233.000000;1.075486
1232.000000;1.076451
1231.000000;1.077450
1230.000000;1.078571
1229.000000;1.079846
1228.000000;1.081052
1227.000000;1.081875
1226.000000;1.082216
1225.000000;1.082262
1224.000000;1.082318
1223.000000;1.082661
1222.000000;1.083421
1221.000000;1.084488
1220.000000;1.085542
1219.000000;1.086271
1218.000000;1.086547
1217.000000;1.086435
1216.000000;1.086128
1215.000000;1.085904
1214.000000;1.086008
1213.000000;1.086475
1212.000000;1.087135
1211.000000;1.087844
1210.000000;1.088633
1209.000000;1.089624
1208.000000;1.090873
1207.000000;1.092283
1206.000000;1.093558
1205.000000;1.094284
1204.000000;1.094235
1203.000000;1.093700
1202.000000;1.093307
1201.000000;1.093464
1200.000000;1.094046
