Criado como novo conjunto de dados;"0307_DANIEL.spp","7202.1 Secs"
cm-1;Abs
10000.000000;0.279190
9999.000000;0.277979
9998.000000;0.276771
9997.000000;0.275566
9996.000000;0.274365
9995.000000;0.273168
9994.000000;0.271973
9993.000000;0.270782
9992.000000;0.269594
9991.000000;0.268447
9990.000000;0.267421
9989.000000;0.266510
9988.000000;0.265652
9987.000000;0.264787
9986.000000;0.263853
9985.000000;0.262775
9984.000000;0.261554
9983.000000;0.260320
9982.000000;0.259236
9981.000000;0.258325
9980.000000;0.257442
9979.000000;0.256429
9978.000000;0.255255
9977.000000;0.254003
9976.000000;0.252761
9975.000000;0.251544
9974.000000;0.250307
9973.000000;0.249014
9972.000000;0.247712
9971.000000;0.246512
9970.000000;0.245472
9969.000000;0.244522
9968.000000;0.243534
9967.000000;0.242472
9966.000000;0.241405
9965.000000;0.240387
9964.000000;0.239369
9963.000000;0.238241
9962.000000;0.236940
9961.000000;0.235512
9960.000000;0.234087
9959.000000;0.232803
9958.000000;0.231718
9957.000000;0.230782
9956.000000;0.229902
9955.000000;0.229032
9954.000000;0.228167
9953.000000;0.227266
9952.000000;0.226221
9951.000000;0.224951
9950.000000;0.223509
9949.000000;0.222073
9948.000000;0.220798
9947.000000;0.219671
9946.000000;0.218551
9945.000000;0.217359
9944.000000;0.216187
9943.000000;0.215160
9942.000000;0.214212
9941.000000;0.213121
9940.000000;0.211782
9939.000000;0.210348
9938.000000;0.209027
9937.000000;0.207841
9936.000000;0.206665
9935.000000;0.205442
9934.000000;0.204211
9933.000000;0.202978
9932.000000;0.201702
9931.000000;0.200427
9930.000000;0.199293
9929.000000;0.198345
9928.000000;0.197438
9927.000000;0.196393
9926.000000;0.195183
9925.000000;0.193896
9924.000000;0.192593
9923.000000;0.191272
9922.000000;0.189927
9921.000000;0.188570
9920.000000;0.187216
9919.000000;0.185896
9918.000000;0.184678
9917.000000;0.183608
9916.000000;0.182650
9915.000000;0.181705
9914.000000;0.180695
9913.000000;0.179580
9912.000000;0.178337
9911.000000;0.176985
9910.000000;0.175619
9909.000000;0.174352
9908.000000;0.173184
9907.000000;0.171989
9906.000000;0.170678
9905.000000;0.169321
9904.000000;0.168075
9903.000000;0.166978
9902.000000;0.165903
9901.000000;0.164705
9900.000000;0.163374
9899.000000;0.162002
9898.000000;0.160646
9897.000000;0.159270
9896.000000;0.157836
9895.000000;0.156382
9894.000000;0.154998
9893.000000;0.153728
9892.000000;0.152525
9891.000000;0.151308
9890.000000;0.150045
9889.000000;0.148776
9888.000000;0.147553
9887.000000;0.146365
9886.000000;0.145139
9885.000000;0.143813
9884.000000;0.142405
9883.000000;0.140994
9882.000000;0.139655
9881.000000;0.138411
9880.000000;0.137218
9879.000000;0.135979
9878.000000;0.134614
9877.000000;0.133145
9876.000000;0.131702
9875.000000;0.130394
9874.000000;0.129192
9873.000000;0.128001
9872.000000;0.126797
9871.000000;0.125618
9870.000000;0.124442
9869.000000;0.123173
9868.000000;0.121795
9867.000000;0.120417
9866.000000;0.119127
9865.000000;0.117880
9864.000000;0.116600
9863.000000;0.115298
9862.000000;0.114021
9861.000000;0.112740
9860.000000;0.111371
9859.000000;0.109889
9858.000000;0.108361
9857.000000;0.106882
9856.000000;0.105508
9855.000000;0.104231
9854.000000;0.102959
9853.000000;0.101592
9852.000000;0.100156
9851.000000;0.098799
9850.000000;0.097595
9849.000000;0.096428
9848.000000;0.095144
9847.000000;0.093757
9846.000000;0.092386
9845.000000;0.091046
9844.000000;0.089638
9843.000000;0.088119
9842.000000;0.086569
9841.000000;0.085066
9840.000000;0.083624
9839.000000;0.082257
9838.000000;0.080980
9837.000000;0.079713
9836.000000;0.078288
9835.000000;0.076642
9834.000000;0.074916
9833.000000;0.073321
9832.000000;0.071952
9831.000000;0.070765
9830.000000;0.069652
9829.000000;0.068490
9828.000000;0.067168
9827.000000;0.065672
9826.000000;0.064118
9825.000000;0.062648
9824.000000;0.061279
9823.000000;0.059893
9822.000000;0.058357
9821.000000;0.056663
9820.000000;0.054944
9819.000000;0.053362
9818.000000;0.051958
9817.000000;0.050624
9816.000000;0.049235
9815.000000;0.047779
9814.000000;0.046307
9813.000000;0.044812
9812.000000;0.043239
9811.000000;0.041608
9810.000000;0.040037
9809.000000;0.038613
9808.000000;0.037295
9807.000000;0.035972
9806.000000;0.034565
9805.000000;0.033045
9804.000000;0.031434
9803.000000;0.029821
9802.000000;0.028314
9801.000000;0.026942
9800.000000;0.025636
9799.000000;0.024333
9798.000000;0.023033
9797.000000;0.021729
9796.000000;0.020359
9795.000000;0.018888
9794.000000;0.017363
9793.000000;0.015836
9792.000000;0.014265
9791.000000;0.012580
9790.000000;0.010800
9789.000000;0.009017
9788.000000;0.007288
9787.000000;0.005593
9786.000000;0.003918
9785.000000;0.002303
9784.000000;0.000803
9783.000000;-0.000575
9782.000000;-0.001885
9781.000000;-0.003221
9780.000000;-0.004668
9779.000000;-0.006250
9778.000000;-0.007923
9777.000000;-0.009631
9776.000000;-0.011348
9775.000000;-0.013045
9774.000000;-0.014666
9773.000000;-0.016178
9772.000000;-0.017632
9771.000000;-0.019132
9770.000000;-0.020738
9769.000000;-0.022442
9768.000000;-0.024214
9767.000000;-0.026015
9766.000000;-0.027776
9765.000000;-0.029408
9764.000000;-0.030879
9763.000000;-0.032267
9762.000000;-0.033709
9761.000000;-0.035290
9760.000000;-0.036991
9759.000000;-0.038747
9758.000000;-0.040530
9757.000000;-0.042347
9756.000000;-0.044166
9755.000000;-0.045876
9754.000000;-0.047400
9753.000000;-0.048800
9752.000000;-0.050243
9751.000000;-0.051838
9750.000000;-0.053564
9749.000000;-0.055338
9748.000000;-0.057104
9747.000000;-0.058835
9746.000000;-0.060514
9745.000000;-0.062158
9744.000000;-0.063811
9743.000000;-0.065482
9742.000000;-0.067125
9741.000000;-0.068722
9740.000000;-0.070332
9739.000000;-0.072026
9738.000000;-0.073790
9737.000000;-0.075551
9736.000000;-0.077270
9735.000000;-0.078968
9734.000000;-0.080672
9733.000000;-0.082395
9732.000000;-0.084136
9731.000000;-0.085880
9730.000000;-0.087596
9729.000000;-0.089267
9728.000000;-0.090919
9727.000000;-0.092580
9726.000000;-0.094250
9725.000000;-0.095931
9724.000000;-0.097669
9723.000000;-0.099506
9722.000000;-0.101406
9721.000000;-0.103288
9720.000000;-0.105128
9719.000000;-0.106974
9718.000000;-0.108857
9717.000000;-0.110728
9716.000000;-0.112518
9715.000000;-0.114219
9714.000000;-0.115891
9713.000000;-0.117607
9712.000000;-0.119402
9711.000000;-0.121243
9710.000000;-0.123059
9709.000000;-0.124822
9708.000000;-0.126587
9707.000000;-0.128423
9706.000000;-0.130306
9705.000000;-0.132135
9704.000000;-0.133859
9703.000000;-0.135547
9702.000000;-0.137313
9701.000000;-0.139207
9700.000000;-0.141187
9699.000000;-0.143177
9698.000000;-0.145117
9697.000000;-0.147000
9696.000000;-0.148864
9695.000000;-0.150749
9694.000000;-0.152632
9693.000000;-0.154449
9692.000000;-0.156199
9691.000000;-0.157988
9690.000000;-0.159914
9689.000000;-0.161934
9688.000000;-0.163897
9687.000000;-0.165719
9686.000000;-0.167482
9685.000000;-0.169326
9684.000000;-0.171261
9683.000000;-0.173153
9682.000000;-0.174898
9681.000000;-0.176573
9680.000000;-0.178370
9679.000000;-0.180374
9678.000000;-0.182465
9677.000000;-0.184477
9676.000000;-0.186394
9675.000000;-0.188343
9674.000000;-0.190403
9673.000000;-0.192514
9672.000000;-0.194578
9671.000000;-0.196587
9670.000000;-0.198590
9669.000000;-0.200589
9668.000000;-0.202549
9667.000000;-0.204483
9666.000000;-0.206461
9665.000000;-0.208502
9664.000000;-0.210543
9663.000000;-0.212521
9662.000000;-0.214459
9661.000000;-0.216421
9660.000000;-0.218429
9659.000000;-0.220448
9658.000000;-0.222440
9657.000000;-0.224411
9656.000000;-0.226399
9655.000000;-0.228445
9654.000000;-0.230551
9653.000000;-0.232653
9652.000000;-0.234648
9651.000000;-0.236488
9650.000000;-0.238250
9649.000000;-0.240087
9648.000000;-0.242106
9647.000000;-0.244295
9646.000000;-0.246566
9645.000000;-0.248829
9644.000000;-0.251022
9643.000000;-0.253130
9642.000000;-0.255197
9641.000000;-0.257292
9640.000000;-0.259439
9639.000000;-0.261582
9638.000000;-0.263667
9637.000000;-0.265718
9636.000000;-0.267799
9635.000000;-0.269919
9634.000000;-0.272045
9633.000000;-0.274178
9632.000000;-0.276366
9631.000000;-0.278598
9630.000000;-0.280760
9629.000000;-0.282760
9628.000000;-0.284651
9627.000000;-0.286585
9626.000000;-0.288668
9625.000000;-0.290888
9624.000000;-0.293165
9623.000000;-0.295408
9622.000000;-0.297537
9621.000000;-0.299537
9620.000000;-0.301504
9619.000000;-0.303600
9618.000000;-0.305897
9617.000000;-0.308316
9616.000000;-0.310705
9615.000000;-0.312975
9614.000000;-0.315121
9613.000000;-0.317191
9612.000000;-0.319276
9611.000000;-0.321484
9610.000000;-0.323854
9609.000000;-0.326285
9608.000000;-0.328607
9607.000000;-0.330742
9606.000000;-0.332763
9605.000000;-0.334800
9604.000000;-0.336922
9603.000000;-0.339125
9602.000000;-0.341389
9601.000000;-0.343693
9600.000000;-0.346001
9599.000000;-0.348266
9598.000000;-0.350464
9597.000000;-0.352617
9596.000000;-0.354771
9595.000000;-0.356969
9594.000000;-0.359220
9593.000000;-0.361493
9592.000000;-0.363734
9591.000000;-0.365907
9590.000000;-0.368025
9589.000000;-0.370121
9588.000000;-0.372219
9587.000000;-0.374325
9586.000000;-0.376473
9585.000000;-0.378717
9584.000000;-0.381074
9583.000000;-0.383474
9582.000000;-0.385821
9581.000000;-0.388103
9580.000000;-0.390400
9579.000000;-0.392761
9578.000000;-0.395126
9577.000000;-0.397396
9576.000000;-0.399578
9575.000000;-0.401782
9574.000000;-0.404092
9573.000000;-0.406483
9572.000000;-0.408887
9571.000000;-0.411249
9570.000000;-0.413512
9569.000000;-0.415623
9568.000000;-0.417615
9567.000000;-0.419639
9566.000000;-0.421820
9565.000000;-0.424114
9564.000000;-0.426364
9563.000000;-0.428496
9562.000000;-0.430584
9561.000000;-0.432713
9560.000000;-0.434884
9559.000000;-0.437056
9558.000000;-0.439233
9557.000000;-0.441442
9556.000000;-0.443677
9555.000000;-0.445918
9554.000000;-0.448157
9553.000000;-0.450391
9552.000000;-0.452602
9551.000000;-0.454787
9550.000000;-0.456981
9549.000000;-0.459221
9548.000000;-0.461487
9547.000000;-0.463710
9546.000000;-0.465827
9545.000000;-0.467826
9544.000000;-0.469767
9543.000000;-0.471759
9542.000000;-0.473885
9541.000000;-0.476127
9540.000000;-0.478393
9539.000000;-0.480633
9538.000000;-0.482875
9537.000000;-0.485137
9536.000000;-0.487367
9535.000000;-0.489493
9534.000000;-0.491502
9533.000000;-0.493412
9532.000000;-0.495250
9531.000000;-0.497076
9530.000000;-0.498997
9529.000000;-0.501050
9528.000000;-0.503123
9527.000000;-0.505078
9526.000000;-0.506935
9525.000000;-0.508848
9524.000000;-0.510902
9523.000000;-0.513030
9522.000000;-0.515128
9521.000000;-0.517160
9520.000000;-0.519131
9519.000000;-0.521047
9518.000000;-0.522943
9517.000000;-0.524853
9516.000000;-0.526719
9515.000000;-0.528397
9514.000000;-0.529840
9513.000000;-0.531215
9512.000000;-0.532746
9511.000000;-0.534489
9510.000000;-0.536346
9509.000000;-0.538247
9508.000000;-0.540203
9507.000000;-0.542168
9506.000000;-0.543999
9505.000000;-0.545606
9504.000000;-0.547080
9503.000000;-0.548584
9502.000000;-0.550161
9501.000000;-0.551741
9500.000000;-0.553302
9499.000000;-0.554948
9498.000000;-0.556751
9497.000000;-0.558584
9496.000000;-0.560209
9495.000000;-0.561545
9494.000000;-0.562783
9493.000000;-0.564171
9492.000000;-0.565737
9491.000000;-0.567282
9490.000000;-0.568634
9489.000000;-0.569805
9488.000000;-0.570887
9487.000000;-0.571903
9486.000000;-0.572845
9485.000000;-0.573809
9484.000000;-0.574950
9483.000000;-0.576301
9482.000000;-0.577703
9481.000000;-0.578944
9480.000000;-0.579935
9479.000000;-0.580729
9478.000000;-0.581428
9477.000000;-0.582122
9476.000000;-0.582880
9475.000000;-0.583762
9474.000000;-0.584804
9473.000000;-0.585994
9472.000000;-0.587222
9471.000000;-0.588319
9470.000000;-0.589181
9469.000000;-0.589895
9468.000000;-0.590675
9467.000000;-0.591633
9466.000000;-0.592630
9465.000000;-0.593395
9464.000000;-0.593795
9463.000000;-0.593964
9462.000000;-0.594184
9461.000000;-0.594642
9460.000000;-0.595302
9459.000000;-0.595975
9458.000000;-0.596511
9457.000000;-0.596926
9456.000000;-0.597353
9455.000000;-0.597876
9454.000000;-0.598424
9453.000000;-0.598839
9452.000000;-0.599031
9451.000000;-0.599076
9450.000000;-0.599154
9449.000000;-0.599381
9448.000000;-0.599699
9447.000000;-0.599927
9446.000000;-0.599935
9445.000000;-0.599761
9444.000000;-0.599558
9443.000000;-0.599462
9442.000000;-0.599527
9441.000000;-0.599734
9440.000000;-0.599976
9439.000000;-0.600075
9438.000000;-0.599903
9437.000000;-0.599516
9436.000000;-0.599118
9435.000000;-0.598838
9434.000000;-0.598630
9433.000000;-0.598393
9432.000000;-0.598118
9431.000000;-0.597862
9430.000000;-0.597629
9429.000000;-0.597353
9428.000000;-0.596980
9427.000000;-0.596495
9426.000000;-0.595907
9425.000000;-0.595259
9424.000000;-0.594624
9423.000000;-0.594042
9422.000000;-0.593474
9421.000000;-0.592869
9420.000000;-0.592256
9419.000000;-0.591693
9418.000000;-0.591161
9417.000000;-0.590589
9416.000000;-0.589969
9415.000000;-0.589380
9414.000000;-0.588880
9413.000000;-0.588428
9412.000000;-0.587961
9411.000000;-0.587446
9410.000000;-0.586851
9409.000000;-0.586128
9408.000000;-0.585278
9407.000000;-0.584391
9406.000000;-0.583544
9405.000000;-0.582707
9404.000000;-0.581796
9403.000000;-0.580814
9402.000000;-0.579855
9401.000000;-0.578976
9400.000000;-0.578118
9399.000000;-0.577195
9398.000000;-0.576203
9397.000000;-0.575219
9396.000000;-0.574291
9395.000000;-0.573379
9394.000000;-0.572404
9393.000000;-0.571355
9392.000000;-0.570298
9391.000000;-0.569310
9390.000000;-0.568393
9389.000000;-0.567473
9388.000000;-0.566466
9387.000000;-0.565330
9386.000000;-0.564073
9385.000000;-0.562747
9384.000000;-0.561446
9383.000000;-0.560266
9382.000000;-0.559231
9381.000000;-0.558261
9380.000000;-0.557241
9379.000000;-0.556123
9378.000000;-0.554945
9377.000000;-0.553759
9376.000000;-0.552581
9375.000000;-0.551407
9374.000000;-0.550252
9373.000000;-0.549131
9372.000000;-0.548017
9371.000000;-0.546846
9370.000000;-0.545570
9369.000000;-0.544209
9368.000000;-0.542840
9367.000000;-0.541537
9366.000000;-0.540327
9365.000000;-0.539185
9364.000000;-0.538063
9363.000000;-0.536924
9362.000000;-0.535750
9361.000000;-0.534528
9360.000000;-0.533276
9359.000000;-0.532051
9358.000000;-0.530905
9357.000000;-0.529814
9356.000000;-0.528677
9355.000000;-0.527414
9354.000000;-0.526060
9353.000000;-0.524724
9352.000000;-0.523467
9351.000000;-0.522263
9350.000000;-0.521067
9349.000000;-0.519883
9348.000000;-0.518721
9347.000000;-0.517534
9346.000000;-0.516227
9345.000000;-0.514757
9344.000000;-0.513202
9343.000000;-0.511709
9342.000000;-0.510364
9341.000000;-0.509120
9340.000000;-0.507869
9339.000000;-0.506582
9338.000000;-0.505337
9337.000000;-0.504204
9336.000000;-0.503135
9335.000000;-0.502025
9334.000000;-0.500816
9333.000000;-0.499524
9332.000000;-0.498174
9331.000000;-0.496805
9330.000000;-0.495520
9329.000000;-0.494436
9328.000000;-0.493521
9327.000000;-0.492566
9326.000000;-0.491366
9325.000000;-0.489914
9324.000000;-0.488372
9323.000000;-0.486914
9322.000000;-0.485621
9321.000000;-0.484481
9320.000000;-0.483416
9319.000000;-0.482309
9318.000000;-0.481075
9317.000000;-0.479718
9316.000000;-0.478308
9315.000000;-0.476909
9314.000000;-0.475556
9313.000000;-0.474275
9312.000000;-0.473083
9311.000000;-0.471963
9310.000000;-0.470873
9309.000000;-0.469774
9308.000000;-0.468628
9307.000000;-0.467402
9306.000000;-0.466094
9305.000000;-0.464748
9304.000000;-0.463425
9303.000000;-0.462165
9302.000000;-0.460989
9301.000000;-0.459910
9300.000000;-0.458897
9299.000000;-0.457873
9298.000000;-0.456775
9297.000000;-0.455596
9296.000000;-0.454348
9295.000000;-0.453036
9294.000000;-0.451701
9293.000000;-0.450443
9292.000000;-0.449333
9291.000000;-0.448322
9290.000000;-0.447291
9289.000000;-0.446188
9288.000000;-0.445054
9287.000000;-0.443943
9286.000000;-0.442869
9285.000000;-0.441823
9284.000000;-0.440769
9283.000000;-0.439637
9282.000000;-0.438381
9281.000000;-0.437062
9280.000000;-0.435809
9279.000000;-0.434683
9278.000000;-0.433647
9277.000000;-0.432651
9276.000000;-0.431677
9275.000000;-0.430687
9274.000000;-0.429603
9273.000000;-0.428406
9272.000000;-0.427191
9271.000000;-0.426074
9270.000000;-0.425078
9269.000000;-0.424127
9268.000000;-0.423142
9267.000000;-0.422094
9266.000000;-0.420986
9265.000000;-0.419848
9264.000000;-0.418731
9263.000000;-0.417674
9262.000000;-0.416672
9261.000000;-0.415679
9260.000000;-0.414657
9259.000000;-0.413622
9258.000000;-0.412622
9257.000000;-0.411678
9256.000000;-0.410733
9255.000000;-0.409685
9254.000000;-0.408511
9253.000000;-0.407311
9252.000000;-0.406209
9251.000000;-0.405223
9250.000000;-0.404269
9249.000000;-0.403303
9248.000000;-0.402376
9247.000000;-0.401530
9246.000000;-0.400709
9245.000000;-0.399818
9244.000000;-0.398839
9243.000000;-0.397834
9242.000000;-0.396854
9241.000000;-0.395891
9240.000000;-0.394925
9239.000000;-0.393965
9238.000000;-0.393039
9237.000000;-0.392147
9236.000000;-0.391255
9235.000000;-0.390343
9234.000000;-0.389428
9233.000000;-0.388543
9232.000000;-0.387670
9231.000000;-0.386746
9230.000000;-0.385736
9229.000000;-0.384689
9228.000000;-0.383695
9227.000000;-0.382797
9226.000000;-0.381972
9225.000000;-0.381161
9224.000000;-0.380308
9223.000000;-0.379370
9222.000000;-0.378363
9221.000000;-0.377376
9220.000000;-0.376515
9219.000000;-0.375802
9218.000000;-0.375149
9217.000000;-0.374443
9216.000000;-0.373624
9215.000000;-0.372696
9214.000000;-0.371711
9213.000000;-0.370746
9212.000000;-0.369868
9211.000000;-0.369079
9210.000000;-0.368327
9209.000000;-0.367568
9208.000000;-0.366787
9207.000000;-0.365973
9206.000000;-0.365109
9205.000000;-0.364207
9204.000000;-0.363322
9203.000000;-0.362495
9202.000000;-0.361712
9201.000000;-0.360929
9200.000000;-0.360110
9199.000000;-0.359239
9198.000000;-0.358322
9197.000000;-0.357415
9196.000000;-0.356604
9195.000000;-0.355927
9194.000000;-0.355314
9193.000000;-0.354648
9192.000000;-0.353868
9191.000000;-0.353005
9190.000000;-0.352150
9189.000000;-0.351392
9188.000000;-0.350767
9187.000000;-0.350229
9186.000000;-0.349675
9185.000000;-0.349031
9184.000000;-0.348314
9183.000000;-0.347590
9182.000000;-0.346889
9181.000000;-0.346180
9180.000000;-0.345427
9179.000000;-0.344630
9178.000000;-0.343825
9177.000000;-0.343062
9176.000000;-0.342370
9175.000000;-0.341717
9174.000000;-0.341022
9173.000000;-0.340240
9172.000000;-0.339422
9171.000000;-0.338662
9170.000000;-0.337980
9169.000000;-0.337301
9168.000000;-0.336572
9167.000000;-0.335842
9166.000000;-0.335193
9165.000000;-0.334626
9164.000000;-0.334062
9163.000000;-0.333452
9162.000000;-0.332830
9161.000000;-0.332257
9160.000000;-0.331746
9159.000000;-0.331262
9158.000000;-0.330751
9157.000000;-0.330158
9156.000000;-0.329436
9155.000000;-0.328601
9154.000000;-0.327757
9153.000000;-0.327026
9152.000000;-0.326435
9151.000000;-0.325900
9150.000000;-0.325331
9149.000000;-0.324712
9148.000000;-0.324093
9147.000000;-0.323509
9146.000000;-0.322936
9145.000000;-0.322316
9144.000000;-0.321619
9143.000000;-0.320877
9142.000000;-0.320169
9141.000000;-0.319555
9140.000000;-0.319027
9139.000000;-0.318524
9138.000000;-0.318006
9137.000000;-0.317484
9136.000000;-0.316974
9135.000000;-0.316466
9134.000000;-0.315935
9133.000000;-0.315378
9132.000000;-0.314812
9131.000000;-0.314254
9130.000000;-0.313702
9129.000000;-0.313133
9128.000000;-0.312530
9127.000000;-0.311907
9126.000000;-0.311318
9125.000000;-0.310801
9124.000000;-0.310319
9123.000000;-0.309795
9122.000000;-0.309212
9121.000000;-0.308648
9120.000000;-0.308186
9119.000000;-0.307830
9118.000000;-0.307510
9117.000000;-0.307151
9116.000000;-0.306702
9115.000000;-0.306145
9114.000000;-0.305512
9113.000000;-0.304882
9112.000000;-0.304312
9111.000000;-0.303792
9110.000000;-0.303291
9109.000000;-0.302809
9108.000000;-0.302353
9107.000000;-0.301870
9106.000000;-0.301275
9105.000000;-0.300565
9104.000000;-0.299857
9103.000000;-0.299299
9102.000000;-0.298939
9101.000000;-0.298698
9100.000000;-0.298443
9099.000000;-0.298083
9098.000000;-0.297621
9097.000000;-0.297126
9096.000000;-0.296657
9095.000000;-0.296213
9094.000000;-0.295767
9093.000000;-0.295319
9092.000000;-0.294882
9091.000000;-0.294439
9090.000000;-0.293959
9089.000000;-0.293452
9088.000000;-0.292975
9087.000000;-0.292568
9086.000000;-0.292210
9085.000000;-0.291843
9084.000000;-0.291423
9083.000000;-0.290951
9082.000000;-0.290471
9081.000000;-0.290045
9080.000000;-0.289699
9079.000000;-0.289381
9078.000000;-0.289003
9077.000000;-0.288518
9076.000000;-0.287968
9075.000000;-0.287450
9074.000000;-0.287044
9073.000000;-0.286764
9072.000000;-0.286550
9071.000000;-0.286309
9070.000000;-0.285986
9069.000000;-0.285594
9068.000000;-0.285184
9067.000000;-0.284796
9066.000000;-0.284454
9065.000000;-0.284170
9064.000000;-0.283910
9063.000000;-0.283580
9062.000000;-0.283088
9061.000000;-0.282460
9060.000000;-0.281848
9059.000000;-0.281390
9058.000000;-0.281087
9057.000000;-0.280824
9056.000000;-0.280489
9055.000000;-0.280071
9054.000000;-0.279640
9053.000000;-0.279268
9052.000000;-0.278986
9051.000000;-0.278780
9050.000000;-0.278619
9049.000000;-0.278466
9048.000000;-0.278285
9047.000000;-0.278051
9046.000000;-0.277757
9045.000000;-0.277401
9044.000000;-0.276964
9043.000000;-0.276435
9042.000000;-0.275865
9041.000000;-0.275362
9040.000000;-0.274995
9039.000000;-0.274728
9038.000000;-0.274476
9037.000000;-0.274218
9036.000000;-0.274003
9035.000000;-0.273854
9034.000000;-0.273718
9033.000000;-0.273524
9032.000000;-0.273266
9031.000000;-0.272982
9030.000000;-0.272692
9029.000000;-0.272377
9028.000000;-0.272025
9027.000000;-0.271671
9026.000000;-0.271370
9025.000000;-0.271132
9024.000000;-0.270912
9023.000000;-0.270658
9022.000000;-0.270381
9021.000000;-0.270135
9020.000000;-0.269923
9019.000000;-0.269676
9018.000000;-0.269338
9017.000000;-0.268957
9016.000000;-0.268639
9015.000000;-0.268421
9014.000000;-0.268240
9013.000000;-0.268018
9012.000000;-0.267748
9011.000000;-0.267465
9010.000000;-0.267189
9009.000000;-0.266920
9008.000000;-0.266666
9007.000000;-0.266440
9006.000000;-0.266228
9005.000000;-0.266001
9004.000000;-0.265747
9003.000000;-0.265484
9002.000000;-0.265242
9001.000000;-0.265037
9000.000000;-0.264855
8999.000000;-0.264654
8998.000000;-0.264381
8997.000000;-0.264039
8996.000000;-0.263720
8995.000000;-0.263542
8994.000000;-0.263517
8993.000000;-0.263510
8992.000000;-0.263353
8991.000000;-0.263025
8990.000000;-0.262679
8989.000000;-0.262476
8988.000000;-0.262409
8987.000000;-0.262328
8986.000000;-0.262118
8985.000000;-0.261818
8984.000000;-0.261542
8983.000000;-0.261343
8982.000000;-0.261176
8981.000000;-0.260986
8980.000000;-0.260793
8979.000000;-0.260662
8978.000000;-0.260624
8977.000000;-0.260617
8976.000000;-0.260538
8975.000000;-0.260331
8974.000000;-0.260047
8973.000000;-0.259785
8972.000000;-0.259595
8971.000000;-0.259431
8970.000000;-0.259223
8969.000000;-0.258955
8968.000000;-0.258672
8967.000000;-0.258430
8966.000000;-0.258259
8965.000000;-0.258171
8964.000000;-0.258150
8963.000000;-0.258138
8962.000000;-0.258062
8961.000000;-0.257893
8960.000000;-0.257676
8959.000000;-0.257474
8958.000000;-0.257295
8957.000000;-0.257094
8956.000000;-0.256849
8955.000000;-0.256604
8954.000000;-0.256429
8953.000000;-0.256335
8952.000000;-0.256265
8951.000000;-0.256162
8950.000000;-0.256041
8949.000000;-0.255960
8948.000000;-0.255951
8947.000000;-0.255972
8946.000000;-0.255939
8945.000000;-0.255778
8944.000000;-0.255485
8943.000000;-0.255140
8942.000000;-0.254876
8941.000000;-0.254778
8940.000000;-0.254813
8939.000000;-0.254860
8938.000000;-0.254820
8937.000000;-0.254680
8936.000000;-0.254472
8935.000000;-0.254226
8934.000000;-0.253971
8933.000000;-0.253748
8932.000000;-0.253588
8931.000000;-0.253479
8930.000000;-0.253385
8929.000000;-0.253298
8928.000000;-0.253232
8927.000000;-0.253192
8926.000000;-0.253138
8925.000000;-0.253034
8924.000000;-0.252901
8923.000000;-0.252829
8922.000000;-0.252878
8921.000000;-0.252992
8920.000000;-0.253017
8919.000000;-0.252858
8918.000000;-0.252588
8917.000000;-0.252367
8916.000000;-0.252256
8915.000000;-0.252165
8914.000000;-0.251986
8913.000000;-0.251740
8912.000000;-0.251539
8911.000000;-0.251444
8910.000000;-0.251402
8909.000000;-0.251324
8908.000000;-0.251188
8907.000000;-0.251058
8906.000000;-0.251026
8905.000000;-0.251139
8904.000000;-0.251351
8903.000000;-0.251536
8902.000000;-0.251550
8901.000000;-0.251331
8900.000000;-0.250965
8899.000000;-0.250649
8898.000000;-0.250555
8897.000000;-0.250687
8896.000000;-0.250888
8895.000000;-0.250983
8894.000000;-0.250926
8893.000000;-0.250794
8892.000000;-0.250674
8891.000000;-0.250588
8890.000000;-0.250512
8889.000000;-0.250394
8888.000000;-0.250167
8887.000000;-0.249795
8886.000000;-0.249349
8885.000000;-0.249003
8884.000000;-0.248913
8883.000000;-0.249082
8882.000000;-0.249361
8881.000000;-0.249556
8880.000000;-0.249570
8879.000000;-0.249472
8878.000000;-0.249430
8877.000000;-0.249560
8876.000000;-0.249814
8875.000000;-0.250038
8874.000000;-0.250119
8873.000000;-0.250057
8872.000000;-0.249915
8871.000000;-0.249753
8870.000000;-0.249601
8869.000000;-0.249463
8868.000000;-0.249317
8867.000000;-0.249165
8866.000000;-0.249080
8865.000000;-0.249136
8864.000000;-0.249293
8863.000000;-0.249409
8862.000000;-0.249396
8861.000000;-0.249303
8860.000000;-0.249213
8859.000000;-0.249143
8858.000000;-0.249085
8857.000000;-0.249076
8856.000000;-0.249130
8855.000000;-0.249151
8854.000000;-0.248997
8853.000000;-0.248652
8852.000000;-0.248277
8851.000000;-0.248063
8850.000000;-0.248092
8849.000000;-0.248309
8848.000000;-0.248579
8847.000000;-0.248769
8846.000000;-0.248811
8845.000000;-0.248738
8844.000000;-0.248645
8843.000000;-0.248605
8842.000000;-0.248636
8841.000000;-0.248714
8840.000000;-0.248792
8839.000000;-0.248825
8838.000000;-0.248792
8837.000000;-0.248714
8836.000000;-0.248614
8835.000000;-0.248483
8834.000000;-0.248292
8833.000000;-0.248045
8832.000000;-0.247785
8831.000000;-0.247571
8830.000000;-0.247440
8829.000000;-0.247392
8828.000000;-0.247389
8827.000000;-0.247382
8826.000000;-0.247368
8825.000000;-0.247385
8824.000000;-0.247446
8823.000000;-0.247495
8822.000000;-0.247460
8821.000000;-0.247325
8820.000000;-0.247131
8819.000000;-0.246926
8818.000000;-0.246741
8817.000000;-0.246590
8816.000000;-0.246441
8815.000000;-0.246214
8814.000000;-0.245852
8813.000000;-0.245429
8812.000000;-0.245128
8811.000000;-0.245096
8810.000000;-0.245324
8809.000000;-0.245666
8808.000000;-0.245966
8807.000000;-0.246149
8806.000000;-0.246205
8805.000000;-0.246131
8804.000000;-0.245919
8803.000000;-0.245624
8802.000000;-0.245399
8801.000000;-0.245398
8800.000000;-0.245607
8799.000000;-0.245833
8798.000000;-0.245896
8797.000000;-0.245802
8796.000000;-0.245688
8795.000000;-0.245628
8794.000000;-0.245564
8793.000000;-0.245423
8792.000000;-0.245228
8791.000000;-0.245072
8790.000000;-0.245005
8789.000000;-0.244995
8788.000000;-0.244980
8787.000000;-0.244918
8786.000000;-0.244798
8785.000000;-0.244624
8784.000000;-0.244429
8783.000000;-0.244282
8782.000000;-0.244254
8781.000000;-0.244331
8780.000000;-0.244395
8779.000000;-0.244343
8778.000000;-0.244208
8777.000000;-0.244119
8776.000000;-0.244120
8775.000000;-0.244103
8774.000000;-0.243956
8773.000000;-0.243716
8772.000000;-0.243530
8771.000000;-0.243477
8770.000000;-0.243504
8769.000000;-0.243503
8768.000000;-0.243397
8767.000000;-0.243177
8766.000000;-0.242906
8765.000000;-0.242689
8764.000000;-0.242593
8763.000000;-0.242582
8762.000000;-0.242573
8761.000000;-0.242532
8760.000000;-0.242493
8759.000000;-0.242459
8758.000000;-0.242381
8757.000000;-0.242237
8756.000000;-0.242085
8755.000000;-0.241999
8754.000000;-0.241975
8753.000000;-0.241943
8752.000000;-0.241860
8751.000000;-0.241756
8750.000000;-0.241691
8749.000000;-0.241698
8748.000000;-0.241757
8747.000000;-0.241816
8746.000000;-0.241827
8745.000000;-0.241779
8744.000000;-0.241699
8743.000000;-0.241610
8742.000000;-0.241496
8741.000000;-0.241311
8740.000000;-0.241050
8739.000000;-0.240789
8738.000000;-0.240618
8737.000000;-0.240548
8736.000000;-0.240495
8735.000000;-0.240387
8734.000000;-0.240244
8733.000000;-0.240138
8732.000000;-0.240094
8731.000000;-0.240083
8730.000000;-0.240084
8729.000000;-0.240093
8728.000000;-0.240085
8727.000000;-0.240019
8726.000000;-0.239909
8725.000000;-0.239832
8724.000000;-0.239818
8723.000000;-0.239801
8722.000000;-0.239688
8721.000000;-0.239477
8720.000000;-0.239259
8719.000000;-0.239129
8718.000000;-0.239121
8717.000000;-0.239188
8716.000000;-0.239242
8715.000000;-0.239229
8714.000000;-0.239187
8713.000000;-0.239193
8712.000000;-0.239256
8711.000000;-0.239302
8710.000000;-0.239286
8709.000000;-0.239266
8708.000000;-0.239334
8707.000000;-0.239500
8706.000000;-0.239688
8705.000000;-0.239803
8704.000000;-0.239791
8703.000000;-0.239665
8702.000000;-0.239501
8701.000000;-0.239388
8700.000000;-0.239322
8699.000000;-0.239222
8698.000000;-0.239059
8697.000000;-0.238933
8696.000000;-0.238964
8695.000000;-0.239135
8694.000000;-0.239315
8693.000000;-0.239416
8692.000000;-0.239460
8691.000000;-0.239500
8690.000000;-0.239554
8689.000000;-0.239613
8688.000000;-0.239664
8687.000000;-0.239692
8686.000000;-0.239699
8685.000000;-0.239719
8684.000000;-0.239789
8683.000000;-0.239889
8682.000000;-0.239962
8681.000000;-0.239987
8680.000000;-0.239989
8679.000000;-0.239991
8678.000000;-0.239993
8677.000000;-0.240005
8676.000000;-0.240073
8675.000000;-0.240229
8674.000000;-0.240464
8673.000000;-0.240746
8672.000000;-0.241038
8671.000000;-0.241282
8670.000000;-0.241410
8669.000000;-0.241404
8668.000000;-0.241327
8667.000000;-0.241277
8666.000000;-0.241307
8665.000000;-0.241400
8664.000000;-0.241525
8663.000000;-0.241685
8662.000000;-0.241900
8661.000000;-0.242150
8660.000000;-0.242359
8659.000000;-0.242486
8658.000000;-0.242589
8657.000000;-0.242762
8656.000000;-0.243010
8655.000000;-0.243234
8654.000000;-0.243358
8653.000000;-0.243433
8652.000000;-0.243571
8651.000000;-0.243812
8650.000000;-0.244100
8649.000000;-0.244358
8648.000000;-0.244539
8647.000000;-0.244648
8646.000000;-0.244733
8645.000000;-0.244862
8644.000000;-0.245057
8643.000000;-0.245267
8642.000000;-0.245449
8641.000000;-0.245625
8640.000000;-0.245835
8639.000000;-0.246058
8638.000000;-0.246239
8637.000000;-0.246372
8636.000000;-0.246512
8635.000000;-0.246691
8634.000000;-0.246882
8633.000000;-0.247051
8632.000000;-0.247204
8631.000000;-0.247352
8630.000000;-0.247493
8629.000000;-0.247642
8628.000000;-0.247839
8627.000000;-0.248106
8626.000000;-0.248398
8625.000000;-0.248636
8624.000000;-0.248791
8623.000000;-0.248914
8622.000000;-0.249084
8621.000000;-0.249321
8620.000000;-0.249563
8619.000000;-0.249737
8618.000000;-0.249856
8617.000000;-0.250007
8616.000000;-0.250264
8615.000000;-0.250621
8614.000000;-0.251018
8613.000000;-0.251387
8612.000000;-0.251662
8611.000000;-0.251814
8610.000000;-0.251889
8609.000000;-0.251991
8608.000000;-0.252188
8607.000000;-0.252442
8606.000000;-0.252676
8605.000000;-0.252878
8604.000000;-0.253098
8603.000000;-0.253371
8602.000000;-0.253692
8601.000000;-0.254040
8600.000000;-0.254392
8599.000000;-0.254713
8598.000000;-0.254976
8597.000000;-0.255185
8596.000000;-0.255353
8595.000000;-0.255474
8594.000000;-0.255565
8593.000000;-0.255706
8592.000000;-0.255981
8591.000000;-0.256370
8590.000000;-0.256750
8589.000000;-0.257018
8588.000000;-0.257174
8587.000000;-0.257298
8586.000000;-0.257466
8585.000000;-0.257710
8584.000000;-0.258016
8583.000000;-0.258343
8582.000000;-0.258674
8581.000000;-0.259029
8580.000000;-0.259425
8579.000000;-0.259816
8578.000000;-0.260120
8577.000000;-0.260301
8576.000000;-0.260421
8575.000000;-0.260575
8574.000000;-0.260806
8573.000000;-0.261088
8572.000000;-0.261373
8571.000000;-0.261633
8570.000000;-0.261872
8569.000000;-0.262108
8568.000000;-0.262356
8567.000000;-0.262628
8566.000000;-0.262926
8565.000000;-0.263234
8564.000000;-0.263518
8563.000000;-0.263754
8562.000000;-0.263950
8561.000000;-0.264145
8560.000000;-0.264368
8559.000000;-0.264630
8558.000000;-0.264929
8557.000000;-0.265249
8556.000000;-0.265552
8555.000000;-0.265804
8554.000000;-0.266020
8553.000000;-0.266242
8552.000000;-0.266480
8551.000000;-0.266714
8550.000000;-0.266949
8549.000000;-0.267217
8548.000000;-0.267536
8547.000000;-0.267882
8546.000000;-0.268236
8545.000000;-0.268597
8544.000000;-0.268936
8543.000000;-0.269198
8542.000000;-0.269381
8541.000000;-0.269549
8540.000000;-0.269755
8539.000000;-0.269988
8538.000000;-0.270232
8537.000000;-0.270521
8536.000000;-0.270879
8535.000000;-0.271263
8534.000000;-0.271612
8533.000000;-0.271924
8532.000000;-0.272227
8531.000000;-0.272515
8530.000000;-0.272763
8529.000000;-0.272996
8528.000000;-0.273254
8527.000000;-0.273529
8526.000000;-0.273774
8525.000000;-0.273975
8524.000000;-0.274153
8523.000000;-0.274334
8522.000000;-0.274535
8521.000000;-0.274786
8520.000000;-0.275095
8519.000000;-0.275423
8518.000000;-0.275722
8517.000000;-0.275993
8516.000000;-0.276262
8515.000000;-0.276516
8514.000000;-0.276731
8513.000000;-0.276935
8512.000000;-0.277186
8511.000000;-0.277485
8510.000000;-0.277767
8509.000000;-0.277974
8508.000000;-0.278108
8507.000000;-0.278215
8506.000000;-0.278360
8505.000000;-0.278592
8504.000000;-0.278909
8503.000000;-0.279250
8502.000000;-0.279560
8501.000000;-0.279846
8500.000000;-0.280138
8499.000000;-0.280429
8498.000000;-0.280697
8497.000000;-0.280967
8496.000000;-0.281279
8495.000000;-0.281610
8494.000000;-0.281892
8493.000000;-0.282109
8492.000000;-0.282305
8491.000000;-0.282510
8490.000000;-0.282707
8489.000000;-0.282887
8488.000000;-0.283080
8487.000000;-0.283307
8486.000000;-0.283559
8485.000000;-0.283826
8484.000000;-0.284110
8483.000000;-0.284405
8482.000000;-0.284689
8481.000000;-0.284949
8480.000000;-0.285188
8479.000000;-0.285406
8478.000000;-0.285615
8477.000000;-0.285859
8476.000000;-0.286166
8475.000000;-0.286493
8474.000000;-0.286774
8473.000000;-0.287010
8472.000000;-0.287245
8471.000000;-0.287471
8470.000000;-0.287621
8469.000000;-0.287699
8468.000000;-0.287815
8467.000000;-0.288063
8466.000000;-0.288417
8465.000000;-0.288783
8464.000000;-0.289114
8463.000000;-0.289419
8462.000000;-0.289698
8461.000000;-0.289932
8460.000000;-0.290115
8459.000000;-0.290271
8458.000000;-0.290421
8457.000000;-0.290572
8456.000000;-0.290738
8455.000000;-0.290933
8454.000000;-0.291156
8453.000000;-0.291382
8452.000000;-0.291585
8451.000000;-0.291766
8450.000000;-0.291968
8449.000000;-0.292255
8448.000000;-0.292645
8447.000000;-0.293071
8446.000000;-0.293432
8445.000000;-0.293686
8444.000000;-0.293871
8443.000000;-0.294048
8442.000000;-0.294249
8441.000000;-0.294475
8440.000000;-0.294708
8439.000000;-0.294924
8438.000000;-0.295103
8437.000000;-0.295250
8436.000000;-0.295395
8435.000000;-0.295562
8434.000000;-0.295754
8433.000000;-0.295950
8432.000000;-0.296121
8431.000000;-0.296251
8430.000000;-0.296368
8429.000000;-0.296533
8428.000000;-0.296781
8427.000000;-0.297080
8426.000000;-0.297373
8425.000000;-0.297645
8424.000000;-0.297909
8423.000000;-0.298153
8422.000000;-0.298349
8421.000000;-0.298499
8420.000000;-0.298641
8419.000000;-0.298795
8418.000000;-0.298959
8417.000000;-0.299136
8416.000000;-0.299334
8415.000000;-0.299547
8414.000000;-0.299768
8413.000000;-0.300010
8412.000000;-0.300284
8411.000000;-0.300548
8410.000000;-0.300741
8409.000000;-0.300866
8408.000000;-0.300998
8407.000000;-0.301186
8406.000000;-0.301401
8405.000000;-0.301593
8404.000000;-0.301763
8403.000000;-0.301944
8402.000000;-0.302151
8401.000000;-0.302383
8400.000000;-0.302642
8399.000000;-0.302919
8398.000000;-0.303174
8397.000000;-0.303355
8396.000000;-0.303446
8395.000000;-0.303488
8394.000000;-0.303562
8393.000000;-0.303739
8392.000000;-0.304021
8391.000000;-0.304325
8390.000000;-0.304545
8389.000000;-0.304659
8388.000000;-0.304747
8387.000000;-0.304911
8386.000000;-0.305185
8385.000000;-0.305528
8384.000000;-0.305874
8383.000000;-0.306161
8382.000000;-0.306355
8381.000000;-0.306456
8380.000000;-0.306516
8379.000000;-0.306611
8378.000000;-0.306795
8377.000000;-0.307066
8376.000000;-0.307365
8375.000000;-0.307628
8374.000000;-0.307830
8373.000000;-0.308001
8372.000000;-0.308183
8371.000000;-0.308377
8370.000000;-0.308558
8369.000000;-0.308712
8368.000000;-0.308860
8367.000000;-0.309031
8366.000000;-0.309220
8365.000000;-0.309396
8364.000000;-0.309537
8363.000000;-0.309672
8362.000000;-0.309863
8361.000000;-0.310131
8360.000000;-0.310415
8359.000000;-0.310628
8358.000000;-0.310763
8357.000000;-0.310887
8356.000000;-0.311050
8355.000000;-0.311220
8354.000000;-0.311351
8353.000000;-0.311462
8352.000000;-0.311613
8351.000000;-0.311831
8350.000000;-0.312093
8349.000000;-0.312364
8348.000000;-0.312615
8347.000000;-0.312817
8346.000000;-0.312955
8345.000000;-0.313055
8344.000000;-0.313158
8343.000000;-0.313291
8342.000000;-0.313466
8341.000000;-0.313686
8340.000000;-0.313917
8339.000000;-0.314098
8338.000000;-0.314199
8337.000000;-0.314267
8336.000000;-0.314379
8335.000000;-0.314572
8334.000000;-0.314834
8333.000000;-0.315135
8332.000000;-0.315433
8331.000000;-0.315659
8330.000000;-0.315768
8329.000000;-0.315799
8328.000000;-0.315838
8327.000000;-0.315937
8326.000000;-0.316100
8325.000000;-0.316320
8324.000000;-0.316579
8323.000000;-0.316828
8322.000000;-0.317009
8321.000000;-0.317116
8320.000000;-0.317190
8319.000000;-0.317263
8318.000000;-0.317351
8317.000000;-0.317475
8316.000000;-0.317652
8315.000000;-0.317861
8314.000000;-0.318048
8313.000000;-0.318193
8312.000000;-0.318324
8311.000000;-0.318477
8310.000000;-0.318662
8309.000000;-0.318866
8308.000000;-0.319062
8307.000000;-0.319214
8306.000000;-0.319320
8305.000000;-0.319437
8304.000000;-0.319609
8303.000000;-0.319809
8302.000000;-0.319961
8301.000000;-0.320051
8300.000000;-0.320135
8299.000000;-0.320266
8298.000000;-0.320443
8297.000000;-0.320634
8296.000000;-0.320807
8295.000000;-0.320941
8294.000000;-0.321046
8293.000000;-0.321179
8292.000000;-0.321381
8291.000000;-0.321608
8290.000000;-0.321774
8289.000000;-0.321870
8288.000000;-0.321971
8287.000000;-0.322126
8286.000000;-0.322299
8285.000000;-0.322442
8284.000000;-0.322564
8283.000000;-0.322700
8282.000000;-0.322858
8281.000000;-0.323014
8280.000000;-0.323142
8279.000000;-0.323226
8278.000000;-0.323276
8277.000000;-0.323334
8276.000000;-0.323442
8275.000000;-0.323587
8274.000000;-0.323730
8273.000000;-0.323876
8272.000000;-0.324056
8271.000000;-0.324240
8270.000000;-0.324343
8269.000000;-0.324340
8268.000000;-0.324330
8267.000000;-0.324426
8266.000000;-0.324620
8265.000000;-0.324812
8264.000000;-0.324922
8263.000000;-0.324945
8262.000000;-0.324927
8261.000000;-0.324936
8260.000000;-0.325030
8259.000000;-0.325217
8258.000000;-0.325435
8257.000000;-0.325603
8256.000000;-0.325687
8255.000000;-0.325715
8254.000000;-0.325750
8253.000000;-0.325849
8252.000000;-0.326025
8251.000000;-0.326235
8250.000000;-0.326411
8249.000000;-0.326528
8248.000000;-0.326609
8247.000000;-0.326673
8246.000000;-0.326716
8245.000000;-0.326750
8244.000000;-0.326820
8243.000000;-0.326948
8242.000000;-0.327097
8241.000000;-0.327220
8240.000000;-0.327309
8239.000000;-0.327384
8238.000000;-0.327457
8237.000000;-0.327537
8236.000000;-0.327636
8235.000000;-0.327743
8234.000000;-0.327821
8233.000000;-0.327850
8232.000000;-0.327863
8231.000000;-0.327904
8230.000000;-0.327976
8229.000000;-0.328061
8228.000000;-0.328159
8227.000000;-0.328274
8226.000000;-0.328385
8225.000000;-0.328460
8224.000000;-0.328494
8223.000000;-0.328514
8222.000000;-0.328544
8221.000000;-0.328592
8220.000000;-0.328658
8219.000000;-0.328718
8218.000000;-0.328727
8217.000000;-0.328670
8216.000000;-0.328602
8215.000000;-0.328614
8214.000000;-0.328761
8213.000000;-0.329024
8212.000000;-0.329329
8211.000000;-0.329585
8210.000000;-0.329723
8209.000000;-0.329740
8208.000000;-0.329710
8207.000000;-0.329734
8206.000000;-0.329851
8205.000000;-0.330006
8204.000000;-0.330109
8203.000000;-0.330119
8202.000000;-0.330069
8201.000000;-0.330028
8200.000000;-0.330036
8199.000000;-0.330071
8198.000000;-0.330085
8197.000000;-0.330069
8196.000000;-0.330062
8195.000000;-0.330107
8194.000000;-0.330208
8193.000000;-0.330341
8192.000000;-0.330481
8191.000000;-0.330610
8190.000000;-0.330709
8189.000000;-0.330774
8188.000000;-0.330817
8187.000000;-0.330853
8186.000000;-0.330887
8185.000000;-0.330924
8184.000000;-0.330974
8183.000000;-0.331029
8182.000000;-0.331065
8181.000000;-0.331071
8180.000000;-0.331067
8179.000000;-0.331086
8178.000000;-0.331132
8177.000000;-0.331180
8176.000000;-0.331214
8175.000000;-0.331236
8174.000000;-0.331258
8173.000000;-0.331289
8172.000000;-0.331332
8171.000000;-0.331381
8170.000000;-0.331414
8169.000000;-0.331415
8168.000000;-0.331396
8167.000000;-0.331390
8166.000000;-0.331411
8165.000000;-0.331443
8164.000000;-0.331473
8163.000000;-0.331518
8162.000000;-0.331603
8161.000000;-0.331713
8160.000000;-0.331787
8159.000000;-0.331791
8158.000000;-0.331759
8157.000000;-0.331762
8156.000000;-0.331817
8155.000000;-0.331867
8154.000000;-0.331849
8153.000000;-0.331769
8152.000000;-0.331691
8151.000000;-0.331675
8150.000000;-0.331729
8149.000000;-0.331820
8148.000000;-0.331898
8147.000000;-0.331932
8146.000000;-0.331924
8145.000000;-0.331907
8144.000000;-0.331901
8143.000000;-0.331890
8142.000000;-0.331856
8141.000000;-0.331817
8140.000000;-0.331808
8139.000000;-0.331836
8138.000000;-0.331884
8137.000000;-0.331945
8136.000000;-0.332023
8135.000000;-0.332101
8134.000000;-0.332136
8133.000000;-0.332116
8132.000000;-0.332073
8131.000000;-0.332047
8130.000000;-0.332048
8129.000000;-0.332064
8128.000000;-0.332085
8127.000000;-0.332096
8126.000000;-0.332082
8125.000000;-0.332047
8124.000000;-0.332019
8123.000000;-0.332019
8122.000000;-0.332035
8121.000000;-0.332053
8120.000000;-0.332088
8119.000000;-0.332161
8118.000000;-0.332254
8117.000000;-0.332306
8116.000000;-0.332275
8115.000000;-0.332180
8114.000000;-0.332081
8113.000000;-0.332023
8112.000000;-0.332004
8111.000000;-0.331996
8110.000000;-0.331987
8109.000000;-0.331991
8108.000000;-0.332014
8107.000000;-0.332036
8106.000000;-0.332028
8105.000000;-0.331991
8104.000000;-0.331951
8103.000000;-0.331922
8102.000000;-0.331892
8101.000000;-0.331838
8100.000000;-0.331766
8099.000000;-0.331708
8098.000000;-0.331696
8097.000000;-0.331737
8096.000000;-0.331809
8095.000000;-0.331870
8094.000000;-0.331887
8093.000000;-0.331853
8092.000000;-0.331780
8091.000000;-0.331684
8090.000000;-0.331576
8089.000000;-0.331480
8088.000000;-0.331416
8087.000000;-0.331389
8086.000000;-0.331377
8085.000000;-0.331354
8084.000000;-0.331317
8083.000000;-0.331276
8082.000000;-0.331240
8081.000000;-0.331199
8080.000000;-0.331134
8079.000000;-0.331046
8078.000000;-0.330965
8077.000000;-0.330925
8076.000000;-0.330937
8075.000000;-0.330980
8074.000000;-0.331038
8073.000000;-0.331100
8072.000000;-0.331140
8071.000000;-0.331115
8070.000000;-0.331017
8069.000000;-0.330900
8068.000000;-0.330829
8067.000000;-0.330823
8066.000000;-0.330848
8065.000000;-0.330860
8064.000000;-0.330840
8063.000000;-0.330789
8062.000000;-0.330738
8061.000000;-0.330719
8060.000000;-0.330723
8059.000000;-0.330686
8058.000000;-0.330555
8057.000000;-0.330367
8056.000000;-0.330214
8055.000000;-0.330143
8054.000000;-0.330124
8053.000000;-0.330105
8052.000000;-0.330070
8051.000000;-0.330028
8050.000000;-0.329978
8049.000000;-0.329917
8048.000000;-0.329857
8047.000000;-0.329816
8046.000000;-0.329804
8045.000000;-0.329810
8044.000000;-0.329818
8043.000000;-0.329804
8042.000000;-0.329762
8041.000000;-0.329710
8040.000000;-0.329677
8039.000000;-0.329669
8038.000000;-0.329677
8037.000000;-0.329697
8036.000000;-0.329734
8035.000000;-0.329770
8034.000000;-0.329770
8033.000000;-0.329714
8032.000000;-0.329622
8031.000000;-0.329523
8030.000000;-0.329423
8029.000000;-0.329313
8028.000000;-0.329190
8027.000000;-0.329059
8026.000000;-0.328935
8025.000000;-0.328840
8024.000000;-0.328790
8023.000000;-0.328790
8022.000000;-0.328823
8021.000000;-0.328857
8020.000000;-0.328849
8019.000000;-0.328761
8018.000000;-0.328597
8017.000000;-0.328424
8016.000000;-0.328325
8015.000000;-0.328320
8014.000000;-0.328347
8013.000000;-0.328326
8012.000000;-0.328229
8011.000000;-0.328082
8010.000000;-0.327932
8009.000000;-0.327823
8008.000000;-0.327773
8007.000000;-0.327761
8006.000000;-0.327733
8005.000000;-0.327658
8004.000000;-0.327560
8003.000000;-0.327494
8002.000000;-0.327481
8001.000000;-0.327486
8000.000000;-0.327461
7999.000000;-0.327399
7998.000000;-0.327323
7997.000000;-0.327256
7996.000000;-0.327196
7995.000000;-0.327133
7994.000000;-0.327075
7993.000000;-0.327032
7992.000000;-0.326994
7991.000000;-0.326945
7990.000000;-0.326899
7989.000000;-0.326882
7988.000000;-0.326890
7987.000000;-0.326872
7986.000000;-0.326788
7985.000000;-0.326661
7984.000000;-0.326545
7983.000000;-0.326465
7982.000000;-0.326392
7981.000000;-0.326284
7980.000000;-0.326125
7979.000000;-0.325943
7978.000000;-0.325800
7977.000000;-0.325759
7976.000000;-0.325825
7975.000000;-0.325922
7974.000000;-0.325952
7973.000000;-0.325880
7972.000000;-0.325747
7971.000000;-0.325612
7970.000000;-0.325501
7969.000000;-0.325407
7968.000000;-0.325318
7967.000000;-0.325227
7966.000000;-0.325136
7965.000000;-0.325052
7964.000000;-0.324977
7963.000000;-0.324900
7962.000000;-0.324807
7961.000000;-0.324703
7960.000000;-0.324606
7959.000000;-0.324529
7958.000000;-0.324470
7957.000000;-0.324420
7956.000000;-0.324370
7955.000000;-0.324314
7954.000000;-0.324246
7953.000000;-0.324173
7952.000000;-0.324095
7951.000000;-0.324011
7950.000000;-0.323914
7949.000000;-0.323804
7948.000000;-0.323680
7947.000000;-0.323551
7946.000000;-0.323444
7945.000000;-0.323386
7944.000000;-0.323357
7943.000000;-0.323299
7942.000000;-0.323188
7941.000000;-0.323070
7940.000000;-0.323007
7939.000000;-0.322996
7938.000000;-0.322991
7937.000000;-0.322965
7936.000000;-0.322928
7935.000000;-0.322881
7934.000000;-0.322791
7933.000000;-0.322640
7932.000000;-0.322454
7931.000000;-0.322284
7930.000000;-0.322162
7929.000000;-0.322094
7928.000000;-0.322065
7927.000000;-0.322043
7926.000000;-0.321986
7925.000000;-0.321869
7924.000000;-0.321702
7923.000000;-0.321524
7922.000000;-0.321381
7921.000000;-0.321295
7920.000000;-0.321247
7919.000000;-0.321194
7918.000000;-0.321114
7917.000000;-0.321022
7916.000000;-0.320946
7915.000000;-0.320898
7914.000000;-0.320868
7913.000000;-0.320832
7912.000000;-0.320761
7911.000000;-0.320636
7910.000000;-0.320468
7909.000000;-0.320291
7908.000000;-0.320126
7907.000000;-0.319973
7906.000000;-0.319836
7905.000000;-0.319741
7904.000000;-0.319685
7903.000000;-0.319628
7902.000000;-0.319532
7901.000000;-0.319418
7900.000000;-0.319330
7899.000000;-0.319276
7898.000000;-0.319227
7897.000000;-0.319170
7896.000000;-0.319109
7895.000000;-0.319041
7894.000000;-0.318946
7893.000000;-0.318826
7892.000000;-0.318697
7891.000000;-0.318566
7890.000000;-0.318423
7889.000000;-0.318273
7888.000000;-0.318138
7887.000000;-0.318030
7886.000000;-0.317950
7885.000000;-0.317899
7884.000000;-0.317869
7883.000000;-0.317833
7882.000000;-0.317754
7881.000000;-0.317627
7880.000000;-0.317474
7879.000000;-0.317314
7878.000000;-0.317152
7877.000000;-0.316993
7876.000000;-0.316845
7875.000000;-0.316709
7874.000000;-0.316585
7873.000000;-0.316495
7872.000000;-0.316446
7871.000000;-0.316401
7870.000000;-0.316303
7869.000000;-0.316142
7868.000000;-0.315966
7867.000000;-0.315826
7866.000000;-0.315724
7865.000000;-0.315638
7864.000000;-0.315548
7863.000000;-0.315448
7862.000000;-0.315342
7861.000000;-0.315241
7860.000000;-0.315150
7859.000000;-0.315059
7858.000000;-0.314956
7857.000000;-0.314836
7856.000000;-0.314701
7855.000000;-0.314549
7854.000000;-0.314376
7853.000000;-0.314193
7852.000000;-0.314021
7851.000000;-0.313875
7850.000000;-0.313766
7849.000000;-0.313695
7848.000000;-0.313635
7847.000000;-0.313543
7846.000000;-0.313405
7845.000000;-0.313259
7844.000000;-0.313135
7843.000000;-0.313014
7842.000000;-0.312856
7841.000000;-0.312674
7840.000000;-0.312516
7839.000000;-0.312409
7838.000000;-0.312328
7837.000000;-0.312240
7836.000000;-0.312122
7835.000000;-0.311964
7834.000000;-0.311775
7833.000000;-0.311598
7832.000000;-0.311480
7831.000000;-0.311420
7830.000000;-0.311377
7829.000000;-0.311320
7828.000000;-0.311243
7827.000000;-0.311134
7826.000000;-0.310976
7825.000000;-0.310782
7824.000000;-0.310586
7823.000000;-0.310406
7822.000000;-0.310236
7821.000000;-0.310082
7820.000000;-0.309967
7819.000000;-0.309890
7818.000000;-0.309811
7817.000000;-0.309699
7816.000000;-0.309575
7815.000000;-0.309470
7814.000000;-0.309381
7813.000000;-0.309269
7812.000000;-0.309104
7811.000000;-0.308890
7810.000000;-0.308671
7809.000000;-0.308494
7808.000000;-0.308370
7807.000000;-0.308264
7806.000000;-0.308143
7805.000000;-0.308008
7804.000000;-0.307880
7803.000000;-0.307758
7802.000000;-0.307617
7801.000000;-0.307452
7800.000000;-0.307284
7799.000000;-0.307125
7798.000000;-0.306970
7797.000000;-0.306815
7796.000000;-0.306667
7795.000000;-0.306539
7794.000000;-0.306438
7793.000000;-0.306363
7792.000000;-0.306295
7791.000000;-0.306190
7790.000000;-0.306026
7789.000000;-0.305835
7788.000000;-0.305665
7787.000000;-0.305515
7786.000000;-0.305349
7785.000000;-0.305162
7784.000000;-0.304993
7783.000000;-0.304851
7782.000000;-0.304697
7781.000000;-0.304500
7780.000000;-0.304281
7779.000000;-0.304080
7778.000000;-0.303906
7777.000000;-0.303750
7776.000000;-0.303613
7775.000000;-0.303499
7774.000000;-0.303390
7773.000000;-0.303260
7772.000000;-0.303103
7771.000000;-0.302938
7770.000000;-0.302790
7769.000000;-0.302661
7768.000000;-0.302527
7767.000000;-0.302362
7766.000000;-0.302159
7765.000000;-0.301944
7764.000000;-0.301745
7763.000000;-0.301564
7762.000000;-0.301380
7761.000000;-0.301189
7760.000000;-0.301004
7759.000000;-0.300841
7758.000000;-0.300697
7757.000000;-0.300555
7756.000000;-0.300394
7755.000000;-0.300203
7754.000000;-0.299999
7753.000000;-0.299827
7752.000000;-0.299712
7751.000000;-0.299625
7750.000000;-0.299510
7749.000000;-0.299339
7748.000000;-0.299122
7747.000000;-0.298880
7746.000000;-0.298626
7745.000000;-0.298386
7744.000000;-0.298186
7743.000000;-0.298029
7742.000000;-0.297891
7741.000000;-0.297748
7740.000000;-0.297588
7739.000000;-0.297411
7738.000000;-0.297228
7737.000000;-0.297063
7736.000000;-0.296925
7735.000000;-0.296786
7734.000000;-0.296612
7733.000000;-0.296408
7732.000000;-0.296212
7731.000000;-0.296040
7730.000000;-0.295874
7729.000000;-0.295696
7728.000000;-0.295503
7727.000000;-0.295294
7726.000000;-0.295059
7725.000000;-0.294810
7724.000000;-0.294576
7723.000000;-0.294373
7722.000000;-0.294200
7721.000000;-0.294051
7720.000000;-0.293919
7719.000000;-0.293784
7718.000000;-0.293617
7717.000000;-0.293411
7716.000000;-0.293185
7715.000000;-0.292954
7714.000000;-0.292725
7713.000000;-0.292498
7712.000000;-0.292276
7711.000000;-0.292056
7710.000000;-0.291845
7709.000000;-0.291672
7708.000000;-0.291553
7707.000000;-0.291445
7706.000000;-0.291276
7705.000000;-0.291029
7704.000000;-0.290752
7703.000000;-0.290497
7702.000000;-0.290269
7701.000000;-0.290053
7700.000000;-0.289849
7699.000000;-0.289665
7698.000000;-0.289500
7697.000000;-0.289343
7696.000000;-0.289185
7695.000000;-0.289008
7694.000000;-0.288783
7693.000000;-0.288506
7692.000000;-0.288207
7691.000000;-0.287922
7690.000000;-0.287671
7689.000000;-0.287454
7688.000000;-0.287262
7687.000000;-0.287079
7686.000000;-0.286890
7685.000000;-0.286690
7684.000000;-0.286476
7683.000000;-0.286243
7682.000000;-0.285993
7681.000000;-0.285746
7680.000000;-0.285523
7679.000000;-0.285322
7678.000000;-0.285133
7677.000000;-0.284946
7676.000000;-0.284752
7675.000000;-0.284532
7674.000000;-0.284276
7673.000000;-0.284006
7672.000000;-0.283744
7671.000000;-0.283481
7670.000000;-0.283195
7669.000000;-0.282891
7668.000000;-0.282595
7667.000000;-0.282325
7666.000000;-0.282081
7665.000000;-0.281869
7664.000000;-0.281680
7663.000000;-0.281484
7662.000000;-0.281254
7661.000000;-0.281007
7660.000000;-0.280784
7659.000000;-0.280589
7658.000000;-0.280383
7657.000000;-0.280136
7656.000000;-0.279853
7655.000000;-0.279550
7654.000000;-0.279248
7653.000000;-0.278975
7652.000000;-0.278754
7651.000000;-0.278573
7650.000000;-0.278390
7649.000000;-0.278186
7648.000000;-0.277970
7647.000000;-0.277748
7646.000000;-0.277502
7645.000000;-0.277221
7644.000000;-0.276910
7643.000000;-0.276586
7642.000000;-0.276270
7641.000000;-0.275982
7640.000000;-0.275720
7639.000000;-0.275456
7638.000000;-0.275164
7637.000000;-0.274865
7636.000000;-0.274602
7635.000000;-0.274378
7634.000000;-0.274149
7633.000000;-0.273876
7632.000000;-0.273564
7631.000000;-0.273239
7630.000000;-0.272931
7629.000000;-0.272658
7628.000000;-0.272413
7627.000000;-0.272156
7626.000000;-0.271856
7625.000000;-0.271523
7624.000000;-0.271195
7623.000000;-0.270888
7622.000000;-0.270583
7621.000000;-0.270269
7620.000000;-0.269949
7619.000000;-0.269625
7618.000000;-0.269297
7617.000000;-0.268981
7616.000000;-0.268692
7615.000000;-0.268418
7614.000000;-0.268132
7613.000000;-0.267833
7612.000000;-0.267537
7611.000000;-0.267248
7610.000000;-0.266956
7609.000000;-0.266660
7608.000000;-0.266367
7607.000000;-0.266066
7606.000000;-0.265745
7605.000000;-0.265419
7604.000000;-0.265110
7603.000000;-0.264810
7602.000000;-0.264496
7601.000000;-0.264164
7600.000000;-0.263821
7599.000000;-0.263450
7598.000000;-0.263042
7597.000000;-0.262633
7596.000000;-0.262271
7595.000000;-0.261961
7594.000000;-0.261672
7593.000000;-0.261395
7592.000000;-0.261138
7591.000000;-0.260878
7590.000000;-0.260578
7589.000000;-0.260240
7588.000000;-0.259902
7587.000000;-0.259565
7586.000000;-0.259198
7585.000000;-0.258802
7584.000000;-0.258426
7583.000000;-0.258102
7582.000000;-0.257808
7581.000000;-0.257504
7580.000000;-0.257177
7579.000000;-0.256835
7578.000000;-0.256490
7577.000000;-0.256152
7576.000000;-0.255811
7575.000000;-0.255433
7574.000000;-0.255004
7573.000000;-0.254569
7572.000000;-0.254184
7571.000000;-0.253852
7570.000000;-0.253532
7569.000000;-0.253207
7568.000000;-0.252884
7567.000000;-0.252549
7566.000000;-0.252175
7565.000000;-0.251775
7564.000000;-0.251385
7563.000000;-0.251005
7562.000000;-0.250595
7561.000000;-0.250151
7560.000000;-0.249713
7559.000000;-0.249314
7558.000000;-0.248943
7557.000000;-0.248588
7556.000000;-0.248240
7555.000000;-0.247875
7554.000000;-0.247470
7553.000000;-0.247053
7552.000000;-0.246674
7551.000000;-0.246336
7550.000000;-0.245994
7549.000000;-0.245622
7548.000000;-0.245240
7547.000000;-0.244853
7546.000000;-0.244436
7545.000000;-0.243985
7544.000000;-0.243537
7543.000000;-0.243125
7542.000000;-0.242748
7541.000000;-0.242401
7540.000000;-0.242070
7539.000000;-0.241706
7538.000000;-0.241261
7537.000000;-0.240759
7536.000000;-0.240276
7535.000000;-0.239845
7534.000000;-0.239426
7533.000000;-0.238989
7532.000000;-0.238549
7531.000000;-0.238115
7530.000000;-0.237668
7529.000000;-0.237196
7528.000000;-0.236724
7527.000000;-0.236264
7526.000000;-0.235799
7525.000000;-0.235339
7524.000000;-0.234923
7523.000000;-0.234560
7522.000000;-0.234201
7521.000000;-0.233803
7520.000000;-0.233377
7519.000000;-0.232952
7518.000000;-0.232541
7517.000000;-0.232140
7516.000000;-0.231732
7515.000000;-0.231280
7514.000000;-0.230765
7513.000000;-0.230225
7512.000000;-0.229718
7511.000000;-0.229249
7510.000000;-0.228775
7509.000000;-0.228297
7508.000000;-0.227862
7507.000000;-0.227482
7506.000000;-0.227112
7505.000000;-0.226719
7504.000000;-0.226321
7503.000000;-0.225928
7502.000000;-0.225516
7501.000000;-0.225079
7500.000000;-0.224639
7499.000000;-0.224198
7498.000000;-0.223725
7497.000000;-0.223222
7496.000000;-0.222738
7495.000000;-0.222287
7494.000000;-0.221838
7493.000000;-0.221354
7492.000000;-0.220900
7491.000000;-0.220450
7490.000000;-0.219981
7489.000000;-0.219499
7488.000000;-0.219017
7487.000000;-0.218559
7486.000000;-0.218109
7485.000000;-0.217654
7484.000000;-0.217202
7483.000000;-0.216748
7482.000000;-0.216273
7481.000000;-0.215783
7480.000000;-0.215308
7479.000000;-0.214849
7478.000000;-0.214381
7477.000000;-0.213905
7476.000000;-0.213443
7475.000000;-0.212983
7474.000000;-0.212487
7473.000000;-0.211969
7472.000000;-0.211492
7471.000000;-0.211073
7470.000000;-0.210669
7469.000000;-0.210252
7468.000000;-0.209839
7467.000000;-0.209424
7466.000000;-0.208959
7465.000000;-0.208431
7464.000000;-0.207882
7463.000000;-0.207334
7462.000000;-0.206779
7461.000000;-0.206240
7460.000000;-0.205780
7459.000000;-0.205399
7458.000000;-0.205020
7457.000000;-0.204597
7456.000000;-0.204152
7455.000000;-0.203698
7454.000000;-0.203200
7453.000000;-0.202659
7452.000000;-0.202142
7451.000000;-0.201686
7450.000000;-0.201250
7449.000000;-0.200789
7448.000000;-0.200316
7447.000000;-0.199845
7446.000000;-0.199359
7445.000000;-0.198865
7444.000000;-0.198405
7443.000000;-0.197987
7442.000000;-0.197569
7441.000000;-0.197133
7440.000000;-0.196697
7439.000000;-0.196251
7438.000000;-0.195758
7437.000000;-0.195237
7436.000000;-0.194765
7435.000000;-0.194352
7434.000000;-0.193931
7433.000000;-0.193477
7432.000000;-0.193043
7431.000000;-0.192633
7430.000000;-0.192171
7429.000000;-0.191643
7428.000000;-0.191141
7427.000000;-0.190724
7426.000000;-0.190326
7425.000000;-0.189867
7424.000000;-0.189346
7423.000000;-0.188791
7422.000000;-0.188216
7421.000000;-0.187654
7420.000000;-0.187166
7419.000000;-0.186765
7418.000000;-0.186387
7417.000000;-0.185994
7416.000000;-0.185614
7415.000000;-0.185263
7414.000000;-0.184888
7413.000000;-0.184449
7412.000000;-0.183991
7411.000000;-0.183559
7410.000000;-0.183132
7409.000000;-0.182697
7408.000000;-0.182304
7407.000000;-0.181981
7406.000000;-0.181667
7405.000000;-0.181292
7404.000000;-0.180847
7403.000000;-0.180356
7402.000000;-0.179821
7401.000000;-0.179264
7400.000000;-0.178755
7399.000000;-0.178299
7398.000000;-0.177784
7397.000000;-0.177204
7396.000000;-0.176731
7395.000000;-0.176427
7394.000000;-0.176153
7393.000000;-0.175868
7392.000000;-0.175747
7391.000000;-0.175843
7390.000000;-0.175843
7389.000000;-0.175389
7388.000000;-0.174502
7387.000000;-0.173508
7386.000000;-0.172666
7385.000000;-0.172055
7384.000000;-0.171631
7383.000000;-0.171261
7382.000000;-0.170839
7381.000000;-0.170362
7380.000000;-0.169863
7379.000000;-0.169313
7378.000000;-0.168723
7377.000000;-0.168260
7376.000000;-0.168038
7375.000000;-0.167857
7374.000000;-0.167393
7373.000000;-0.166642
7372.000000;-0.165961
7371.000000;-0.165655
7370.000000;-0.165642
7369.000000;-0.165623
7368.000000;-0.165401
7367.000000;-0.164867
7366.000000;-0.163970
7365.000000;-0.162987
7364.000000;-0.162414
7363.000000;-0.162371
7362.000000;-0.162494
7361.000000;-0.162336
7360.000000;-0.161689
7359.000000;-0.160657
7358.000000;-0.159634
7357.000000;-0.159093
7356.000000;-0.159131
7355.000000;-0.159293
7354.000000;-0.158930
7353.000000;-0.157905
7352.000000;-0.156750
7351.000000;-0.156087
7350.000000;-0.156016
7349.000000;-0.156130
7348.000000;-0.155952
7347.000000;-0.155360
7346.000000;-0.154693
7345.000000;-0.154368
7344.000000;-0.154335
7343.000000;-0.153963
7342.000000;-0.152772
7341.000000;-0.151172
7340.000000;-0.150062
7339.000000;-0.149730
7338.000000;-0.149551
7337.000000;-0.148990
7336.000000;-0.148216
7335.000000;-0.147589
7334.000000;-0.147139
7333.000000;-0.146648
7332.000000;-0.145933
7331.000000;-0.145108
7330.000000;-0.144514
7329.000000;-0.144338
7328.000000;-0.144306
7327.000000;-0.143932
7326.000000;-0.143064
7325.000000;-0.142058
7324.000000;-0.141446
7323.000000;-0.141277
7322.000000;-0.140978
7321.000000;-0.140017
7320.000000;-0.138564
7319.000000;-0.137225
7318.000000;-0.136248
7317.000000;-0.135401
7316.000000;-0.134542
7315.000000;-0.133814
7314.000000;-0.133378
7313.000000;-0.133068
7312.000000;-0.132451
7311.000000;-0.131325
7310.000000;-0.130023
7309.000000;-0.129112
7308.000000;-0.128870
7307.000000;-0.129017
7306.000000;-0.128937
7305.000000;-0.128100
7304.000000;-0.126530
7303.000000;-0.124953
7302.000000;-0.124087
7301.000000;-0.123942
7300.000000;-0.123886
7299.000000;-0.123212
7298.000000;-0.121737
7297.000000;-0.119957
7296.000000;-0.118677
7295.000000;-0.118221
7294.000000;-0.118041
7293.000000;-0.117261
7292.000000;-0.115512
7291.000000;-0.113269
7290.000000;-0.111310
7289.000000;-0.109874
7288.000000;-0.108618
7287.000000;-0.107288
7286.000000;-0.106089
7285.000000;-0.105249
7284.000000;-0.104557
7283.000000;-0.103697
7282.000000;-0.102597
7281.000000;-0.101360
7280.000000;-0.100055
7279.000000;-0.098671
7278.000000;-0.097245
7277.000000;-0.095857
7276.000000;-0.094469
7275.000000;-0.092989
7274.000000;-0.091480
7273.000000;-0.090055
7272.000000;-0.088686
7271.000000;-0.087277
7270.000000;-0.085826
7269.000000;-0.084381
7268.000000;-0.082920
7267.000000;-0.081370
7266.000000;-0.079688
7265.000000;-0.077855
7264.000000;-0.075872
7263.000000;-0.073852
7262.000000;-0.072006
7261.000000;-0.070418
7260.000000;-0.068934
7259.000000;-0.067378
7258.000000;-0.065696
7257.000000;-0.063885
7256.000000;-0.061920
7255.000000;-0.059829
7254.000000;-0.057727
7253.000000;-0.055708
7252.000000;-0.053795
7251.000000;-0.051903
7250.000000;-0.049939
7249.000000;-0.047961
7248.000000;-0.045940
7247.000000;-0.043687
7246.000000;-0.041207
7245.000000;-0.038823
7244.000000;-0.036773
7243.000000;-0.034903
7242.000000;-0.032811
7241.000000;-0.030262
7240.000000;-0.027433
7239.000000;-0.024802
7238.000000;-0.022609
7237.000000;-0.020512
7236.000000;-0.017952
7235.000000;-0.014826
7234.000000;-0.011590
7233.000000;-0.008775
7232.000000;-0.006565
7231.000000;-0.004539
7230.000000;-0.002094
7229.000000;0.000782
7228.000000;0.003724
7227.000000;0.006593
7226.000000;0.009473
7225.000000;0.012454
7224.000000;0.015597
7223.000000;0.018827
7222.000000;0.021884
7221.000000;0.024620
7220.000000;0.027309
7219.000000;0.030339
7218.000000;0.033730
7217.000000;0.037184
7216.000000;0.040468
7215.000000;0.043577
7214.000000;0.046674
7213.000000;0.049984
7212.000000;0.053616
7211.000000;0.057468
7210.000000;0.061321
7209.000000;0.065077
7208.000000;0.068889
7207.000000;0.072912
7206.000000;0.077012
7205.000000;0.080961
7204.000000;0.084772
7203.000000;0.088612
7202.000000;0.092478
7201.000000;0.096254
7200.000000;0.099985
7199.000000;0.103825
7198.000000;0.107825
7197.000000;0.111944
7196.000000;0.116167
7195.000000;0.120474
7194.000000;0.124779
7193.000000;0.129057
7192.000000;0.133370
7191.000000;0.137725
7190.000000;0.142017
7189.000000;0.146253
7188.000000;0.150621
7187.000000;0.155199
7186.000000;0.159825
7185.000000;0.164266
7184.000000;0.168440
7183.000000;0.172446
7182.000000;0.176528
7181.000000;0.181026
7180.000000;0.186215
7179.000000;0.191910
7178.000000;0.197413
7177.000000;0.202204
7176.000000;0.206546
7175.000000;0.211048
7174.000000;0.215946
7173.000000;0.221063
7172.000000;0.226175
7171.000000;0.231250
7170.000000;0.236335
7169.000000;0.241464
7168.000000;0.246525
7167.000000;0.251266
7166.000000;0.255716
7165.000000;0.260243
7164.000000;0.265018
7163.000000;0.269707
7162.000000;0.274020
7161.000000;0.278321
7160.000000;0.283345
7159.000000;0.289253
7158.000000;0.295342
7157.000000;0.300854
7156.000000;0.305790
7155.000000;0.310632
7154.000000;0.315656
7153.000000;0.320841
7152.000000;0.326029
7151.000000;0.331077
7150.000000;0.336003
7149.000000;0.340922
7148.000000;0.345798
7147.000000;0.350484
7146.000000;0.354999
7145.000000;0.359615
7144.000000;0.364644
7143.000000;0.370030
7142.000000;0.375274
7141.000000;0.379902
7140.000000;0.383994
7139.000000;0.388096
7138.000000;0.392662
7137.000000;0.397648
7136.000000;0.402647
7135.000000;0.407353
7134.000000;0.411830
7133.000000;0.416385
7132.000000;0.421139
7131.000000;0.425851
7130.000000;0.430266
7129.000000;0.434446
7128.000000;0.438676
7127.000000;0.443121
7126.000000;0.447647
7125.000000;0.452010
7124.000000;0.456118
7123.000000;0.460084
7122.000000;0.464107
7121.000000;0.468230
7120.000000;0.472249
7119.000000;0.475935
7118.000000;0.479423
7117.000000;0.483232
7116.000000;0.487741
7115.000000;0.492612
7114.000000;0.497043
7113.000000;0.500654
7112.000000;0.503813
7111.000000;0.507069
7110.000000;0.510616
7109.000000;0.514368
7108.000000;0.518198
7107.000000;0.521920
7106.000000;0.525336
7105.000000;0.528489
7104.000000;0.531579
7103.000000;0.534752
7102.000000;0.538027
7101.000000;0.541347
7100.000000;0.544677
7099.000000;0.547986
7098.000000;0.551114
7097.000000;0.553894
7096.000000;0.556406
7095.000000;0.559002
7094.000000;0.562012
7093.000000;0.565418
7092.000000;0.568826
7091.000000;0.571806
7090.000000;0.574298
7089.000000;0.576658
7088.000000;0.579270
7087.000000;0.582142
7086.000000;0.584956
7085.000000;0.587458
7084.000000;0.589677
7083.000000;0.591817
7082.000000;0.594027
7081.000000;0.596317
7080.000000;0.598646
7079.000000;0.601008
7078.000000;0.603355
7077.000000;0.605615
7076.000000;0.607775
7075.000000;0.609820
7074.000000;0.611667
7073.000000;0.613320
7072.000000;0.615000
7071.000000;0.616994
7070.000000;0.619352
7069.000000;0.621799
7068.000000;0.623979
7067.000000;0.625742
7066.000000;0.627246
7065.000000;0.628772
7064.000000;0.630416
7063.000000;0.632027
7062.000000;0.633502
7061.000000;0.634967
7060.000000;0.636577
7059.000000;0.638251
7058.000000;0.639714
7057.000000;0.640869
7056.000000;0.642011
7055.000000;0.643491
7054.000000;0.645318
7053.000000;0.647222
7052.000000;0.648923
7051.000000;0.650270
7050.000000;0.651277
7049.000000;0.652139
7048.000000;0.653117
7047.000000;0.654337
7046.000000;0.655754
7045.000000;0.657283
7044.000000;0.658826
7043.000000;0.660197
7042.000000;0.661249
7041.000000;0.662108
7040.000000;0.663081
7039.000000;0.664291
7038.000000;0.665556
7037.000000;0.666691
7036.000000;0.667728
7035.000000;0.668721
7034.000000;0.669571
7033.000000;0.670238
7032.000000;0.670913
7031.000000;0.671770
7030.000000;0.672728
7029.000000;0.673629
7028.000000;0.674503
7027.000000;0.675463
7026.000000;0.676450
7025.000000;0.677304
7024.000000;0.678002
7023.000000;0.678663
7022.000000;0.679369
7021.000000;0.680126
7020.000000;0.680921
7019.000000;0.681703
7018.000000;0.682380
7017.000000;0.682965
7016.000000;0.683594
7015.000000;0.684305
7014.000000;0.684950
7013.000000;0.685441
7012.000000;0.685921
7011.000000;0.686518
7010.000000;0.687094
7009.000000;0.687449
7008.000000;0.687675
7007.000000;0.688073
7006.000000;0.688759
7005.000000;0.689552
7004.000000;0.690213
7003.000000;0.690616
7002.000000;0.690751
7001.000000;0.690759
7000.000000;0.690947
6999.000000;0.691561
6998.000000;0.692510
6997.000000;0.693431
6996.000000;0.694061
6995.000000;0.694435
6994.000000;0.694712
6993.000000;0.694939
6992.000000;0.695054
6991.000000;0.695051
6990.000000;0.695082
6989.000000;0.695384
6988.000000;0.696029
6987.000000;0.696787
6986.000000;0.697324
6985.000000;0.697541
6984.000000;0.697585
6983.000000;0.697565
6982.000000;0.697452
6981.000000;0.697303
6980.000000;0.697370
6979.000000;0.697805
6978.000000;0.698408
6977.000000;0.698842
6976.000000;0.699013
6975.000000;0.699082
6974.000000;0.699189
6973.000000;0.699357
6972.000000;0.699579
6971.000000;0.699807
6970.000000;0.699920
6969.000000;0.699871
6968.000000;0.699803
6967.000000;0.699868
6966.000000;0.700029
6965.000000;0.700168
6964.000000;0.700311
6963.000000;0.700582
6962.000000;0.700964
6961.000000;0.701263
6960.000000;0.701333
6959.000000;0.701209
6958.000000;0.701013
6957.000000;0.700878
6956.000000;0.700935
6955.000000;0.701219
6954.000000;0.701587
6953.000000;0.701824
6952.000000;0.701839
6951.000000;0.701677
6950.000000;0.701403
6949.000000;0.701098
6948.000000;0.700908
6947.000000;0.700929
6946.000000;0.701061
6945.000000;0.701100
6944.000000;0.700957
6943.000000;0.700694
6942.000000;0.700397
6941.000000;0.700115
6940.000000;0.699907
6939.000000;0.699824
6938.000000;0.699831
6937.000000;0.699833
6936.000000;0.699772
6935.000000;0.699647
6934.000000;0.699460
6933.000000;0.699227
6932.000000;0.699015
6931.000000;0.698883
6930.000000;0.698817
6929.000000;0.698785
6928.000000;0.698792
6927.000000;0.698804
6926.000000;0.698692
6925.000000;0.698389
6924.000000;0.698018
6923.000000;0.697770
6922.000000;0.697721
6921.000000;0.697806
6920.000000;0.697891
6919.000000;0.697849
6918.000000;0.697618
6917.000000;0.697236
6916.000000;0.696796
6915.000000;0.696327
6914.000000;0.695812
6913.000000;0.695356
6912.000000;0.695183
6911.000000;0.695341
6910.000000;0.695547
6909.000000;0.695491
6908.000000;0.695193
6907.000000;0.694895
6906.000000;0.694681
6905.000000;0.694401
6904.000000;0.693939
6903.000000;0.693395
6902.000000;0.692982
6901.000000;0.692825
6900.000000;0.692859
6899.000000;0.692904
6898.000000;0.692821
6897.000000;0.692606
6896.000000;0.692360
6895.000000;0.692143
6894.000000;0.691919
6893.000000;0.691648
6892.000000;0.691338
6891.000000;0.691013
6890.000000;0.690680
6889.000000;0.690375
6888.000000;0.690139
6887.000000;0.689921
6886.000000;0.689595
6885.000000;0.689132
6884.000000;0.688671
6883.000000;0.688342
6882.000000;0.688106
6881.000000;0.687852
6880.000000;0.687558
6879.000000;0.687274
6878.000000;0.687013
6877.000000;0.686725
6876.000000;0.686375
6875.000000;0.685960
6874.000000;0.685496
6873.000000;0.685042
6872.000000;0.684678
6871.000000;0.684402
6870.000000;0.684112
6869.000000;0.683762
6868.000000;0.683473
6867.000000;0.683388
6866.000000;0.683462
6865.000000;0.683467
6864.000000;0.683200
6863.000000;0.682633
6862.000000;0.681919
6861.000000;0.681278
6860.000000;0.680821
6859.000000;0.680465
6858.000000;0.680064
6857.000000;0.679632
6856.000000;0.679304
6855.000000;0.679063
6854.000000;0.678690
6853.000000;0.678079
6852.000000;0.677397
6851.000000;0.676808
6850.000000;0.676214
6849.000000;0.675454
6848.000000;0.674598
6847.000000;0.673857
6846.000000;0.673282
6845.000000;0.672750
6844.000000;0.672178
6843.000000;0.671578
6842.000000;0.670938
6841.000000;0.670231
6840.000000;0.669490
6839.000000;0.668768
6838.000000;0.668054
6837.000000;0.667322
6836.000000;0.666618
6835.000000;0.665967
6834.000000;0.665255
6833.000000;0.664347
6832.000000;0.663267
6831.000000;0.662144
6830.000000;0.661055
6829.000000;0.660031
6828.000000;0.659123
6827.000000;0.658318
6826.000000;0.657472
6825.000000;0.656452
6824.000000;0.655311
6823.000000;0.654196
6822.000000;0.653154
6821.000000;0.652155
6820.000000;0.651219
6819.000000;0.650368
6818.000000;0.649528
6817.000000;0.648598
6816.000000;0.647571
6815.000000;0.646468
6814.000000;0.645223
6813.000000;0.643795
6812.000000;0.642317
6811.000000;0.640949
6810.000000;0.639667
6809.000000;0.638359
6808.000000;0.637056
6807.000000;0.635889
6806.000000;0.634848
6805.000000;0.633769
6804.000000;0.632555
6803.000000;0.631243
6802.000000;0.629882
6801.000000;0.628502
6800.000000;0.627190
6799.000000;0.626001
6798.000000;0.624816
6797.000000;0.623436
6796.000000;0.621849
6795.000000;0.620239
6794.000000;0.618732
6793.000000;0.617297
6792.000000;0.615893
6791.000000;0.614533
6790.000000;0.613184
6789.000000;0.611749
6788.000000;0.610219
6787.000000;0.608704
6786.000000;0.607278
6785.000000;0.605862
6784.000000;0.604335
6783.000000;0.602693
6782.000000;0.601048
6781.000000;0.599527
6780.000000;0.598174
6779.000000;0.596895
6778.000000;0.595505
6777.000000;0.593903
6776.000000;0.592193
6775.000000;0.590570
6774.000000;0.589098
6773.000000;0.587686
6772.000000;0.586244
6771.000000;0.584757
6770.000000;0.583195
6769.000000;0.581497
6768.000000;0.579678
6767.000000;0.577886
6766.000000;0.576277
6765.000000;0.574868
6764.000000;0.573514
6763.000000;0.572020
6762.000000;0.570273
6761.000000;0.568362
6760.000000;0.566535
6759.000000;0.564977
6758.000000;0.563616
6757.000000;0.562190
6756.000000;0.560506
6755.000000;0.558585
6754.000000;0.556582
6753.000000;0.554653
6752.000000;0.552887
6751.000000;0.551285
6750.000000;0.549752
6749.000000;0.548183
6748.000000;0.546561
6747.000000;0.544927
6746.000000;0.543282
6745.000000;0.541577
6744.000000;0.539799
6743.000000;0.537996
6742.000000;0.536202
6741.000000;0.534422
6740.000000;0.532698
6739.000000;0.531104
6738.000000;0.529654
6737.000000;0.528270
6736.000000;0.526853
6735.000000;0.525348
6734.000000;0.523745
6733.000000;0.522058
6732.000000;0.520329
6731.000000;0.518605
6730.000000;0.516887
6729.000000;0.515140
6728.000000;0.513346
6727.000000;0.511517
6726.000000;0.509670
6725.000000;0.507806
6724.000000;0.505913
6723.000000;0.503973
6722.000000;0.502003
6721.000000;0.500100
6720.000000;0.498398
6719.000000;0.496909
6718.000000;0.495462
6717.000000;0.493862
6716.000000;0.492086
6715.000000;0.490255
6714.000000;0.488473
6713.000000;0.486759
6712.000000;0.485099
6711.000000;0.483480
6710.000000;0.481820
6709.000000;0.480089
6708.000000;0.478335
6707.000000;0.476565
6706.000000;0.474794
6705.000000;0.473002
6704.000000;0.471206
6703.000000;0.469470
6702.000000;0.467812
6701.000000;0.466165
6700.000000;0.464505
6699.000000;0.462847
6698.000000;0.461190
6697.000000;0.459471
6696.000000;0.457693
6695.000000;0.455900
6694.000000;0.454150
6693.000000;0.452457
6692.000000;0.450789
6691.000000;0.449087
6690.000000;0.447299
6689.000000;0.445433
6688.000000;0.443580
6687.000000;0.441818
6686.000000;0.440120
6685.000000;0.438404
6684.000000;0.436655
6683.000000;0.434931
6682.000000;0.433255
6681.000000;0.431577
6680.000000;0.429864
6679.000000;0.428154
6678.000000;0.426500
6677.000000;0.424900
6676.000000;0.423310
6675.000000;0.421694
6674.000000;0.420035
6673.000000;0.418327
6672.000000;0.416568
6671.000000;0.414767
6670.000000;0.412933
6669.000000;0.411106
6668.000000;0.409361
6667.000000;0.407746
6666.000000;0.406208
6665.000000;0.404631
6664.000000;0.402954
6663.000000;0.401219
6662.000000;0.399495
6661.000000;0.397806
6660.000000;0.396140
6659.000000;0.394498
6658.000000;0.392900
6657.000000;0.391345
6656.000000;0.389799
6655.000000;0.388218
6654.000000;0.386578
6653.000000;0.384890
6652.000000;0.383192
6651.000000;0.381510
6650.000000;0.379848
6649.000000;0.378206
6648.000000;0.376584
6647.000000;0.374974
6646.000000;0.373355
6645.000000;0.371725
6644.000000;0.370103
6643.000000;0.368489
6642.000000;0.366864
6641.000000;0.365228
6640.000000;0.363611
6639.000000;0.362022
6638.000000;0.360418
6637.000000;0.358765
6636.000000;0.357100
6635.000000;0.355483
6634.000000;0.353921
6633.000000;0.352386
6632.000000;0.350858
6631.000000;0.349323
6630.000000;0.347752
6629.000000;0.346141
6628.000000;0.344539
6627.000000;0.342993
6626.000000;0.341476
6625.000000;0.339918
6624.000000;0.338295
6623.000000;0.336642
6622.000000;0.334998
6621.000000;0.333386
6620.000000;0.331848
6619.000000;0.330408
6618.000000;0.329010
6617.000000;0.327554
6616.000000;0.326003
6615.000000;0.324416
6614.000000;0.322860
6613.000000;0.321342
6612.000000;0.319828
6611.000000;0.318297
6610.000000;0.316741
6609.000000;0.315170
6608.000000;0.313602
6607.000000;0.312061
6606.000000;0.310550
6605.000000;0.309066
6604.000000;0.307611
6603.000000;0.306181
6602.000000;0.304736
6601.000000;0.303240
6600.000000;0.301718
6599.000000;0.300234
6598.000000;0.298818
6597.000000;0.297436
6596.000000;0.296036
6595.000000;0.294589
6594.000000;0.293097
6593.000000;0.291582
6592.000000;0.290084
6591.000000;0.288629
6590.000000;0.287208
6589.000000;0.285800
6588.000000;0.284400
6587.000000;0.283003
6586.000000;0.281565
6585.000000;0.280039
6584.000000;0.278439
6583.000000;0.276858
6582.000000;0.275385
6581.000000;0.274046
6580.000000;0.272795
6579.000000;0.271558
6578.000000;0.270275
6577.000000;0.268933
6576.000000;0.267559
6575.000000;0.266176
6574.000000;0.264789
6573.000000;0.263406
6572.000000;0.262062
6571.000000;0.260766
6570.000000;0.259469
6569.000000;0.258109
6568.000000;0.256682
6567.000000;0.255246
6566.000000;0.253847
6565.000000;0.252477
6564.000000;0.251108
6563.000000;0.249733
6562.000000;0.248383
6561.000000;0.247109
6560.000000;0.245927
6559.000000;0.244777
6558.000000;0.243557
6557.000000;0.242226
6556.000000;0.240858
6555.000000;0.239552
6554.000000;0.238323
6553.000000;0.237118
6552.000000;0.235896
6551.000000;0.234650
6550.000000;0.233361
6549.000000;0.232022
6548.000000;0.230672
6547.000000;0.229381
6546.000000;0.228162
6545.000000;0.226966
6544.000000;0.225757
6543.000000;0.224547
6542.000000;0.223349
6541.000000;0.222139
6540.000000;0.220892
6539.000000;0.219621
6538.000000;0.218362
6537.000000;0.217145
6536.000000;0.215976
6535.000000;0.214828
6534.000000;0.213654
6533.000000;0.212427
6532.000000;0.211183
6531.000000;0.209986
6530.000000;0.208852
6529.000000;0.207734
6528.000000;0.206580
6527.000000;0.205380
6526.000000;0.204150
6525.000000;0.202917
6524.000000;0.201709
6523.000000;0.200548
6522.000000;0.199424
6521.000000;0.198304
6520.000000;0.197171
6519.000000;0.196037
6518.000000;0.194919
6517.000000;0.193819
6516.000000;0.192734
6515.000000;0.191651
6514.000000;0.190551
6513.000000;0.189415
6512.000000;0.188251
6511.000000;0.187086
6510.000000;0.185939
6509.000000;0.184825
6508.000000;0.183758
6507.000000;0.182731
6506.000000;0.181707
6505.000000;0.180658
6504.000000;0.179599
6503.000000;0.178564
6502.000000;0.177537
6501.000000;0.176468
6500.000000;0.175344
6499.000000;0.174210
6498.000000;0.173120
6497.000000;0.172085
6496.000000;0.171089
6495.000000;0.170107
6494.000000;0.169114
6493.000000;0.168090
6492.000000;0.167041
6491.000000;0.165984
6490.000000;0.164919
6489.000000;0.163839
6488.000000;0.162762
6487.000000;0.161719
6486.000000;0.160721
6485.000000;0.159744
6484.000000;0.158764
6483.000000;0.157763
6482.000000;0.156725
6481.000000;0.155643
6480.000000;0.154546
6479.000000;0.153478
6478.000000;0.152463
6477.000000;0.151488
6476.000000;0.150535
6475.000000;0.149600
6474.000000;0.148670
6473.000000;0.147736
6472.000000;0.146806
6471.000000;0.145892
6470.000000;0.144990
6469.000000;0.144084
6468.000000;0.143185
6467.000000;0.142311
6466.000000;0.141435
6465.000000;0.140498
6464.000000;0.139495
6463.000000;0.138498
6462.000000;0.137581
6461.000000;0.136733
6460.000000;0.135883
6459.000000;0.134993
6458.000000;0.134083
6457.000000;0.133186
6456.000000;0.132303
6455.000000;0.131404
6454.000000;0.130476
6453.000000;0.129544
6452.000000;0.128648
6451.000000;0.127785
6450.000000;0.126906
6449.000000;0.125976
6448.000000;0.125029
6447.000000;0.124128
6446.000000;0.123285
6445.000000;0.122449
6444.000000;0.121579
6443.000000;0.120691
6442.000000;0.119819
6441.000000;0.118970
6440.000000;0.118127
6439.000000;0.117292
6438.000000;0.116476
6437.000000;0.115686
6436.000000;0.114912
6435.000000;0.114143
6434.000000;0.113366
6433.000000;0.112569
6432.000000;0.111750
6431.000000;0.110920
6430.000000;0.110090
6429.000000;0.109274
6428.000000;0.108482
6427.000000;0.107709
6426.000000;0.106923
6425.000000;0.106093
6424.000000;0.105233
6423.000000;0.104397
6422.000000;0.103620
6421.000000;0.102884
6420.000000;0.102151
6419.000000;0.101405
6418.000000;0.100656
6417.000000;0.099912
6416.000000;0.099166
6415.000000;0.098408
6414.000000;0.097632
6413.000000;0.096843
6412.000000;0.096048
6411.000000;0.095256
6410.000000;0.094476
6409.000000;0.093719
6408.000000;0.093005
6407.000000;0.092338
6406.000000;0.091696
6405.000000;0.091041
6404.000000;0.090347
6403.000000;0.089618
6402.000000;0.088878
6401.000000;0.088148
6400.000000;0.087431
6399.000000;0.086728
6398.000000;0.086042
6397.000000;0.085389
6396.000000;0.084778
6395.000000;0.084189
6394.000000;0.083581
6393.000000;0.082925
6392.000000;0.082233
6391.000000;0.081527
6390.000000;0.080809
6389.000000;0.080081
6388.000000;0.079367
6387.000000;0.078694
6386.000000;0.078053
6385.000000;0.077411
6384.000000;0.076752
6383.000000;0.076090
6382.000000;0.075437
6381.000000;0.074790
6380.000000;0.074147
6379.000000;0.073525
6378.000000;0.072932
6377.000000;0.072352
6376.000000;0.071762
6375.000000;0.071150
6374.000000;0.070524
6373.000000;0.069897
6372.000000;0.069278
6371.000000;0.068663
6370.000000;0.068035
6369.000000;0.067389
6368.000000;0.066743
6367.000000;0.066118
6366.000000;0.065513
6365.000000;0.064908
6364.000000;0.064292
6363.000000;0.063665
6362.000000;0.063026
6361.000000;0.062379
6360.000000;0.061751
6359.000000;0.061168
6358.000000;0.060626
6357.000000;0.060096
6356.000000;0.059560
6355.000000;0.059018
6354.000000;0.058463
6353.000000;0.057884
6352.000000;0.057293
6351.000000;0.056722
6350.000000;0.056191
6349.000000;0.055679
6348.000000;0.055159
6347.000000;0.054629
6346.000000;0.054098
6345.000000;0.053566
6344.000000;0.053027
6343.000000;0.052485
6342.000000;0.051950
6341.000000;0.051421
6340.000000;0.050888
6339.000000;0.050351
6338.000000;0.049820
6337.000000;0.049301
6336.000000;0.048790
6335.000000;0.048280
6334.000000;0.047766
6333.000000;0.047259
6332.000000;0.046767
6331.000000;0.046292
6330.000000;0.045820
6329.000000;0.045330
6328.000000;0.044817
6327.000000;0.044287
6326.000000;0.043763
6325.000000;0.043272
6324.000000;0.042828
6323.000000;0.042419
6322.000000;0.042007
6321.000000;0.041550
6320.000000;0.041035
6319.000000;0.040478
6318.000000;0.039916
6317.000000;0.039390
6316.000000;0.038923
6315.000000;0.038502
6314.000000;0.038092
6313.000000;0.037666
6312.000000;0.037227
6311.000000;0.036787
6310.000000;0.036343
6309.000000;0.035893
6308.000000;0.035453
6307.000000;0.035035
6306.000000;0.034623
6305.000000;0.034185
6304.000000;0.033713
6303.000000;0.033232
6302.000000;0.032770
6301.000000;0.032337
6300.000000;0.031922
6299.000000;0.031508
6298.000000;0.031079
6297.000000;0.030635
6296.000000;0.030195
6295.000000;0.029775
6294.000000;0.029374
6293.000000;0.028990
6292.000000;0.028629
6291.000000;0.028286
6290.000000;0.027931
6289.000000;0.027529
6288.000000;0.027089
6287.000000;0.026648
6286.000000;0.026236
6285.000000;0.025851
6284.000000;0.025483
6283.000000;0.025127
6282.000000;0.024779
6281.000000;0.024427
6280.000000;0.024065
6279.000000;0.023694
6278.000000;0.023316
6277.000000;0.022928
6276.000000;0.022539
6275.000000;0.022169
6274.000000;0.021824
6273.000000;0.021488
6272.000000;0.021137
6271.000000;0.020757
6270.000000;0.020353
6269.000000;0.019942
6268.000000;0.019547
6267.000000;0.019183
6266.000000;0.018842
6265.000000;0.018503
6264.000000;0.018149
6263.000000;0.017782
6262.000000;0.017414
6261.000000;0.017056
6260.000000;0.016710
6259.000000;0.016368
6258.000000;0.016019
6257.000000;0.015655
6256.000000;0.015278
6255.000000;0.014898
6254.000000;0.014534
6253.000000;0.014212
6252.000000;0.013947
6251.000000;0.013714
6250.000000;0.013460
6249.000000;0.013156
6248.000000;0.012822
6247.000000;0.012494
6246.000000;0.012179
6245.000000;0.011860
6244.000000;0.011534
6243.000000;0.011208
6242.000000;0.010887
6241.000000;0.010566
6240.000000;0.010240
6239.000000;0.009907
6238.000000;0.009568
6237.000000;0.009226
6236.000000;0.008899
6235.000000;0.008603
6234.000000;0.008336
6233.000000;0.008087
6232.000000;0.007844
6231.000000;0.007597
6230.000000;0.007329
6229.000000;0.007032
6228.000000;0.006723
6227.000000;0.006427
6226.000000;0.006150
6225.000000;0.005877
6224.000000;0.005596
6223.000000;0.005309
6222.000000;0.005025
6221.000000;0.004747
6220.000000;0.004477
6219.000000;0.004215
6218.000000;0.003957
6217.000000;0.003707
6216.000000;0.003467
6215.000000;0.003230
6214.000000;0.002983
6213.000000;0.002727
6212.000000;0.002473
6211.000000;0.002222
6210.000000;0.001960
6209.000000;0.001692
6208.000000;0.001443
6207.000000;0.001222
6206.000000;0.000998
6205.000000;0.000730
6204.000000;0.000409
6203.000000;0.000061
6202.000000;-0.000275
6201.000000;-0.000567
6200.000000;-0.000801
6199.000000;-0.001005
6198.000000;-0.001234
6197.000000;-0.001517
6196.000000;-0.001820
6195.000000;-0.002095
6194.000000;-0.002328
6193.000000;-0.002537
6192.000000;-0.002733
6191.000000;-0.002923
6190.000000;-0.003132
6189.000000;-0.003390
6188.000000;-0.003690
6187.000000;-0.003991
6186.000000;-0.004257
6185.000000;-0.004474
6184.000000;-0.004634
6183.000000;-0.004741
6182.000000;-0.004828
6181.000000;-0.004937
6180.000000;-0.005090
6179.000000;-0.005280
6178.000000;-0.005503
6177.000000;-0.005765
6176.000000;-0.006064
6175.000000;-0.006380
6174.000000;-0.006691
6173.000000;-0.006980
6172.000000;-0.007227
6171.000000;-0.007413
6170.000000;-0.007559
6169.000000;-0.007710
6168.000000;-0.007896
6167.000000;-0.008108
6166.000000;-0.008324
6165.000000;-0.008534
6164.000000;-0.008748
6163.000000;-0.008974
6162.000000;-0.009209
6161.000000;-0.009433
6160.000000;-0.009622
6159.000000;-0.009771
6158.000000;-0.009911
6157.000000;-0.010082
6156.000000;-0.010291
6155.000000;-0.010512
6154.000000;-0.010719
6153.000000;-0.010903
6152.000000;-0.011066
6151.000000;-0.011214
6150.000000;-0.011355
6149.000000;-0.011500
6148.000000;-0.011659
6147.000000;-0.011837
6146.000000;-0.012038
6145.000000;-0.012256
6144.000000;-0.012469
6143.000000;-0.012652
6142.000000;-0.012807
6141.000000;-0.012952
6140.000000;-0.013102
6139.000000;-0.013264
6138.000000;-0.013439
6137.000000;-0.013618
6136.000000;-0.013782
6135.000000;-0.013918
6134.000000;-0.014045
6133.000000;-0.014203
6132.000000;-0.014415
6131.000000;-0.014662
6130.000000;-0.014903
6129.000000;-0.015102
6128.000000;-0.015251
6127.000000;-0.015375
6126.000000;-0.015503
6125.000000;-0.015636
6124.000000;-0.015756
6123.000000;-0.015864
6122.000000;-0.015992
6121.000000;-0.016163
6120.000000;-0.016357
6119.000000;-0.016539
6118.000000;-0.016699
6117.000000;-0.016853
6116.000000;-0.017009
6115.000000;-0.017159
6114.000000;-0.017307
6113.000000;-0.017463
6112.000000;-0.017621
6111.000000;-0.017770
6110.000000;-0.017909
6109.000000;-0.018049
6108.000000;-0.018191
6107.000000;-0.018323
6106.000000;-0.018442
6105.000000;-0.018550
6104.000000;-0.018652
6103.000000;-0.018760
6102.000000;-0.018892
6101.000000;-0.019051
6100.000000;-0.019213
6099.000000;-0.019354
6098.000000;-0.019483
6097.000000;-0.019618
6096.000000;-0.019755
6095.000000;-0.019872
6094.000000;-0.019974
6093.000000;-0.020088
6092.000000;-0.020224
6091.000000;-0.020364
6090.000000;-0.020489
6089.000000;-0.020599
6088.000000;-0.020700
6087.000000;-0.020788
6086.000000;-0.020865
6085.000000;-0.020937
6084.000000;-0.021016
6083.000000;-0.021107
6082.000000;-0.021210
6081.000000;-0.021314
6080.000000;-0.021409
6079.000000;-0.021501
6078.000000;-0.021617
6077.000000;-0.021767
6076.000000;-0.021928
6075.000000;-0.022069
6074.000000;-0.022196
6073.000000;-0.022324
6072.000000;-0.022442
6071.000000;-0.022519
6070.000000;-0.022552
6069.000000;-0.022572
6068.000000;-0.022601
6067.000000;-0.022644
6066.000000;-0.022704
6065.000000;-0.022794
6064.000000;-0.022918
6063.000000;-0.023061
6062.000000;-0.023207
6061.000000;-0.023341
6060.000000;-0.023449
6059.000000;-0.023524
6058.000000;-0.023585
6057.000000;-0.023651
6056.000000;-0.023724
6055.000000;-0.023797
6054.000000;-0.023879
6053.000000;-0.023983
6052.000000;-0.024096
6051.000000;-0.024182
6050.000000;-0.024232
6049.000000;-0.024268
6048.000000;-0.024310
6047.000000;-0.024356
6046.000000;-0.024402
6045.000000;-0.024451
6044.000000;-0.024501
6043.000000;-0.024547
6042.000000;-0.024589
6041.000000;-0.024637
6040.000000;-0.024695
6039.000000;-0.024761
6038.000000;-0.024831
6037.000000;-0.024900
6036.000000;-0.024954
6035.000000;-0.024985
6034.000000;-0.025006
6033.000000;-0.025041
6032.000000;-0.025098
6031.000000;-0.025169
6030.000000;-0.025245
6029.000000;-0.025322
6028.000000;-0.025394
6027.000000;-0.025458
6026.000000;-0.025521
6025.000000;-0.025589
6024.000000;-0.025650
6023.000000;-0.025686
6022.000000;-0.025702
6021.000000;-0.025715
6020.000000;-0.025732
6019.000000;-0.025752
6018.000000;-0.025778
6017.000000;-0.025815
6016.000000;-0.025849
6015.000000;-0.025864
6014.000000;-0.025865
6013.000000;-0.025877
6012.000000;-0.025908
6011.000000;-0.025948
6010.000000;-0.025987
6009.000000;-0.026020
6008.000000;-0.026041
6007.000000;-0.026046
6006.000000;-0.026053
6005.000000;-0.026082
6004.000000;-0.026131
6003.000000;-0.026175
6002.000000;-0.026196
6001.000000;-0.026187
6000.000000;-0.026143
5999.000000;-0.026075
5998.000000;-0.026013
5997.000000;-0.025986
5996.000000;-0.025990
5995.000000;-0.026002
5994.000000;-0.026014
5993.000000;-0.026034
5992.000000;-0.026051
5991.000000;-0.026045
5990.000000;-0.026023
5989.000000;-0.026013
5988.000000;-0.026024
5987.000000;-0.026042
5986.000000;-0.026060
5985.000000;-0.026094
5984.000000;-0.026150
5983.000000;-0.026212
5982.000000;-0.026263
5981.000000;-0.026293
5980.000000;-0.026295
5979.000000;-0.026262
5978.000000;-0.026211
5977.000000;-0.026163
5976.000000;-0.026113
5975.000000;-0.026031
5974.000000;-0.025916
5973.000000;-0.025806
5972.000000;-0.025737
5971.000000;-0.025703
5970.000000;-0.025685
5969.000000;-0.025673
5968.000000;-0.025664
5967.000000;-0.025641
5966.000000;-0.025586
5965.000000;-0.025499
5964.000000;-0.025403
5963.000000;-0.025331
5962.000000;-0.025303
5961.000000;-0.025310
5960.000000;-0.025314
5959.000000;-0.025279
5958.000000;-0.025201
5957.000000;-0.025098
5956.000000;-0.024984
5955.000000;-0.024867
5954.000000;-0.024765
5953.000000;-0.024693
5952.000000;-0.024643
5951.000000;-0.024595
5950.000000;-0.024539
5949.000000;-0.024485
5948.000000;-0.024436
5947.000000;-0.024385
5946.000000;-0.024327
5945.000000;-0.024264
5944.000000;-0.024195
5943.000000;-0.024120
5942.000000;-0.024048
5941.000000;-0.023987
5940.000000;-0.023929
5939.000000;-0.023857
5938.000000;-0.023778
5937.000000;-0.023710
5936.000000;-0.023658
5935.000000;-0.023606
5934.000000;-0.023541
5933.000000;-0.023463
5932.000000;-0.023371
5931.000000;-0.023257
5930.000000;-0.023124
5929.000000;-0.022976
5928.000000;-0.022820
5927.000000;-0.022667
5926.000000;-0.022542
5925.000000;-0.022455
5924.000000;-0.022390
5923.000000;-0.022312
5922.000000;-0.022207
5921.000000;-0.022082
5920.000000;-0.021944
5919.000000;-0.021807
5918.000000;-0.021694
5917.000000;-0.021618
5916.000000;-0.021561
5915.000000;-0.021495
5914.000000;-0.021418
5913.000000;-0.021342
5912.000000;-0.021258
5911.000000;-0.021156
5910.000000;-0.021051
5909.000000;-0.020968
5908.000000;-0.020899
5907.000000;-0.020814
5906.000000;-0.020711
5905.000000;-0.020611
5904.000000;-0.020509
5903.000000;-0.020369
5902.000000;-0.020185
5901.000000;-0.019997
5900.000000;-0.019843
5899.000000;-0.019720
5898.000000;-0.019608
5897.000000;-0.019499
5896.000000;-0.019387
5895.000000;-0.019257
5894.000000;-0.019109
5893.000000;-0.018959
5892.000000;-0.018821
5891.000000;-0.018687
5890.000000;-0.018546
5889.000000;-0.018397
5888.000000;-0.018243
5887.000000;-0.018084
5886.000000;-0.017923
5885.000000;-0.017771
5884.000000;-0.017619
5883.000000;-0.017455
5882.000000;-0.017290
5881.000000;-0.017152
5880.000000;-0.017041
5879.000000;-0.016922
5878.000000;-0.016761
5877.000000;-0.016559
5876.000000;-0.016339
5875.000000;-0.016121
5874.000000;-0.015927
5873.000000;-0.015775
5872.000000;-0.015653
5871.000000;-0.015519
5870.000000;-0.015341
5869.000000;-0.015126
5868.000000;-0.014897
5867.000000;-0.014669
5866.000000;-0.014453
5865.000000;-0.014258
5864.000000;-0.014084
5863.000000;-0.013912
5862.000000;-0.013730
5861.000000;-0.013535
5860.000000;-0.013331
5859.000000;-0.013111
5858.000000;-0.012868
5857.000000;-0.012612
5856.000000;-0.012360
5855.000000;-0.012118
5854.000000;-0.011886
5853.000000;-0.011662
5852.000000;-0.011444
5851.000000;-0.011229
5850.000000;-0.011013
5849.000000;-0.010784
5848.000000;-0.010528
5847.000000;-0.010254
5846.000000;-0.009997
5845.000000;-0.009782
5844.000000;-0.009590
5843.000000;-0.009375
5842.000000;-0.009115
5841.000000;-0.008826
5840.000000;-0.008533
5839.000000;-0.008247
5838.000000;-0.007973
5837.000000;-0.007712
5836.000000;-0.007452
5835.000000;-0.007173
5834.000000;-0.006876
5833.000000;-0.006576
5832.000000;-0.006285
5831.000000;-0.006004
5830.000000;-0.005732
5829.000000;-0.005471
5828.000000;-0.005219
5827.000000;-0.004964
5826.000000;-0.004699
5825.000000;-0.004426
5824.000000;-0.004146
5823.000000;-0.003859
5822.000000;-0.003569
5821.000000;-0.003274
5820.000000;-0.002964
5819.000000;-0.002632
5818.000000;-0.002290
5817.000000;-0.001958
5816.000000;-0.001633
5815.000000;-0.001299
5814.000000;-0.000955
5813.000000;-0.000614
5812.000000;-0.000281
5811.000000;0.000045
5810.000000;0.000361
5809.000000;0.000663
5808.000000;0.000959
5807.000000;0.001270
5806.000000;0.001607
5805.000000;0.001965
5804.000000;0.002332
5803.000000;0.002699
5802.000000;0.003057
5801.000000;0.003411
5800.000000;0.003783
5799.000000;0.004190
5798.000000;0.004621
5797.000000;0.005050
5796.000000;0.005460
5795.000000;0.005849
5794.000000;0.006215
5793.000000;0.006571
5792.000000;0.006945
5791.000000;0.007350
5790.000000;0.007768
5789.000000;0.008182
5788.000000;0.008599
5787.000000;0.009022
5786.000000;0.009425
5785.000000;0.009788
5784.000000;0.010139
5783.000000;0.010522
5782.000000;0.010943
5781.000000;0.011373
5780.000000;0.011801
5779.000000;0.012240
5778.000000;0.012692
5777.000000;0.013142
5776.000000;0.013582
5775.000000;0.014022
5774.000000;0.014460
5773.000000;0.014894
5772.000000;0.015336
5771.000000;0.015798
5770.000000;0.016269
5769.000000;0.016724
5768.000000;0.017160
5767.000000;0.017594
5766.000000;0.018029
5765.000000;0.018462
5764.000000;0.018907
5763.000000;0.019381
5762.000000;0.019873
5761.000000;0.020355
5760.000000;0.020835
5759.000000;0.021345
5758.000000;0.021891
5757.000000;0.022440
5756.000000;0.022973
5755.000000;0.023500
5754.000000;0.024042
5753.000000;0.024600
5752.000000;0.025160
5751.000000;0.025706
5750.000000;0.026214
5749.000000;0.026684
5748.000000;0.027146
5747.000000;0.027641
5746.000000;0.028182
5745.000000;0.028758
5744.000000;0.029363
5743.000000;0.029985
5742.000000;0.030586
5741.000000;0.031138
5740.000000;0.031658
5739.000000;0.032187
5738.000000;0.032736
5737.000000;0.033286
5736.000000;0.033829
5735.000000;0.034382
5734.000000;0.034950
5733.000000;0.035531
5732.000000;0.036143
5731.000000;0.036803
5730.000000;0.037483
5729.000000;0.038129
5728.000000;0.038725
5727.000000;0.039308
5726.000000;0.039910
5725.000000;0.040525
5724.000000;0.041147
5723.000000;0.041780
5722.000000;0.042423
5721.000000;0.043062
5720.000000;0.043690
5719.000000;0.044317
5718.000000;0.044942
5717.000000;0.045567
5716.000000;0.046221
5715.000000;0.046934
5714.000000;0.047700
5713.000000;0.048479
5712.000000;0.049243
5711.000000;0.049979
5710.000000;0.050664
5709.000000;0.051286
5708.000000;0.051879
5707.000000;0.052500
5706.000000;0.053159
5705.000000;0.053819
5704.000000;0.054466
5703.000000;0.055132
5702.000000;0.055842
5701.000000;0.056578
5700.000000;0.057317
5699.000000;0.058047
5698.000000;0.058755
5697.000000;0.059423
5696.000000;0.060061
5695.000000;0.060708
5694.000000;0.061367
5693.000000;0.062049
5692.000000;0.062714
5691.000000;0.063366
5690.000000;0.064019
5689.000000;0.064680
5688.000000;0.065364
5687.000000;0.066088
5686.000000;0.066844
5685.000000;0.067591
5684.000000;0.068298
5683.000000;0.068965
5682.000000;0.069617
5681.000000;0.070291
5680.000000;0.071017
5679.000000;0.071787
5678.000000;0.072553
5677.000000;0.073273
5676.000000;0.073966
5675.000000;0.074677
5674.000000;0.075409
5673.000000;0.076134
5672.000000;0.076855
5671.000000;0.077605
5670.000000;0.078388
5669.000000;0.079157
5668.000000;0.079873
5667.000000;0.080546
5666.000000;0.081207
5665.000000;0.081877
5664.000000;0.082567
5663.000000;0.083274
5662.000000;0.083969
5661.000000;0.084617
5660.000000;0.085219
5659.000000;0.085805
5658.000000;0.086391
5657.000000;0.086983
5656.000000;0.087604
5655.000000;0.088281
5654.000000;0.088988
5653.000000;0.089666
5652.000000;0.090294
5651.000000;0.090903
5650.000000;0.091520
5649.000000;0.092137
5648.000000;0.092740
5647.000000;0.093335
5646.000000;0.093925
5645.000000;0.094505
5644.000000;0.095091
5643.000000;0.095707
5642.000000;0.096345
5641.000000;0.096967
5640.000000;0.097547
5639.000000;0.098099
5638.000000;0.098641
5637.000000;0.099187
5636.000000;0.099751
5635.000000;0.100337
5634.000000;0.100919
5633.000000;0.101468
5632.000000;0.101996
5631.000000;0.102533
5630.000000;0.103076
5629.000000;0.103590
5628.000000;0.104067
5627.000000;0.104527
5626.000000;0.104974
5625.000000;0.105398
5624.000000;0.105809
5623.000000;0.106234
5622.000000;0.106681
5621.000000;0.107127
5620.000000;0.107559
5619.000000;0.107993
5618.000000;0.108445
5617.000000;0.108918
5616.000000;0.109404
5615.000000;0.109871
5614.000000;0.110264
5613.000000;0.110560
5612.000000;0.110811
5611.000000;0.111096
5610.000000;0.111433
5609.000000;0.111788
5608.000000;0.112144
5607.000000;0.112516
5606.000000;0.112897
5605.000000;0.113257
5604.000000;0.113589
5603.000000;0.113913
5602.000000;0.114226
5601.000000;0.114510
5600.000000;0.114776
5599.000000;0.115053
5598.000000;0.115341
5597.000000;0.115609
5596.000000;0.115860
5595.000000;0.116129
5594.000000;0.116418
5593.000000;0.116688
5592.000000;0.116917
5591.000000;0.117123
5590.000000;0.117315
5589.000000;0.117489
5588.000000;0.117665
5587.000000;0.117866
5586.000000;0.118071
5585.000000;0.118235
5584.000000;0.118362
5583.000000;0.118497
5582.000000;0.118641
5581.000000;0.118759
5580.000000;0.118851
5579.000000;0.118959
5578.000000;0.119099
5577.000000;0.119233
5576.000000;0.119343
5575.000000;0.119441
5574.000000;0.119518
5573.000000;0.119558
5572.000000;0.119596
5571.000000;0.119694
5570.000000;0.119849
5569.000000;0.119996
5568.000000;0.120107
5567.000000;0.120210
5566.000000;0.120312
5565.000000;0.120374
5564.000000;0.120384
5563.000000;0.120382
5562.000000;0.120389
5561.000000;0.120386
5560.000000;0.120380
5559.000000;0.120404
5558.000000;0.120444
5557.000000;0.120454
5556.000000;0.120448
5555.000000;0.120489
5554.000000;0.120574
5553.000000;0.120638
5552.000000;0.120666
5551.000000;0.120711
5550.000000;0.120782
5549.000000;0.120825
5548.000000;0.120823
5547.000000;0.120820
5546.000000;0.120818
5545.000000;0.120769
5544.000000;0.120685
5543.000000;0.120657
5542.000000;0.120723
5541.000000;0.120832
5540.000000;0.120942
5539.000000;0.121036
5538.000000;0.121071
5537.000000;0.121007
5536.000000;0.120895
5535.000000;0.120831
5534.000000;0.120823
5533.000000;0.120805
5532.000000;0.120777
5531.000000;0.120812
5530.000000;0.120923
5529.000000;0.121031
5528.000000;0.121075
5527.000000;0.121078
5526.000000;0.121081
5525.000000;0.121070
5524.000000;0.121043
5523.000000;0.121022
5522.000000;0.121000
5521.000000;0.120967
5520.000000;0.120951
5519.000000;0.120978
5518.000000;0.121009
5517.000000;0.120977
5516.000000;0.120906
5515.000000;0.120878
5514.000000;0.120878
5513.000000;0.120835
5512.000000;0.120783
5511.000000;0.120824
5510.000000;0.120945
5509.000000;0.121020
5508.000000;0.121004
5507.000000;0.121000
5506.000000;0.121088
5505.000000;0.121208
5504.000000;0.121306
5503.000000;0.121412
5502.000000;0.121516
5501.000000;0.121593
5500.000000;0.121660
5499.000000;0.121743
5498.000000;0.121878
5497.000000;0.122068
5496.000000;0.122290
5495.000000;0.122491
5494.000000;0.122620
5493.000000;0.122709
5492.000000;0.122865
5491.000000;0.123131
5490.000000;0.123380
5489.000000;0.123484
5488.000000;0.123508
5487.000000;0.123609
5486.000000;0.123800
5485.000000;0.123931
5484.000000;0.123975
5483.000000;0.124104
5482.000000;0.124339
5481.000000;0.124559
5480.000000;0.124788
5479.000000;0.125128
5478.000000;0.125557
5477.000000;0.125896
5476.000000;0.126048
5475.000000;0.126102
5474.000000;0.126184
5473.000000;0.126327
5472.000000;0.126503
5471.000000;0.126709
5470.000000;0.126945
5469.000000;0.127268
5468.000000;0.127757
5467.000000;0.128341
5466.000000;0.128816
5465.000000;0.129133
5464.000000;0.129505
5463.000000;0.130080
5462.000000;0.130623
5461.000000;0.130934
5460.000000;0.131243
5459.000000;0.131739
5458.000000;0.132196
5457.000000;0.132459
5456.000000;0.132781
5455.000000;0.133361
5454.000000;0.134060
5453.000000;0.134713
5452.000000;0.135370
5451.000000;0.136064
5450.000000;0.136665
5449.000000;0.137244
5448.000000;0.137976
5447.000000;0.138701
5446.000000;0.139183
5445.000000;0.139611
5444.000000;0.140301
5443.000000;0.141170
5442.000000;0.141853
5441.000000;0.142346
5440.000000;0.143084
5439.000000;0.144242
5438.000000;0.145427
5437.000000;0.146352
5436.000000;0.147189
5435.000000;0.148102
5434.000000;0.149073
5433.000000;0.150169
5432.000000;0.151360
5431.000000;0.152395
5430.000000;0.153230
5429.000000;0.154169
5428.000000;0.155380
5427.000000;0.156689
5426.000000;0.157864
5425.000000;0.158899
5424.000000;0.159988
5423.000000;0.161274
5422.000000;0.162763
5421.000000;0.164354
5420.000000;0.165910
5419.000000;0.167429
5418.000000;0.168979
5417.000000;0.170607
5416.000000;0.172312
5415.000000;0.174038
5414.000000;0.175722
5413.000000;0.177327
5412.000000;0.178885
5411.000000;0.180407
5410.000000;0.181927
5409.000000;0.183649
5408.000000;0.185740
5407.000000;0.188036
5406.000000;0.190203
5405.000000;0.192207
5404.000000;0.194336
5403.000000;0.196649
5402.000000;0.199060
5401.000000;0.201526
5400.000000;0.203942
5399.000000;0.206346
5398.000000;0.208904
5397.000000;0.211658
5396.000000;0.214522
5395.000000;0.217389
5394.000000;0.220270
5393.000000;0.223221
5392.000000;0.226290
5391.000000;0.229526
5390.000000;0.232870
5389.000000;0.236203
5388.000000;0.239525
5387.000000;0.242958
5386.000000;0.246507
5385.000000;0.250152
5384.000000;0.253920
5383.000000;0.257771
5382.000000;0.261756
5381.000000;0.265972
5380.000000;0.270311
5379.000000;0.274654
5378.000000;0.279087
5377.000000;0.283663
5376.000000;0.288292
5375.000000;0.293000
5374.000000;0.297975
5373.000000;0.303171
5372.000000;0.308347
5371.000000;0.313517
5370.000000;0.318919
5369.000000;0.324621
5368.000000;0.330468
5367.000000;0.336399
5366.000000;0.342500
5365.000000;0.348841
5364.000000;0.355318
5363.000000;0.361839
5362.000000;0.368564
5361.000000;0.375552
5360.000000;0.382594
5359.000000;0.389672
5358.000000;0.397048
5357.000000;0.404770
5356.000000;0.412533
5355.000000;0.420236
5354.000000;0.428185
5353.000000;0.436626
5352.000000;0.445333
5351.000000;0.453887
5350.000000;0.462333
5349.000000;0.471132
5348.000000;0.480393
5347.000000;0.489851
5346.000000;0.499463
5345.000000;0.509319
5344.000000;0.519295
5343.000000;0.529245
5342.000000;0.539188
5341.000000;0.549026
5340.000000;0.558819
5339.000000;0.569086
5338.000000;0.580186
5337.000000;0.591772
5336.000000;0.603105
5335.000000;0.613843
5334.000000;0.624347
5333.000000;0.635270
5332.000000;0.646719
5331.000000;0.658167
5330.000000;0.669333
5329.000000;0.680410
5328.000000;0.691562
5327.000000;0.702907
5326.000000;0.714600
5325.000000;0.726401
5324.000000;0.737728
5323.000000;0.748471
5322.000000;0.759208
5321.000000;0.770297
5320.000000;0.781290
5319.000000;0.791610
5318.000000;0.801358
5317.000000;0.810951
5316.000000;0.820431
5315.000000;0.829677
5314.000000;0.838751
5313.000000;0.847706
5312.000000;0.856345
5311.000000;0.864446
5310.000000;0.872122
5309.000000;0.879655
5308.000000;0.887075
5307.000000;0.894182
5306.000000;0.900854
5305.000000;0.907038
5304.000000;0.912616
5303.000000;0.917632
5302.000000;0.922426
5301.000000;0.927217
5300.000000;0.931794
5299.000000;0.935947
5298.000000;0.939887
5297.000000;0.943804
5296.000000;0.947489
5295.000000;0.950749
5294.000000;0.953635
5293.000000;0.956219
5292.000000;0.958481
5291.000000;0.960549
5290.000000;0.962664
5289.000000;0.964722
5288.000000;0.966302
5287.000000;0.967304
5286.000000;0.968231
5285.000000;0.969543
5284.000000;0.970997
5283.000000;0.972113
5282.000000;0.972926
5281.000000;0.973768
5280.000000;0.974668
5279.000000;0.975444
5278.000000;0.976115
5277.000000;0.976763
5276.000000;0.977279
5275.000000;0.977681
5274.000000;0.978250
5273.000000;0.979024
5272.000000;0.979683
5271.000000;0.980037
5270.000000;0.980365
5269.000000;0.980998
5268.000000;0.981732
5267.000000;0.982161
5266.000000;0.982374
5265.000000;0.982786
5264.000000;0.983378
5263.000000;0.983758
5262.000000;0.983778
5261.000000;0.983569
5260.000000;0.983236
5259.000000;0.982862
5258.000000;0.982536
5257.000000;0.982352
5256.000000;0.982491
5255.000000;0.983118
5254.000000;0.984108
5253.000000;0.984897
5252.000000;0.984973
5251.000000;0.984385
5250.000000;0.983804
5249.000000;0.983925
5248.000000;0.984556
5247.000000;0.984892
5246.000000;0.984574
5245.000000;0.983973
5244.000000;0.983631
5243.000000;0.983814
5242.000000;0.984370
5241.000000;0.984874
5240.000000;0.985078
5239.000000;0.985164
5238.000000;0.985356
5237.000000;0.985539
5236.000000;0.985533
5235.000000;0.985384
5234.000000;0.985324
5233.000000;0.985542
5232.000000;0.985983
5231.000000;0.986430
5230.000000;0.986726
5229.000000;0.986798
5228.000000;0.986599
5227.000000;0.986319
5226.000000;0.986393
5225.000000;0.986959
5224.000000;0.987568
5223.000000;0.987696
5222.000000;0.987344
5221.000000;0.986934
5220.000000;0.986758
5219.000000;0.986775
5218.000000;0.986804
5217.000000;0.986799
5216.000000;0.986798
5215.000000;0.986812
5214.000000;0.986918
5213.000000;0.987129
5212.000000;0.987258
5211.000000;0.987255
5210.000000;0.987375
5209.000000;0.987773
5208.000000;0.988256
5207.000000;0.988600
5206.000000;0.988766
5205.000000;0.988681
5204.000000;0.988140
5203.000000;0.987205
5202.000000;0.986412
5201.000000;0.986203
5200.000000;0.986417
5199.000000;0.986657
5198.000000;0.986830
5197.000000;0.987058
5196.000000;0.987244
5195.000000;0.987183
5194.000000;0.986999
5193.000000;0.986980
5192.000000;0.987162
5191.000000;0.987419
5190.000000;0.987680
5189.000000;0.987831
5188.000000;0.987706
5187.000000;0.987398
5186.000000;0.987280
5185.000000;0.987472
5184.000000;0.987585
5183.000000;0.987317
5182.000000;0.986969
5181.000000;0.986964
5180.000000;0.987175
5179.000000;0.987179
5178.000000;0.986917
5177.000000;0.986672
5176.000000;0.986579
5175.000000;0.986566
5174.000000;0.986624
5173.000000;0.986811
5172.000000;0.987063
5171.000000;0.987251
5170.000000;0.987305
5169.000000;0.987108
5168.000000;0.986498
5167.000000;0.985615
5166.000000;0.984975
5165.000000;0.984931
5164.000000;0.985240
5163.000000;0.985455
5162.000000;0.985501
5161.000000;0.985560
5160.000000;0.985624
5159.000000;0.985566
5158.000000;0.985465
5157.000000;0.985493
5156.000000;0.985637
5155.000000;0.985755
5154.000000;0.985763
5153.000000;0.985581
5152.000000;0.985129
5151.000000;0.984522
5150.000000;0.984091
5149.000000;0.984060
5148.000000;0.984324
5147.000000;0.984675
5146.000000;0.985020
5145.000000;0.985295
5144.000000;0.985343
5143.000000;0.985117
5142.000000;0.984838
5141.000000;0.984683
5140.000000;0.984593
5139.000000;0.984486
5138.000000;0.984474
5137.000000;0.984647
5136.000000;0.984866
5135.000000;0.985009
5134.000000;0.985177
5133.000000;0.985425
5132.000000;0.985521
5131.000000;0.985262
5130.000000;0.984844
5129.000000;0.984632
5128.000000;0.984693
5127.000000;0.984815
5126.000000;0.984813
5125.000000;0.984607
5124.000000;0.984192
5123.000000;0.983749
5122.000000;0.983598
5121.000000;0.983850
5120.000000;0.984208
5119.000000;0.984330
5118.000000;0.984217
5117.000000;0.984072
5116.000000;0.983967
5115.000000;0.983847
5114.000000;0.983699
5113.000000;0.983499
5112.000000;0.983154
5111.000000;0.982677
5110.000000;0.982272
5109.000000;0.982080
5108.000000;0.981999
5107.000000;0.981891
5106.000000;0.981787
5105.000000;0.981759
5104.000000;0.981754
5103.000000;0.981696
5102.000000;0.981605
5101.000000;0.981480
5100.000000;0.981263
5099.000000;0.981031
5098.000000;0.981024
5097.000000;0.981304
5096.000000;0.981581
5095.000000;0.981553
5094.000000;0.981256
5093.000000;0.980934
5092.000000;0.980729
5091.000000;0.980656
5090.000000;0.980678
5089.000000;0.980670
5088.000000;0.980491
5087.000000;0.980215
5086.000000;0.980120
5085.000000;0.980295
5084.000000;0.980492
5083.000000;0.980453
5082.000000;0.980178
5081.000000;0.979743
5080.000000;0.979136
5079.000000;0.978452
5078.000000;0.977991
5077.000000;0.977893
5076.000000;0.977924
5075.000000;0.977824
5074.000000;0.977686
5073.000000;0.977735
5072.000000;0.977938
5071.000000;0.978060
5070.000000;0.977981
5069.000000;0.977737
5068.000000;0.977399
5067.000000;0.977096
5066.000000;0.976989
5065.000000;0.977039
5064.000000;0.976964
5063.000000;0.976591
5062.000000;0.976097
5061.000000;0.975731
5060.000000;0.975512
5059.000000;0.975396
5058.000000;0.975490
5057.000000;0.975827
5056.000000;0.976105
5055.000000;0.975968
5054.000000;0.975455
5053.000000;0.974911
5052.000000;0.974546
5051.000000;0.974310
5050.000000;0.974110
5049.000000;0.973915
5048.000000;0.973678
5047.000000;0.973342
5046.000000;0.972928
5045.000000;0.972508
5044.000000;0.972130
5043.000000;0.971852
5042.000000;0.971757
5041.000000;0.971831
5040.000000;0.971939
5039.000000;0.971984
5038.000000;0.971981
5037.000000;0.971904
5036.000000;0.971652
5035.000000;0.971262
5034.000000;0.970930
5033.000000;0.970721
5032.000000;0.970446
5031.000000;0.969975
5030.000000;0.969450
5029.000000;0.969026
5028.000000;0.968604
5027.000000;0.968031
5026.000000;0.967414
5025.000000;0.967010
5024.000000;0.966904
5023.000000;0.966954
5022.000000;0.966951
5021.000000;0.966698
5020.000000;0.966080
5019.000000;0.965227
5018.000000;0.964497
5017.000000;0.964126
5016.000000;0.964020
5015.000000;0.963986
5014.000000;0.964013
5013.000000;0.964131
5012.000000;0.964180
5011.000000;0.963938
5010.000000;0.963404
5009.000000;0.962760
5008.000000;0.962120
5007.000000;0.961491
5006.000000;0.960902
5005.000000;0.960404
5004.000000;0.959973
5003.000000;0.959559
5002.000000;0.959187
5001.000000;0.958922
5000.000000;0.958769
4999.000000;0.958667
4998.000000;0.958503
4997.000000;0.958120
4996.000000;0.957427
4995.000000;0.956569
4994.000000;0.955881
4993.000000;0.955561
4992.000000;0.955516
4991.000000;0.955531
4990.000000;0.955436
4989.000000;0.955066
4988.000000;0.954277
4987.000000;0.953149
4986.000000;0.952010
4985.000000;0.951122
4984.000000;0.950464
4983.000000;0.949883
4982.000000;0.949295
4981.000000;0.948651
4980.000000;0.947890
4979.000000;0.947094
4978.000000;0.946501
4977.000000;0.946209
4976.000000;0.945987
4975.000000;0.945517
4974.000000;0.944742
4973.000000;0.943821
4972.000000;0.942898
4971.000000;0.942068
4970.000000;0.941429
4969.000000;0.941006
4968.000000;0.940661
4967.000000;0.940242
4966.000000;0.939742
4965.000000;0.939214
4964.000000;0.938618
4963.000000;0.937854
4962.000000;0.936902
4961.000000;0.935820
4960.000000;0.934673
4959.000000;0.933544
4958.000000;0.932550
4957.000000;0.931749
4956.000000;0.931112
4955.000000;0.930578
4954.000000;0.930076
4953.000000;0.929424
4952.000000;0.928390
4951.000000;0.926964
4950.000000;0.925454
4949.000000;0.924243
4948.000000;0.923466
4947.000000;0.922975
4946.000000;0.922481
4945.000000;0.921722
4944.000000;0.920618
4943.000000;0.919367
4942.000000;0.918286
4941.000000;0.917506
4940.000000;0.916899
4939.000000;0.916294
4938.000000;0.915629
4937.000000;0.914872
4936.000000;0.913974
4935.000000;0.912970
4934.000000;0.911968
4933.000000;0.910981
4932.000000;0.909899
4931.000000;0.908673
4930.000000;0.907374
4929.000000;0.906029
4928.000000;0.904599
4927.000000;0.903140
4926.000000;0.901818
4925.000000;0.900674
4924.000000;0.899577
4923.000000;0.898468
4922.000000;0.897434
4921.000000;0.896470
4920.000000;0.895402
4919.000000;0.894177
4918.000000;0.892993
4917.000000;0.892005
4916.000000;0.891082
4915.000000;0.890002
4914.000000;0.888714
4913.000000;0.887272
4912.000000;0.885698
4911.000000;0.884093
4910.000000;0.882705
4909.000000;0.881681
4908.000000;0.880875
4907.000000;0.880049
4906.000000;0.879119
4905.000000;0.878058
4904.000000;0.876754
4903.000000;0.875187
4902.000000;0.873606
4901.000000;0.872261
4900.000000;0.871072
4899.000000;0.869762
4898.000000;0.868267
4897.000000;0.866779
4896.000000;0.865422
4895.000000;0.864087
4894.000000;0.862613
4893.000000;0.860978
4892.000000;0.859310
4891.000000;0.857816
4890.000000;0.856652
4889.000000;0.855740
4888.000000;0.854744
4887.000000;0.853368
4886.000000;0.851653
4885.000000;0.849894
4884.000000;0.848308
4883.000000;0.846894
4882.000000;0.845536
4881.000000;0.844090
4880.000000;0.842413
4879.000000;0.840482
4878.000000;0.838505
4877.000000;0.836803
4876.000000;0.835527
4875.000000;0.834522
4874.000000;0.833462
4873.000000;0.832085
4872.000000;0.830358
4871.000000;0.828497
4870.000000;0.826782
4869.000000;0.825285
4868.000000;0.823822
4867.000000;0.822215
4866.000000;0.820541
4865.000000;0.819019
4864.000000;0.817720
4863.000000;0.816494
4862.000000;0.815148
4861.000000;0.813604
4860.000000;0.811879
4859.000000;0.810011
4858.000000;0.808050
4857.000000;0.806057
4856.000000;0.804121
4855.000000;0.802350
4854.000000;0.800816
4853.000000;0.799455
4852.000000;0.798078
4851.000000;0.796533
4850.000000;0.794851
4849.000000;0.793177
4848.000000;0.791609
4847.000000;0.790128
4846.000000;0.788641
4845.000000;0.787059
4844.000000;0.785352
4843.000000;0.783568
4842.000000;0.781778
4841.000000;0.779982
4840.000000;0.778136
4839.000000;0.776263
4838.000000;0.774465
4837.000000;0.772810
4836.000000;0.771251
4835.000000;0.769685
4834.000000;0.768014
4833.000000;0.766148
4832.000000;0.764072
4831.000000;0.761947
4830.000000;0.760046
4829.000000;0.758485
4828.000000;0.757097
4827.000000;0.755626
4826.000000;0.753983
4825.000000;0.752246
4824.000000;0.750481
4823.000000;0.748676
4822.000000;0.746816
4821.000000;0.744927
4820.000000;0.743065
4819.000000;0.741300
4818.000000;0.739675
4817.000000;0.738129
4816.000000;0.736503
4815.000000;0.734689
4814.000000;0.732736
4813.000000;0.730772
4812.000000;0.728864
4811.000000;0.727010
4810.000000;0.725199
4809.000000;0.723406
4808.000000;0.721534
4807.000000;0.719526
4806.000000;0.717463
4805.000000;0.715505
4804.000000;0.713713
4803.000000;0.711990
4802.000000;0.710235
4801.000000;0.708448
4800.000000;0.706693
4799.000000;0.704981
4798.000000;0.703229
4797.000000;0.701342
4796.000000;0.699308
4795.000000;0.697229
4794.000000;0.695240
4793.000000;0.693422
4792.000000;0.691773
4791.000000;0.690229
4790.000000;0.688697
4789.000000;0.687078
4788.000000;0.685320
4787.000000;0.683436
4786.000000;0.681485
4785.000000;0.679536
4784.000000;0.677651
4783.000000;0.675869
4782.000000;0.674148
4781.000000;0.672370
4780.000000;0.670457
4779.000000;0.668468
4778.000000;0.666523
4777.000000;0.664656
4776.000000;0.662826
4775.000000;0.661039
4774.000000;0.659357
4773.000000;0.657770
4772.000000;0.656146
4771.000000;0.654347
4770.000000;0.652329
4769.000000;0.650137
4768.000000;0.647879
4767.000000;0.645728
4766.000000;0.643846
4765.000000;0.642245
4764.000000;0.640765
4763.000000;0.639237
4762.000000;0.637621
4761.000000;0.635972
4760.000000;0.634333
4759.000000;0.632705
4758.000000;0.631060
4757.000000;0.629337
4756.000000;0.627464
4755.000000;0.625444
4754.000000;0.623400
4753.000000;0.621490
4752.000000;0.619777
4751.000000;0.618216
4750.000000;0.616738
4749.000000;0.615294
4748.000000;0.613829
4747.000000;0.612260
4746.000000;0.610517
4745.000000;0.608618
4744.000000;0.606709
4743.000000;0.604970
4742.000000;0.603454
4741.000000;0.602014
4740.000000;0.600437
4739.000000;0.598645
4738.000000;0.596741
4737.000000;0.594873
4736.000000;0.593104
4735.000000;0.591415
4734.000000;0.589768
4733.000000;0.588138
4732.000000;0.586522
4731.000000;0.584942
4730.000000;0.583405
4729.000000;0.581885
4728.000000;0.580351
4727.000000;0.578820
4726.000000;0.577319
4725.000000;0.575815
4724.000000;0.574222
4723.000000;0.572512
4722.000000;0.570744
4721.000000;0.569003
4720.000000;0.567336
4719.000000;0.565763
4718.000000;0.564283
4717.000000;0.562867
4716.000000;0.561485
4715.000000;0.560143
4714.000000;0.558841
4713.000000;0.557520
4712.000000;0.556110
4711.000000;0.554641
4710.000000;0.553225
4709.000000;0.551897
4708.000000;0.550542
4707.000000;0.549019
4706.000000;0.547322
4705.000000;0.545585
4704.000000;0.543957
4703.000000;0.542500
4702.000000;0.541164
4701.000000;0.539844
4700.000000;0.538453
4699.000000;0.536986
4698.000000;0.535487
4697.000000;0.533987
4696.000000;0.532514
4695.000000;0.531145
4694.000000;0.529961
4693.000000;0.528945
4692.000000;0.527953
4691.000000;0.526837
4690.000000;0.525562
4689.000000;0.524211
4688.000000;0.522902
4687.000000;0.521716
4686.000000;0.520641
4685.000000;0.519565
4684.000000;0.518358
4683.000000;0.516999
4682.000000;0.515588
4681.000000;0.514220
4680.000000;0.512899
4679.000000;0.511601
4678.000000;0.510350
4677.000000;0.509204
4676.000000;0.508176
4675.000000;0.507211
4674.000000;0.506232
4673.000000;0.505199
4672.000000;0.504131
4671.000000;0.503080
4670.000000;0.502065
4669.000000;0.501034
4668.000000;0.499916
4667.000000;0.498719
4666.000000;0.497517
4665.000000;0.496361
4664.000000;0.495233
4663.000000;0.494116
4662.000000;0.493046
4661.000000;0.492058
4660.000000;0.491133
4659.000000;0.490233
4658.000000;0.489357
4657.000000;0.488529
4656.000000;0.487733
4655.000000;0.486911
4654.000000;0.485996
4653.000000;0.484967
4652.000000;0.483860
4651.000000;0.482751
4650.000000;0.481711
4649.000000;0.480759
4648.000000;0.479875
4647.000000;0.479040
4646.000000;0.478245
4645.000000;0.477452
4644.000000;0.476597
4643.000000;0.475644
4642.000000;0.474637
4641.000000;0.473665
4640.000000;0.472799
4639.000000;0.472053
4638.000000;0.471384
4637.000000;0.470726
4636.000000;0.470034
4635.000000;0.469315
4634.000000;0.468602
4633.000000;0.467898
4632.000000;0.467164
4631.000000;0.466371
4630.000000;0.465528
4629.000000;0.464686
4628.000000;0.463912
4627.000000;0.463252
4626.000000;0.462687
4625.000000;0.462133
4624.000000;0.461514
4623.000000;0.460837
4622.000000;0.460164
4621.000000;0.459522
4620.000000;0.458893
4619.000000;0.458272
4618.000000;0.457684
4617.000000;0.457127
4616.000000;0.456557
4615.000000;0.455940
4614.000000;0.455302
4613.000000;0.454690
4612.000000;0.454119
4611.000000;0.453569
4610.000000;0.453032
4609.000000;0.452529
4608.000000;0.452088
4607.000000;0.451695
4606.000000;0.451284
4605.000000;0.450787
4604.000000;0.450226
4603.000000;0.449716
4602.000000;0.449358
4601.000000;0.449129
4600.000000;0.448912
4599.000000;0.448608
4598.000000;0.448195
4597.000000;0.447704
4596.000000;0.447193
4595.000000;0.446739
4594.000000;0.446389
4593.000000;0.446120
4592.000000;0.445858
4591.000000;0.445557
4590.000000;0.445214
4589.000000;0.444840
4588.000000;0.444444
4587.000000;0.444064
4586.000000;0.443766
4585.000000;0.443574
4584.000000;0.443448
4583.000000;0.443312
4582.000000;0.443110
4581.000000;0.442842
4580.000000;0.442564
4579.000000;0.442362
4578.000000;0.442272
4577.000000;0.442252
4576.000000;0.442234
4575.000000;0.442211
4574.000000;0.442228
4573.000000;0.442308
4572.000000;0.442417
4571.000000;0.442492
4570.000000;0.442477
4569.000000;0.442363
4568.000000;0.442216
4567.000000;0.442163
4566.000000;0.442282
4565.000000;0.442506
4564.000000;0.442702
4563.000000;0.442809
4562.000000;0.442872
4561.000000;0.442947
4560.000000;0.443041
4559.000000;0.443154
4558.000000;0.443301
4557.000000;0.443482
4556.000000;0.443663
4555.000000;0.443839
4554.000000;0.444061
4553.000000;0.444379
4552.000000;0.444795
4551.000000;0.445276
4550.000000;0.445801
4549.000000;0.446351
4548.000000;0.446897
4547.000000;0.447407
4546.000000;0.447868
4545.000000;0.448289
4544.000000;0.448703
4543.000000;0.449145
4542.000000;0.449621
4541.000000;0.450091
4540.000000;0.450518
4539.000000;0.450905
4538.000000;0.451283
4537.000000;0.451670
4536.000000;0.452084
4535.000000;0.452567
4534.000000;0.453151
4533.000000;0.453792
4532.000000;0.454405
4531.000000;0.454942
4530.000000;0.455412
4529.000000;0.455822
4528.000000;0.456151
4527.000000;0.456396
4526.000000;0.456595
4525.000000;0.456802
4524.000000;0.457045
4523.000000;0.457329
4522.000000;0.457637
4521.000000;0.457930
4520.000000;0.458181
4519.000000;0.458421
4518.000000;0.458725
4517.000000;0.459149
4516.000000;0.459679
4515.000000;0.460230
4514.000000;0.460698
4513.000000;0.461043
4512.000000;0.461341
4511.000000;0.461717
4510.000000;0.462203
4509.000000;0.462711
4508.000000;0.463163
4507.000000;0.463599
4506.000000;0.464094
4505.000000;0.464632
4504.000000;0.465136
4503.000000;0.465585
4502.000000;0.466021
4501.000000;0.466449
4500.000000;0.466836
4499.000000;0.467221
4498.000000;0.467727
4497.000000;0.468424
4496.000000;0.469221
4495.000000;0.469943
4494.000000;0.470499
4493.000000;0.470959
4492.000000;0.471473
4491.000000;0.472131
4490.000000;0.472877
4489.000000;0.473592
4488.000000;0.474253
4487.000000;0.474972
4486.000000;0.475834
4485.000000;0.476754
4484.000000;0.477566
4483.000000;0.478225
4482.000000;0.478843
4481.000000;0.479550
4480.000000;0.480378
4479.000000;0.481278
4478.000000;0.482179
4477.000000;0.483039
4476.000000;0.483881
4475.000000;0.484777
4474.000000;0.485761
4473.000000;0.486779
4472.000000;0.487791
4471.000000;0.488866
4470.000000;0.490108
4469.000000;0.491482
4468.000000;0.492805
4467.000000;0.493926
4466.000000;0.494837
4465.000000;0.495632
4464.000000;0.496423
4463.000000;0.497315
4462.000000;0.498369
4461.000000;0.499541
4460.000000;0.500714
4459.000000;0.501810
4458.000000;0.502856
4457.000000;0.503948
4456.000000;0.505166
4455.000000;0.506513
4454.000000;0.507888
4453.000000;0.509158
4452.000000;0.510290
4451.000000;0.511417
4450.000000;0.512697
4449.000000;0.514147
4448.000000;0.515657
4447.000000;0.517125
4446.000000;0.518511
4445.000000;0.519800
4444.000000;0.521009
4443.000000;0.522225
4442.000000;0.523541
4441.000000;0.524951
4440.000000;0.526364
4439.000000;0.527727
4438.000000;0.529072
4437.000000;0.530477
4436.000000;0.532034
4435.000000;0.533826
4434.000000;0.535827
4433.000000;0.537837
4432.000000;0.539619
4431.000000;0.541091
4430.000000;0.542337
4429.000000;0.543475
4428.000000;0.544637
4427.000000;0.546011
4426.000000;0.547742
4425.000000;0.549741
4424.000000;0.551725
4423.000000;0.553492
4422.000000;0.555081
4421.000000;0.556647
4420.000000;0.558293
4419.000000;0.560055
4418.000000;0.561933
4417.000000;0.563862
4416.000000;0.565743
4415.000000;0.567555
4414.000000;0.569380
4413.000000;0.571292
4412.000000;0.573263
4411.000000;0.575211
4410.000000;0.577065
4409.000000;0.578794
4408.000000;0.580430
4407.000000;0.582096
4406.000000;0.583911
4405.000000;0.585861
4404.000000;0.587836
4403.000000;0.589820
4402.000000;0.591918
4401.000000;0.594181
4400.000000;0.596479
4399.000000;0.598615
4398.000000;0.600493
4397.000000;0.602159
4396.000000;0.603762
4395.000000;0.605501
4394.000000;0.607524
4393.000000;0.609786
4392.000000;0.612079
4391.000000;0.614244
4390.000000;0.616322
4389.000000;0.618457
4388.000000;0.620708
4387.000000;0.623006
4386.000000;0.625262
4385.000000;0.627470
4384.000000;0.629701
4383.000000;0.632005
4382.000000;0.634322
4381.000000;0.636506
4380.000000;0.638477
4379.000000;0.640349
4378.000000;0.642375
4377.000000;0.644767
4376.000000;0.647545
4375.000000;0.650513
4374.000000;0.653349
4373.000000;0.655827
4372.000000;0.658014
4371.000000;0.660212
4370.000000;0.662651
4369.000000;0.665285
4368.000000;0.667922
4367.000000;0.670458
4366.000000;0.672882
4365.000000;0.675180
4364.000000;0.677379
4363.000000;0.679632
4362.000000;0.682091
4361.000000;0.684746
4360.000000;0.687484
4359.000000;0.690248
4358.000000;0.693002
4357.000000;0.695642
4356.000000;0.698113
4355.000000;0.700590
4354.000000;0.703328
4353.000000;0.706374
4352.000000;0.709580
4351.000000;0.712848
4350.000000;0.716158
4349.000000;0.719340
4348.000000;0.722119
4347.000000;0.724462
4346.000000;0.726699
4345.000000;0.729196
4344.000000;0.732045
4343.000000;0.735114
4342.000000;0.738258
4341.000000;0.741391
4340.000000;0.744472
4339.000000;0.747525
4338.000000;0.750593
4337.000000;0.753638
4336.000000;0.756535
4335.000000;0.759196
4334.000000;0.761673
4333.000000;0.764170
4332.000000;0.767001
4331.000000;0.770419
4330.000000;0.774323
4329.000000;0.778193
4328.000000;0.781525
4327.000000;0.784340
4326.000000;0.787086
4325.000000;0.790073
4324.000000;0.793211
4323.000000;0.796266
4322.000000;0.799144
4321.000000;0.801903
4320.000000;0.804674
4319.000000;0.807650
4318.000000;0.810938
4317.000000;0.814388
4316.000000;0.817712
4315.000000;0.820837
4314.000000;0.823970
4313.000000;0.827272
4312.000000;0.830661
4311.000000;0.833997
4310.000000;0.837310
4309.000000;0.840781
4308.000000;0.844593
4307.000000;0.848791
4306.000000;0.853138
4305.000000;0.857129
4304.000000;0.860351
4303.000000;0.862927
4302.000000;0.865431
4301.000000;0.868349
4300.000000;0.871703
4299.000000;0.875187
4298.000000;0.878490
4297.000000;0.881498
4296.000000;0.884372
4295.000000;0.887437
4294.000000;0.890849
4293.000000;0.894400
4292.000000;0.897816
4291.000000;0.901160
4290.000000;0.904707
4289.000000;0.908502
4288.000000;0.912294
4287.000000;0.915911
4286.000000;0.919439
4285.000000;0.922994
4284.000000;0.926583
4283.000000;0.930195
4282.000000;0.933792
4281.000000;0.937204
4280.000000;0.940303
4279.000000;0.943281
4278.000000;0.946506
4277.000000;0.950068
4276.000000;0.953748
4275.000000;0.957445
4274.000000;0.961302
4273.000000;0.965337
4272.000000;0.969265
4271.000000;0.972831
4270.000000;0.976088
4269.000000;0.979257
4268.000000;0.982496
4267.000000;0.985895
4266.000000;0.989505
4265.000000;0.993299
4264.000000;0.997249
4263.000000;1.001407
4262.000000;1.005693
4261.000000;1.009703
4260.000000;1.013047
4259.000000;1.015879
4258.000000;1.018785
4257.000000;1.022129
4256.000000;1.025781
4255.000000;1.029463
4254.000000;1.033067
4253.000000;1.036613
4252.000000;1.040190
4251.000000;1.043908
4250.000000;1.047703
4249.000000;1.051290
4248.000000;1.054625
4247.000000;1.058236
4246.000000;1.062627
4245.000000;1.067466
4244.000000;1.071859
4243.000000;1.075490
4242.000000;1.078865
4241.000000;1.082417
4240.000000;1.085992
4239.000000;1.089382
4238.000000;1.092766
4237.000000;1.096307
4236.000000;1.099765
4235.000000;1.102864
4234.000000;1.105728
4233.000000;1.108660
4232.000000;1.111764
4231.000000;1.115033
4230.000000;1.118621
4229.000000;1.122771
4228.000000;1.127541
4227.000000;1.132574
4226.000000;1.137093
4225.000000;1.140346
4224.000000;1.142446
4223.000000;1.144593
4222.000000;1.148003
4221.000000;1.152669
4220.000000;1.157535
4219.000000;1.161782
4218.000000;1.165473
4217.000000;1.169045
4216.000000;1.172805
4215.000000;1.176925
4214.000000;1.181244
4213.000000;1.185075
4212.000000;1.187870
4211.000000;1.190207
4210.000000;1.193377
4209.000000;1.197799
4208.000000;1.202455
4207.000000;1.206165
4206.000000;1.208875
4205.000000;1.211361
4204.000000;1.214300
4203.000000;1.217939
4202.000000;1.222168
4201.000000;1.226601
4200.000000;1.230916
4199.000000;1.235259
4198.000000;1.239925
4197.000000;1.244612
4196.000000;1.248508
4195.000000;1.251214
4194.000000;1.253105
4193.000000;1.254706
4192.000000;1.256380
4191.000000;1.258568
4190.000000;1.261616
4189.000000;1.265226
4188.000000;1.268790
4187.000000;1.272444
4186.000000;1.276973
4185.000000;1.282549
4184.000000;1.288338
4183.000000;1.293520
4182.000000;1.297985
4181.000000;1.301748
4180.000000;1.304567
4179.000000;1.306760
4178.000000;1.309507
4177.000000;1.313646
4176.000000;1.318728
4175.000000;1.323718
4174.000000;1.328043
4173.000000;1.331491
4172.000000;1.333810
4171.000000;1.335187
4170.000000;1.336707
4169.000000;1.339522
4168.000000;1.343665
4167.000000;1.348110
4166.000000;1.351894
4165.000000;1.354926
4164.000000;1.357831
4163.000000;1.361283
4162.000000;1.365473
4161.000000;1.370132
4160.000000;1.374919
4159.000000;1.379566
4158.000000;1.383695
4157.000000;1.386931
4156.000000;1.389610
4155.000000;1.392844
4154.000000;1.397199
4153.000000;1.401794
4152.000000;1.405498
4151.000000;1.408474
4150.000000;1.411722
4149.000000;1.415460
4148.000000;1.419033
4147.000000;1.422330
4146.000000;1.426112
4145.000000;1.431059
4144.000000;1.437325
4143.000000;1.444549
4142.000000;1.451305
4141.000000;1.455222
4140.000000;1.455127
4139.000000;1.452883
4138.000000;1.451601
4137.000000;1.452458
4136.000000;1.454623
4135.000000;1.457595
4134.000000;1.461861
4133.000000;1.467260
4132.000000;1.472568
4131.000000;1.477006
4130.000000;1.480624
4129.000000;1.483254
4128.000000;1.484841
4127.000000;1.486799
4126.000000;1.491009
4125.000000;1.497183
4124.000000;1.503059
4123.000000;1.507410
4122.000000;1.511016
4121.000000;1.514480
4120.000000;1.517272
4119.000000;1.519601
4118.000000;1.522900
4117.000000;1.527387
4116.000000;1.531342
4115.000000;1.534029
4114.000000;1.537239
4113.000000;1.542594
4112.000000;1.549358
4111.000000;1.555815
4110.000000;1.561066
4109.000000;1.564431
4108.000000;1.565137
4107.000000;1.563820
4106.000000;1.562721
4105.000000;1.562945
4104.000000;1.563052
4103.000000;1.561955
4102.000000;1.561279
4101.000000;1.562993
4100.000000;1.566246
4099.000000;1.568598
4098.000000;1.569596
4097.000000;1.571243
4096.000000;1.575305
4095.000000;1.581791
4094.000000;1.589658
4093.000000;1.597309
4092.000000;1.603006
4091.000000;1.606269
4090.000000;1.608613
4089.000000;1.611845
4088.000000;1.616202
4087.000000;1.620450
4086.000000;1.623031
4085.000000;1.622950
4084.000000;1.620687
4083.000000;1.618761
4082.000000;1.620102
4081.000000;1.625002
4080.000000;1.630368
4079.000000;1.633032
4078.000000;1.633160
4077.000000;1.633054
4076.000000;1.634008
4075.000000;1.635972
4074.000000;1.639093
4073.000000;1.643916
4072.000000;1.650209
4071.000000;1.656581
4070.000000;1.661343
4069.000000;1.662942
4068.000000;1.660643
4067.000000;1.656262
4066.000000;1.653923
4065.000000;1.656431
4064.000000;1.662276
4063.000000;1.667688
4062.000000;1.671321
4061.000000;1.675194
4060.000000;1.681619
4059.000000;1.690398
4058.000000;1.698901
4057.000000;1.704540
4056.000000;1.706937
4055.000000;1.707335
4054.000000;1.706503
4053.000000;1.704638
4052.000000;1.703745
4051.000000;1.707618
4050.000000;1.717373
4049.000000;1.728317
4048.000000;1.733893
4047.000000;1.733385
4046.000000;1.731747
4045.000000;1.731399
4044.000000;1.729374
4043.000000;1.723917
4042.000000;1.719368
4041.000000;1.721412
4040.000000;1.730406
4039.000000;1.741851
4038.000000;1.751778
4037.000000;1.759267
4036.000000;1.764403
4035.000000;1.766015
4034.000000;1.763200
4033.000000;1.757647
4032.000000;1.752897
4031.000000;1.752275
4030.000000;1.757076
4029.000000;1.766070
4028.000000;1.776154
4027.000000;1.783322
4026.000000;1.785275
4025.000000;1.783416
4024.000000;1.781427
4023.000000;1.782470
4022.000000;1.786574
4021.000000;1.791133
4020.000000;1.794770
4019.000000;1.799038
4018.000000;1.804765
4017.000000;1.809369
4016.000000;1.810128
4015.000000;1.808290
4014.000000;1.806904
4013.000000;1.805390
4012.000000;1.800998
4011.000000;1.797081
4010.000000;1.803382
4009.000000;1.823843
4008.000000;1.849431
4007.000000;1.866423
4006.000000;1.869936
4005.000000;1.865591
4004.000000;1.858814
4003.000000;1.848584
4002.000000;1.834873
4001.000000;1.822922
4000.000000;1.817497
3999.000000;1.819521
3998.000000;1.826761
3997.000000;1.836435
3996.000000;1.846617
3995.000000;1.856179
3994.000000;1.864582
3993.000000;1.871646
3992.000000;1.877692
3991.000000;1.883409
3990.000000;1.888538
3989.000000;1.891442
3988.000000;1.890241
3987.000000;1.885287
3986.000000;1.881411
3985.000000;1.884175
3984.000000;1.894374
3983.000000;1.907391
3982.000000;1.916222
3981.000000;1.917637
3980.000000;1.915812
3979.000000;1.915966
3978.000000;1.917724
3977.000000;1.918591
3976.000000;1.921184
3975.000000;1.931852
3974.000000;1.950473
3973.000000;1.966390
3972.000000;1.968097
3971.000000;1.956497
3970.000000;1.944027
3969.000000;1.940596
3968.000000;1.947404
3967.000000;1.960770
3966.000000;1.975057
3965.000000;1.982929
3964.000000;1.979194
3963.000000;1.965258
3962.000000;1.948688
3961.000000;1.938050
3960.000000;1.939009
3959.000000;1.954067
3958.000000;1.979863
3957.000000;2.005536
3956.000000;2.021569
3955.000000;2.030507
3954.000000;2.041816
3953.000000;2.056079
3952.000000;2.063822
3951.000000;2.060840
3950.000000;2.054350
3949.000000;2.053859
3948.000000;2.060969
3947.000000;2.067966
3946.000000;2.070663
3945.000000;2.073772
3944.000000;2.082044
3943.000000;2.096812
3942.000000;2.116917
3941.000000;2.138897
3940.000000;2.158429
3939.000000;2.170296
3938.000000;2.169596
3937.000000;2.156701
3936.000000;2.141435
3935.000000;2.141552
3934.000000;2.167841
3933.000000;2.211331
3932.000000;2.251012
3931.000000;2.270774
3930.000000;2.275073
3929.000000;2.280768
3928.000000;2.292134
3927.000000;2.300896
3926.000000;2.294995
3925.000000;2.262506
3924.000000;2.216084
3923.000000;2.186645
3922.000000;2.194243
3921.000000;2.236651
3920.000000;2.288565
3919.000000;2.323638
3918.000000;2.337004
3917.000000;2.338703
3916.000000;2.341147
3915.000000;2.353312
3914.000000;2.377642
3913.000000;2.403448
3912.000000;2.409753
3911.000000;2.389743
3910.000000;2.364425
3909.000000;2.356987
3908.000000;2.376534
3907.000000;2.419878
3906.000000;2.476814
3905.000000;2.532009
3904.000000;2.562635
3903.000000;2.551932
3902.000000;2.527933
3901.000000;2.532152
3900.000000;2.566716
3899.000000;2.606000
3898.000000;2.637869
3897.000000;2.677703
3896.000000;2.730864
3895.000000;2.781153
3894.000000;2.817014
3893.000000;2.854371
3892.000000;2.927680
3891.000000;3.125601
3890.000000;3.321423
3889.000000;3.323731
3888.000000;3.846366
3887.000000;3.945018
3886.000000;3.508906
3885.000000;3.473814
3884.000000;3.502311
3883.000000;3.562857
3882.000000;3.146595
3881.000000;2.965958
3880.000000;2.942998
3879.000000;2.886185
3878.000000;2.869808
3877.000000;3.024521
3876.000000;3.259654
3875.000000;3.093773
3874.000000;2.863979
3873.000000;2.695896
3872.000000;2.643732
3871.000000;2.737392
3870.000000;2.961433
3869.000000;3.439744
3868.000000;3.381194
3867.000000;2.972362
3866.000000;2.912456
3865.000000;2.872097
3864.000000;2.791372
3863.000000;2.726751
3862.000000;2.718852
3861.000000;2.719716
3860.000000;2.715217
3859.000000;2.729784
3858.000000;2.766602
3857.000000;2.853321
3856.000000;3.059649
3855.000000;3.694843
3854.000000;3.112805
3853.000000;2.658384
3852.000000;2.499092
3851.000000;2.481648
3850.000000;2.563812
3849.000000;2.668083
3848.000000;2.751897
3847.000000;2.799059
3846.000000;2.784776
3845.000000;2.754302
3844.000000;2.796006
3843.000000;2.909165
3842.000000;2.951630
3841.000000;2.870568
3840.000000;2.830505
3839.000000;2.839462
3838.000000;2.854557
3837.000000;2.878079
3836.000000;3.065758
3835.000000;3.540617
3834.000000;3.430856
3833.000000;3.292736
3832.000000;3.319122
3831.000000;3.245931
3830.000000;3.158619
3829.000000;3.070718
3828.000000;2.950609
3827.000000;2.825720
3826.000000;2.740371
3825.000000;2.672248
3824.000000;2.613922
3823.000000;2.623202
3822.000000;2.739835
3821.000000;2.986047
3820.000000;3.178740
3819.000000;3.010604
3818.000000;2.873468
3817.000000;2.817993
3816.000000;2.781450
3815.000000;2.731917
3814.000000;2.712283
3813.000000;2.817343
3812.000000;2.901666
3811.000000;2.787828
3810.000000;2.678035
3809.000000;2.612484
3808.000000;2.614273
3807.000000;2.650559
3806.000000;2.650496
3805.000000;2.670282
3804.000000;2.889481
3803.000000;3.214731
3802.000000;3.217361
3801.000000;3.405545
3800.000000;3.059345
3799.000000;2.809282
3798.000000;3.024842
3797.000000;3.267641
3796.000000;2.905362
3795.000000;2.756981
3794.000000;2.751100
3793.000000;2.919413
3792.000000;3.315596
3791.000000;3.139718
3790.000000;2.927289
3789.000000;2.825760
3788.000000;2.666671
3787.000000;2.526084
3786.000000;2.449037
3785.000000;2.449167
3784.000000;2.532893
3783.000000;2.626543
3782.000000;2.640722
3781.000000;2.750394
3780.000000;3.091529
3779.000000;3.074736
3778.000000;3.063443
3777.000000;3.446534
3776.000000;2.988366
3775.000000;2.698895
3774.000000;2.615162
3773.000000;2.599886
3772.000000;2.598998
3771.000000;2.507452
3770.000000;2.415721
3769.000000;2.413714
3768.000000;2.490754
3767.000000;2.610766
3766.000000;2.726048
3765.000000;2.924448
3764.000000;3.203470
3763.000000;2.949726
3762.000000;2.741029
3761.000000;2.651391
3760.000000;2.597460
3759.000000;2.566723
3758.000000;2.552113
3757.000000;2.569262
3756.000000;2.595897
3755.000000;2.649672
3754.000000;2.710616
3753.000000;2.701054
3752.000000;2.597084
3751.000000;2.497028
3750.000000;2.594848
3749.000000;2.723175
3748.000000;2.537534
3747.000000;2.452870
3746.000000;2.503885
3745.000000;2.615430
3744.000000;2.717849
3743.000000;2.776718
3742.000000;2.663412
3741.000000;2.527545
3740.000000;2.578893
3739.000000;2.657558
3738.000000;2.620221
3737.000000;2.584120
3736.000000;2.715520
3735.000000;2.974430
3734.000000;2.818493
3733.000000;2.675834
3732.000000;2.689931
3731.000000;2.703922
3730.000000;2.653948
3729.000000;2.597624
3728.000000;2.593891
3727.000000;2.568783
3726.000000;2.409438
3725.000000;2.313986
3724.000000;2.382394
3723.000000;2.637688
3722.000000;3.394451
3721.000000;3.194385
3720.000000;2.710363
3719.000000;2.637813
3718.000000;2.797076
3717.000000;2.776887
3716.000000;2.546691
3715.000000;2.538902
3714.000000;2.704622
3713.000000;2.997484
3712.000000;3.115128
3711.000000;2.941767
3710.000000;2.868603
3709.000000;2.789868
3708.000000;2.758362
3707.000000;2.771529
3706.000000;2.998866
3705.000000;3.118300
3704.000000;2.696099
3703.000000;2.513185
3702.000000;2.448938
3701.000000;2.468522
3700.000000;2.689417
3699.000000;3.225710
3698.000000;3.143781
3697.000000;2.963095
3696.000000;3.018657
3695.000000;2.913465
3694.000000;2.781806
3693.000000;2.903305
3692.000000;3.033309
3691.000000;2.678372
3690.000000;2.550422
3689.000000;2.660532
3688.000000;3.018247
3687.000000;3.044775
3686.000000;2.793809
3685.000000;2.883186
3684.000000;3.181673
3683.000000;3.093191
3682.000000;2.785946
3681.000000;2.724938
3680.000000;2.813680
3679.000000;2.794072
3678.000000;2.712465
3677.000000;2.616891
3676.000000;2.497136
3675.000000;2.434446
3674.000000;2.485974
3673.000000;2.760755
3672.000000;2.957577
3671.000000;2.818413
3670.000000;2.950356
3669.000000;3.012686
3668.000000;2.593940
3667.000000;2.335922
3666.000000;2.239535
3665.000000;2.187939
3664.000000;2.126290
3663.000000;2.076144
3662.000000;2.075717
3661.000000;2.171121
3660.000000;2.324036
3659.000000;2.680442
3658.000000;3.171088
3657.000000;2.683657
3656.000000;2.649446
3655.000000;2.414333
3654.000000;2.228249
3653.000000;2.261770
3652.000000;2.335407
3651.000000;2.395331
3650.000000;2.523966
3649.000000;2.871789
3648.000000;3.076149
3647.000000;3.099874
3646.000000;3.303717
3645.000000;3.085785
3644.000000;3.124788
3643.000000;3.110354
3642.000000;2.568268
3641.000000;2.218329
3640.000000;2.113368
3639.000000;2.182375
3638.000000;2.494056
3637.000000;3.070498
3636.000000;2.534227
3635.000000;2.342881
3634.000000;2.434725
3633.000000;2.519047
3632.000000;2.424572
3631.000000;2.340219
3630.000000;2.344777
3629.000000;2.484528
3628.000000;2.966966
3627.000000;2.936680
3626.000000;3.017608
3625.000000;3.204596
3624.000000;2.659572
3623.000000;2.562894
3622.000000;2.530684
3621.000000;2.625014
3620.000000;2.577726
3619.000000;2.399643
3618.000000;2.384187
3617.000000;2.368474
3616.000000;2.302699
3615.000000;2.320749
3614.000000;2.703812
3613.000000;2.784354
3612.000000;2.336785
3611.000000;2.277285
3610.000000;2.419044
3609.000000;2.637588
3608.000000;2.553781
3607.000000;2.335380
3606.000000;2.259552
3605.000000;2.427604
3604.000000;2.735742
3603.000000;2.494728
3602.000000;2.342418
3601.000000;2.220352
3600.000000;2.132733
3599.000000;2.154366
3598.000000;2.170311
3597.000000;2.122132
3596.000000;2.065097
3595.000000;2.052450
3594.000000;2.083501
3593.000000;2.167405
3592.000000;2.315319
3591.000000;2.471748
3590.000000;2.370550
3589.000000;2.192437
3588.000000;2.136027
3587.000000;2.160351
3586.000000;2.187831
3585.000000;2.184829
3584.000000;2.230882
3583.000000;2.439362
3582.000000;2.916491
3581.000000;3.090868
3580.000000;2.588632
3579.000000;2.254049
3578.000000;2.120779
3577.000000;2.171481
3576.000000;2.209584
3575.000000;2.146850
3574.000000;2.225335
3573.000000;2.276172
3572.000000;2.208029
3571.000000;2.275661
3570.000000;2.218573
3569.000000;2.135088
3568.000000;2.197496
3567.000000;2.244938
3566.000000;2.283704
3565.000000;2.420959
3564.000000;2.552781
3563.000000;2.663793
3562.000000;3.064417
3561.000000;2.934602
3560.000000;2.489399
3559.000000;2.231897
3558.000000;2.118881
3557.000000;2.201074
3556.000000;2.567056
3555.000000;2.851584
3554.000000;2.376335
3553.000000;2.181546
3552.000000;2.339560
3551.000000;2.622151
3550.000000;2.316147
3549.000000;2.077408
3548.000000;1.975248
3547.000000;2.003656
3546.000000;2.172696
3545.000000;2.400434
3544.000000;2.367413
3543.000000;2.151031
3542.000000;2.015679
3541.000000;1.977243
3540.000000;2.021534
3539.000000;2.086512
3538.000000;2.130742
3537.000000;2.281803
3536.000000;2.729735
3535.000000;2.386608
3534.000000;2.082035
3533.000000;2.033307
3532.000000;2.097439
3531.000000;2.293433
3530.000000;2.575864
3529.000000;3.180060
3528.000000;2.602404
3527.000000;2.207200
3526.000000;2.178629
3525.000000;2.395728
3524.000000;2.515026
3523.000000;2.319106
3522.000000;2.347149
3521.000000;2.740450
3520.000000;2.646988
3519.000000;2.145179
3518.000000;1.946883
3517.000000;1.870113
3516.000000;1.862453
3515.000000;1.858865
3514.000000;1.813698
3513.000000;1.814002
3512.000000;1.926046
3511.000000;2.108874
3510.000000;2.114136
3509.000000;2.047063
3508.000000;2.065135
3507.000000;2.170112
3506.000000;2.437005
3505.000000;2.475558
3504.000000;2.223937
3503.000000;2.127427
3502.000000;2.124430
3501.000000;2.323159
3500.000000;2.561942
3499.000000;2.351523
3498.000000;2.313509
3497.000000;2.248363
3496.000000;2.158814
3495.000000;2.244294
3494.000000;2.549962
3493.000000;2.997037
3492.000000;3.056265
3491.000000;2.551414
3490.000000;2.145568
3489.000000;2.021823
3488.000000;2.048908
3487.000000;2.230047
3486.000000;2.662666
3485.000000;3.105578
3484.000000;2.674767
3483.000000;2.313505
3482.000000;2.190106
3481.000000;2.225656
3480.000000;2.346921
3479.000000;2.430367
3478.000000;2.409086
3477.000000;2.486102
3476.000000;2.613123
3475.000000;2.335638
3474.000000;2.074474
3473.000000;1.963291
3472.000000;1.978792
3471.000000;2.115799
3470.000000;2.361024
3469.000000;2.523555
3468.000000;2.436148
3467.000000;2.407983
3466.000000;2.412330
3465.000000;2.388027
3464.000000;2.363037
3463.000000;2.318579
3462.000000;2.250672
3461.000000;2.262664
3460.000000;2.476300
3459.000000;2.703857
3458.000000;2.482355
3457.000000;2.334095
3456.000000;2.262092
3455.000000;2.244669
3454.000000;2.234186
3453.000000;2.300326
3452.000000;2.826417
3451.000000;2.778587
3450.000000;2.416935
3449.000000;2.473720
3448.000000;2.607397
3447.000000;2.753704
3446.000000;2.901895
3445.000000;3.075920
3444.000000;2.964766
3443.000000;2.794641
3442.000000;2.870436
3441.000000;3.129664
3440.000000;3.380655
3439.000000;3.526954
3438.000000;2.879952
3437.000000;2.424196
3436.000000;2.237411
3435.000000;2.236379
3434.000000;2.329390
3433.000000;2.327337
3432.000000;2.279083
3431.000000;2.269852
3430.000000;2.237161
3429.000000;2.231488
3428.000000;2.354807
3427.000000;2.726825
3426.000000;3.160360
3425.000000;2.812484
3424.000000;2.535066
3423.000000;2.363238
3422.000000;2.275152
3421.000000;2.271550
3420.000000;2.277297
3419.000000;2.233016
3418.000000;2.166139
3417.000000;2.103055
3416.000000;2.066232
3415.000000;2.052341
3414.000000;2.056390
3413.000000;2.106247
3412.000000;2.229326
3411.000000;2.319782
3410.000000;2.232554
3409.000000;2.154508
3408.000000;2.187706
3407.000000;2.285440
3406.000000;2.431224
3405.000000;2.722298
3404.000000;2.964617
3403.000000;2.627985
3402.000000;2.298717
3401.000000;2.120248
3400.000000;2.058317
3399.000000;2.039696
3398.000000;2.017240
3397.000000;2.005069
3396.000000;2.053294
3395.000000;2.174543
3394.000000;2.415577
3393.000000;2.744590
3392.000000;2.571356
3391.000000;2.384080
3390.000000;2.293987
3389.000000;2.244661
3388.000000;2.248415
3387.000000;2.241935
3386.000000;2.228002
3385.000000;2.257932
3384.000000;2.351503
3383.000000;2.520391
3382.000000;2.882342
3381.000000;3.040221
3380.000000;2.838762
3379.000000;2.687374
3378.000000;2.403430
3377.000000;2.195982
3376.000000;2.123903
3375.000000;2.136131
3374.000000;2.232996
3373.000000;2.342602
3372.000000;2.471490
3371.000000;2.930532
3370.000000;2.572991
3369.000000;2.212102
3368.000000;2.125055
3367.000000;2.185599
3366.000000;2.339751
3365.000000;2.261009
3364.000000;2.123143
3363.000000;2.063590
3362.000000;2.052756
3361.000000;2.113660
3360.000000;2.238511
3359.000000;2.337847
3358.000000;2.433592
3357.000000;2.584414
3356.000000;2.699550
3355.000000;2.812504
3354.000000;2.446449
3353.000000;2.156949
3352.000000;2.125260
3351.000000;2.253414
3350.000000;2.480087
3349.000000;2.451033
3348.000000;2.179557
3347.000000;2.016166
3346.000000;1.959775
3345.000000;1.994882
3344.000000;2.097015
3343.000000;2.334659
3342.000000;2.657205
3341.000000;2.345485
3340.000000;2.193829
3339.000000;2.229858
3338.000000;2.139538
3337.000000;2.026689
3336.000000;2.013981
3335.000000;2.053023
3334.000000;2.088055
3333.000000;2.136162
3332.000000;2.226739
3331.000000;2.334286
3330.000000;2.363673
3329.000000;2.319674
3328.000000;2.258894
3327.000000;2.190056
3326.000000;2.140787
3325.000000;2.141217
3324.000000;2.220596
3323.000000;2.432983
3322.000000;2.720822
3321.000000;2.687537
3320.000000;2.569427
3319.000000;2.607323
3318.000000;2.765312
3317.000000;2.901270
3316.000000;2.794204
3315.000000;2.618944
3314.000000;2.538172
3313.000000;2.530556
3312.000000;2.518098
3311.000000;2.485228
3310.000000;2.464415
3309.000000;2.537051
3308.000000;2.631458
3307.000000;2.460321
3306.000000;2.298651
3305.000000;2.278351
3304.000000;2.427802
3303.000000;2.599202
3302.000000;2.480024
3301.000000;2.402771
3300.000000;2.391457
3299.000000;2.400098
3298.000000;2.454289
3297.000000;2.558649
3296.000000;2.593164
3295.000000;2.501605
3294.000000;2.365910
3293.000000;2.284356
3292.000000;2.276983
3291.000000;2.395297
3290.000000;2.907763
3289.000000;2.796637
3288.000000;2.456928
3287.000000;2.442543
3286.000000;2.518777
3285.000000;2.628399
3284.000000;2.608947
3283.000000;2.696036
3282.000000;3.138355
3281.000000;3.149907
3280.000000;2.956052
3279.000000;3.228099
3278.000000;3.494561
3277.000000;2.770758
3276.000000;2.584031
3275.000000;2.622112
3274.000000;2.716823
3273.000000;2.674457
3272.000000;2.540057
3271.000000;2.535016
3270.000000;2.944875
3269.000000;3.205314
3268.000000;2.704712
3267.000000;2.602302
3266.000000;2.453057
3265.000000;2.293633
3264.000000;2.193427
3263.000000;2.184350
3262.000000;2.285201
3261.000000;2.545041
3260.000000;3.065335
3259.000000;2.929129
3258.000000;2.620013
3257.000000;2.425886
3256.000000;2.312524
3255.000000;2.259701
3254.000000;2.203735
3253.000000;2.178738
3252.000000;2.275230
3251.000000;2.513674
3250.000000;2.727770
3249.000000;2.991123
3248.000000;2.873252
3247.000000;2.494122
3246.000000;2.388336
3245.000000;2.373129
3244.000000;2.430441
3243.000000;2.597046
3242.000000;2.745403
3241.000000;2.837060
3240.000000;2.705799
3239.000000;2.446101
3238.000000;2.420383
3237.000000;2.768083
3236.000000;2.988492
3235.000000;2.500176
3234.000000;2.268402
3233.000000;2.205191
3232.000000;2.297900
3231.000000;2.527171
3230.000000;2.573108
3229.000000;2.544026
3228.000000;2.565232
3227.000000;2.435479
3226.000000;2.338553
3225.000000;2.345302
3224.000000;2.564368
3223.000000;3.095775
3222.000000;2.653474
3221.000000;2.506125
3220.000000;2.862588
3219.000000;2.652113
3218.000000;2.205705
3217.000000;2.084267
3216.000000;2.088065
3215.000000;2.191947
3214.000000;2.243948
3213.000000;2.193183
3212.000000;2.254679
3211.000000;2.393242
3210.000000;2.363695
3209.000000;2.283012
3208.000000;2.361794
3207.000000;2.591459
3206.000000;2.525562
3205.000000;2.376505
3204.000000;2.379631
3203.000000;2.370307
3202.000000;2.281712
3201.000000;2.257125
3200.000000;2.531941
3199.000000;2.958814
3198.000000;2.439276
3197.000000;2.439187
3196.000000;2.724060
3195.000000;2.685440
3194.000000;2.320018
3193.000000;2.214554
3192.000000;2.260107
3191.000000;2.370193
3190.000000;2.353768
3189.000000;2.136837
3188.000000;2.015247
3187.000000;2.015892
3186.000000;2.068655
3185.000000;2.178125
3184.000000;2.312664
3183.000000;2.162501
3182.000000;1.957864
3181.000000;1.861287
3180.000000;1.837943
3179.000000;1.839749
3178.000000;1.840013
3177.000000;1.856320
3176.000000;1.933803
3175.000000;2.070328
3174.000000;2.068942
3173.000000;1.988209
3172.000000;2.078219
3171.000000;2.413045
3170.000000;2.291016
3169.000000;2.047503
3168.000000;2.063149
3167.000000;2.206527
3166.000000;2.325687
3165.000000;2.315271
3164.000000;2.349805
3163.000000;2.595324
3162.000000;2.873375
3161.000000;2.649017
3160.000000;2.440713
3159.000000;2.306251
3158.000000;2.213391
3157.000000;2.153269
3156.000000;2.106461
3155.000000;2.056251
3154.000000;2.013393
3153.000000;2.012068
3152.000000;2.078816
3151.000000;2.196692
3150.000000;2.239110
3149.000000;2.169135
3148.000000;2.119037
3147.000000;2.134771
3146.000000;2.197102
3145.000000;2.253384
3144.000000;2.254539
3143.000000;2.228880
3142.000000;2.239639
3141.000000;2.326141
3140.000000;2.489422
3139.000000;2.651441
3138.000000;2.737804
3137.000000;2.847476
3136.000000;3.192882
3135.000000;3.461919
3134.000000;2.837725
3133.000000;2.506847
3132.000000;2.384239
3131.000000;2.389704
3130.000000;2.615791
3129.000000;3.177783
3128.000000;2.860135
3127.000000;2.860156
3126.000000;2.796535
3125.000000;2.560400
3124.000000;2.632665
3123.000000;2.982526
3122.000000;3.136253
3121.000000;3.452243
3120.000000;3.415443
3119.000000;3.275001
3118.000000;3.287767
3117.000000;2.715475
3116.000000;2.398610
3115.000000;2.263572
3114.000000;2.246767
3113.000000;2.267905
3112.000000;2.249628
3111.000000;2.212343
3110.000000;2.250324
3109.000000;2.364120
3108.000000;2.420330
3107.000000;2.365772
3106.000000;2.329603
3105.000000;2.402266
3104.000000;2.583100
3103.000000;3.117542
3102.000000;2.827982
3101.000000;2.381717
3100.000000;2.228123
3099.000000;2.226262
3098.000000;2.366942
3097.000000;2.650595
3096.000000;3.096352
3095.000000;3.241954
3094.000000;2.975066
3093.000000;2.677138
3092.000000;2.447983
3091.000000;2.328540
3090.000000;2.302794
3089.000000;2.345994
3088.000000;2.415742
3087.000000;2.404937
3086.000000;2.296049
3085.000000;2.223413
3084.000000;2.231338
3083.000000;2.272811
3082.000000;2.290470
3081.000000;2.259292
3080.000000;2.210610
3079.000000;2.193749
3078.000000;2.203960
3077.000000;2.223037
3076.000000;2.257937
3075.000000;2.339982
3074.000000;2.481613
3073.000000;2.406654
3072.000000;2.262390
3071.000000;2.296426
3070.000000;2.395312
3069.000000;2.271107
3068.000000;2.179234
3067.000000;2.206774
3066.000000;2.343383
3065.000000;2.656542
3064.000000;3.182196
3063.000000;2.871447
3062.000000;2.659908
3061.000000;2.560240
3060.000000;2.630067
3059.000000;2.798455
3058.000000;2.654435
3057.000000;2.505665
3056.000000;2.447789
3055.000000;2.343807
3054.000000;2.237402
3053.000000;2.190725
3052.000000;2.186771
3051.000000;2.192474
3050.000000;2.220223
3049.000000;2.293882
3048.000000;2.362734
3047.000000;2.395020
3046.000000;2.478640
3045.000000;2.627517
3044.000000;2.775150
3043.000000;3.064814
3042.000000;2.749067
3041.000000;2.448963
3040.000000;2.347579
3039.000000;2.332183
3038.000000;2.318257
3037.000000;2.280552
3036.000000;2.284835
3035.000000;2.400958
3034.000000;2.842341
3033.000000;3.611484
3032.000000;2.850565
3031.000000;2.856893
3030.000000;2.703214
3029.000000;2.608894
3028.000000;2.635641
3027.000000;2.805015
3026.000000;2.741408
3025.000000;2.482253
3024.000000;2.313984
3023.000000;2.203086
3022.000000;2.151043
3021.000000;2.164435
3020.000000;2.244243
3019.000000;2.389760
3018.000000;2.568043
3017.000000;2.850692
3016.000000;3.044840
3015.000000;2.624234
3014.000000;2.436708
3013.000000;2.341999
3012.000000;2.293178
3011.000000;2.295689
3010.000000;2.366649
3009.000000;2.517624
3008.000000;2.690189
3007.000000;2.645407
3006.000000;2.441121
3005.000000;2.293921
3004.000000;2.218880
3003.000000;2.206058
3002.000000;2.238910
3001.000000;2.334933
3000.000000;2.545780
2999.000000;2.839646
2998.000000;2.770515
2997.000000;2.579374
2996.000000;2.512675
2995.000000;2.516081
2994.000000;2.580338
2993.000000;3.069467
2992.000000;2.698603
2991.000000;2.337409
2990.000000;2.241255
2989.000000;2.240496
2988.000000;2.277074
2987.000000;2.326580
2986.000000;2.397420
2985.000000;2.514296
2984.000000;2.656809
2983.000000;2.664326
2982.000000;2.511587
2981.000000;2.397021
2980.000000;2.406477
2979.000000;2.567712
2978.000000;2.787632
2977.000000;2.574254
2976.000000;2.341488
2975.000000;2.278007
2974.000000;2.365816
2973.000000;2.507915
2972.000000;2.483320
2971.000000;2.388155
2970.000000;2.318923
2969.000000;2.328217
2968.000000;2.479345
2967.000000;3.208576
2966.000000;2.693800
2965.000000;2.459188
2964.000000;2.520360
2963.000000;2.452947
2962.000000;2.236192
2961.000000;2.110343
2960.000000;2.118270
2959.000000;2.249362
2958.000000;2.562112
2957.000000;3.513406
2956.000000;2.457741
2955.000000;2.218405
2954.000000;2.128846
2953.000000;2.154274
2952.000000;2.240904
2951.000000;2.325745
2950.000000;2.371882
2949.000000;2.421823
2948.000000;2.526989
2947.000000;2.606829
2946.000000;2.495482
2945.000000;2.416369
2944.000000;2.407533
2943.000000;2.359379
2942.000000;2.268194
2941.000000;2.216747
2940.000000;2.286488
2939.000000;2.485441
2938.000000;2.533170
2937.000000;2.338256
2936.000000;2.177876
2935.000000;2.093246
2934.000000;2.062914
2933.000000;2.054626
2932.000000;2.030164
2931.000000;1.984131
2930.000000;1.946893
2929.000000;1.943736
2928.000000;1.980809
2927.000000;2.039873
2926.000000;2.102289
2925.000000;2.188589
2924.000000;2.317295
2923.000000;2.432678
2922.000000;2.389359
2921.000000;2.273503
2920.000000;2.290212
2919.000000;2.481362
2918.000000;2.619877
2917.000000;2.513667
2916.000000;2.461917
2915.000000;2.506458
2914.000000;2.552266
2913.000000;2.551562
2912.000000;2.486767
2911.000000;2.357533
2910.000000;2.292760
2909.000000;2.334921
2908.000000;2.430553
2907.000000;2.499622
2906.000000;2.575211
2905.000000;2.685351
2904.000000;2.887892
2903.000000;2.875713
2902.000000;2.691240
2901.000000;2.756014
2900.000000;2.720404
2899.000000;2.594266
2898.000000;2.732381
2897.000000;2.984338
2896.000000;2.566861
2895.000000;2.272841
2894.000000;2.101129
2893.000000;2.005262
2892.000000;1.973949
2891.000000;1.998305
2890.000000;2.088475
2889.000000;2.277240
2888.000000;2.538682
2887.000000;2.537632
2886.000000;2.487418
2885.000000;2.464107
2884.000000;2.393430
2883.000000;2.433573
2882.000000;2.708812
2881.000000;2.613609
2880.000000;2.344127
2879.000000;2.172330
2878.000000;2.066228
2877.000000;2.094934
2876.000000;2.350389
2875.000000;2.717264
2874.000000;2.477629
2873.000000;2.465676
2872.000000;2.424211
2871.000000;2.303778
2870.000000;2.162248
2869.000000;2.066580
2868.000000;2.035429
2867.000000;2.066150
2866.000000;2.132433
2865.000000;2.242005
2864.000000;2.438479
2863.000000;3.019250
2862.000000;2.861283
2861.000000;2.528979
2860.000000;2.499973
2859.000000;2.580000
2858.000000;2.792381
2857.000000;2.952223
2856.000000;3.028964
2855.000000;2.555625
2854.000000;2.239371
2853.000000;2.167615
2852.000000;2.392412
2851.000000;2.949795
2850.000000;2.250717
2849.000000;2.144494
2848.000000;2.114522
2847.000000;2.072718
2846.000000;2.006925
2845.000000;1.962923
2844.000000;1.947855
2843.000000;1.990777
2842.000000;2.103854
2841.000000;2.422836
2840.000000;2.858792
2839.000000;2.396457
2838.000000;2.199248
2837.000000;2.198038
2836.000000;2.347891
2835.000000;2.608245
2834.000000;2.635383
2833.000000;2.358324
2832.000000;2.109306
2831.000000;1.955879
2830.000000;1.894302
2829.000000;1.898688
2828.000000;1.965171
2827.000000;2.162712
2826.000000;2.330257
2825.000000;2.224556
2824.000000;2.220662
2823.000000;2.181585
2822.000000;2.024962
2821.000000;1.885240
2820.000000;1.831058
2819.000000;1.871552
2818.000000;1.977268
2817.000000;2.344635
2816.000000;2.778313
2815.000000;2.100088
2814.000000;1.992824
2813.000000;2.021788
2812.000000;2.215402
2811.000000;2.726593
2810.000000;2.487653
2809.000000;2.082226
2808.000000;2.184817
2807.000000;2.192077
2806.000000;1.829744
2805.000000;1.688773
2804.000000;1.716555
2803.000000;1.807973
2802.000000;1.896674
2801.000000;2.005093
2800.000000;2.252384
2799.000000;2.385638
2798.000000;2.133447
2797.000000;2.057559
2796.000000;2.113830
2795.000000;2.196793
2794.000000;2.229652
2793.000000;2.355135
2792.000000;2.217252
2791.000000;1.862032
2790.000000;1.747573
2789.000000;1.766455
2788.000000;1.873305
2787.000000;2.015534
2786.000000;2.319941
2785.000000;2.363679
2784.000000;2.055580
2783.000000;1.964250
2782.000000;1.854459
2781.000000;1.715946
2780.000000;1.622015
2779.000000;1.583141
2778.000000;1.593008
2777.000000;1.701304
2776.000000;1.974425
2775.000000;2.917891
2774.000000;2.180252
2773.000000;1.962046
2772.000000;1.943255
2771.000000;2.029346
2770.000000;2.123637
2769.000000;2.072368
2768.000000;2.022991
2767.000000;2.100585
2766.000000;2.296764
2765.000000;2.306720
2764.000000;2.111823
2763.000000;2.003936
2762.000000;2.005271
2761.000000;2.150654
2760.000000;2.654936
2759.000000;2.543329
2758.000000;2.168124
2757.000000;2.179498
2756.000000;2.169367
2755.000000;2.051323
2754.000000;1.914070
2753.000000;1.846224
2752.000000;1.861649
2751.000000;1.953491
2750.000000;2.103934
2749.000000;2.379235
2748.000000;3.025433
2747.000000;2.398769
2746.000000;2.200348
2745.000000;2.136445
2744.000000;2.126225
2743.000000;2.152532
2742.000000;2.128594
2741.000000;2.016654
2740.000000;1.916630
2739.000000;1.900820
2738.000000;1.989329
2737.000000;2.177617
2736.000000;2.388750
2735.000000;2.726723
2734.000000;2.902312
2733.000000;2.379997
2732.000000;2.167839
2731.000000;2.051328
2730.000000;1.954262
2729.000000;1.870880
2728.000000;1.878310
2727.000000;1.999842
2726.000000;2.501381
2725.000000;2.625145
2724.000000;2.419516
2723.000000;2.671665
2722.000000;2.882602
2721.000000;2.771971
2720.000000;2.712542
2719.000000;2.576389
2718.000000;2.362005
2717.000000;2.121616
2716.000000;1.918818
2715.000000;1.818165
2714.000000;1.812824
2713.000000;1.900602
2712.000000;2.112907
2711.000000;2.578124
2710.000000;2.766163
2709.000000;2.336203
2708.000000;2.138435
2707.000000;1.995542
2706.000000;1.945563
2705.000000;1.965104
2704.000000;2.126167
2703.000000;2.448605
2702.000000;2.240193
2701.000000;1.996605
2700.000000;1.949031
2699.000000;2.007144
2698.000000;2.139206
2697.000000;2.269246
2696.000000;2.362576
2695.000000;2.679100
2694.000000;2.556953
2693.000000;2.223102
2692.000000;2.079625
2691.000000;1.994634
2690.000000;1.927087
2689.000000;1.882863
2688.000000;1.900715
2687.000000;2.047107
2686.000000;2.491429
2685.000000;2.635543
2684.000000;2.129363
2683.000000;1.958182
2682.000000;1.839083
2681.000000;1.799716
2680.000000;1.860036
2679.000000;2.122618
2678.000000;2.477040
2677.000000;2.262925
2676.000000;2.080686
2675.000000;1.980012
2674.000000;1.931503
2673.000000;1.987446
2672.000000;2.171973
2671.000000;2.267957
2670.000000;2.318911
2669.000000;2.907145
2668.000000;2.554279
2667.000000;2.241112
2666.000000;2.100416
2665.000000;1.993925
2664.000000;1.945836
2663.000000;1.978045
2662.000000;2.176215
2661.000000;2.620240
2660.000000;2.250507
2659.000000;2.052373
2658.000000;1.994079
2657.000000;2.002965
2656.000000;2.003426
2655.000000;2.151357
2654.000000;2.614322
2653.000000;2.343058
2652.000000;2.101741
2651.000000;2.035003
2650.000000;1.917394
2649.000000;1.837279
2648.000000;1.867796
2647.000000;2.049992
2646.000000;2.290286
2645.000000;2.264155
2644.000000;2.190313
2643.000000;2.172163
2642.000000;2.066464
2641.000000;1.919421
2640.000000;1.867853
2639.000000;1.921637
2638.000000;1.963079
2637.000000;1.995713
2636.000000;2.274359
2635.000000;2.421373
2634.000000;1.842574
2633.000000;1.684284
2632.000000;1.690567
2631.000000;1.820907
2630.000000;2.057397
2629.000000;2.493226
2628.000000;2.482300
2627.000000;2.001191
2626.000000;1.793704
2625.000000;1.719785
2624.000000;1.767327
2623.000000;1.834875
2622.000000;1.819012
2621.000000;1.792387
2620.000000;1.864552
2619.000000;1.972757
2618.000000;1.926527
2617.000000;1.778916
2616.000000;1.621029
2615.000000;1.524562
2614.000000;1.510176
2613.000000;1.580716
2612.000000;1.729031
2611.000000;1.903626
2610.000000;2.088425
2609.000000;2.293300
2608.000000;2.213346
2607.000000;1.969334
2606.000000;1.828736
2605.000000;1.768708
2604.000000;1.702337
2603.000000;1.627619
2602.000000;1.629678
2601.000000;1.837361
2600.000000;2.339558
2599.000000;2.132313
2598.000000;1.909476
2597.000000;1.866447
2596.000000;1.803582
2595.000000;1.785320
2594.000000;1.857032
2593.000000;2.034612
2592.000000;2.263520
2591.000000;2.450751
2590.000000;2.635580
2589.000000;2.403668
2588.000000;2.102365
2587.000000;1.985776
2586.000000;2.023034
2585.000000;2.164867
2584.000000;2.279120
2583.000000;2.352436
2582.000000;2.522782
2581.000000;2.363281
2580.000000;2.160391
2579.000000;2.141926
2578.000000;2.133255
2577.000000;2.064521
2576.000000;2.063880
2575.000000;2.103135
2574.000000;2.059145
2573.000000;2.035673
2572.000000;2.164729
2571.000000;2.501198
2570.000000;3.090832
2569.000000;3.151925
2568.000000;2.832634
2567.000000;2.690716
2566.000000;2.386981
2565.000000;2.118192
2564.000000;1.990220
2563.000000;1.966911
2562.000000;2.034483
2561.000000;2.149481
2560.000000;2.300346
2559.000000;2.727151
2558.000000;3.067614
2557.000000;3.015326
2556.000000;2.996936
2555.000000;2.562832
2554.000000;2.388430
2553.000000;2.276462
2552.000000;2.217377
2551.000000;2.272036
2550.000000;2.434664
2549.000000;2.342550
2548.000000;2.130414
2547.000000;2.092813
2546.000000;2.192154
2545.000000;2.330427
2544.000000;2.426418
2543.000000;2.565082
2542.000000;2.672365
2541.000000;2.607499
2540.000000;2.508774
2539.000000;2.427806
2538.000000;2.363256
2537.000000;2.380032
2536.000000;2.455824
2535.000000;2.482270
2534.000000;2.382586
2533.000000;2.241459
2532.000000;2.168019
2531.000000;2.168304
2530.000000;2.212320
2529.000000;2.269508
2528.000000;2.349532
2527.000000;2.480622
2526.000000;2.832064
2525.000000;2.978687
2524.000000;2.365082
2523.000000;2.188608
2522.000000;2.207202
2521.000000;2.402735
2520.000000;2.792336
2519.000000;3.101463
2518.000000;2.924290
2517.000000;2.704295
2516.000000;2.620145
2515.000000;2.744173
2514.000000;2.538083
2513.000000;2.257563
2512.000000;2.167061
2511.000000;2.170675
2510.000000;2.232421
2509.000000;2.277510
2508.000000;2.301826
2507.000000;2.390542
2506.000000;2.526678
2505.000000;2.709372
2504.000000;2.644940
2503.000000;2.379914
2502.000000;2.213490
2501.000000;2.105580
2500.000000;2.052249
2499.000000;2.078443
2498.000000;2.225263
2497.000000;2.496774
2496.000000;2.473497
2495.000000;2.280783
2494.000000;2.247414
2493.000000;2.392112
2492.000000;2.585916
2491.000000;2.469156
2490.000000;2.442270
2489.000000;2.621403
2488.000000;2.766871
2487.000000;2.588246
2486.000000;2.382127
2485.000000;2.227302
2484.000000;2.117525
2483.000000;2.119288
2482.000000;2.258766
2481.000000;2.545407
2480.000000;3.051844
2479.000000;3.069248
2478.000000;2.973343
2477.000000;3.384885
2476.000000;2.938756
2475.000000;2.614909
2474.000000;2.485608
2473.000000;2.427634
2472.000000;2.431269
2471.000000;2.554515
2470.000000;2.771385
2469.000000;2.630683
2468.000000;2.501754
2467.000000;2.709126
2466.000000;2.968331
2465.000000;2.634045
2464.000000;2.447109
2463.000000;2.351329
2462.000000;2.317016
2461.000000;2.366522
2460.000000;2.583459
2459.000000;2.566233
2458.000000;2.281066
2457.000000;2.175956
2456.000000;2.209247
2455.000000;2.360003
2454.000000;2.622950
2453.000000;2.594202
2452.000000;2.341063
2451.000000;2.192736
2450.000000;2.139008
2449.000000;2.184866
2448.000000;2.344438
2447.000000;2.707217
2446.000000;3.285304
2445.000000;2.891621
2444.000000;2.657915
2443.000000;2.499790
2442.000000;2.439842
2441.000000;2.379443
2440.000000;2.285259
2439.000000;2.275990
2438.000000;2.396189
2437.000000;2.600940
2436.000000;2.599145
2435.000000;2.490997
2434.000000;2.383669
2433.000000;2.276509
2432.000000;2.265985
2431.000000;2.381440
2430.000000;2.695378
2429.000000;2.841117
2428.000000;2.557647
2427.000000;2.492227
2426.000000;2.606063
2425.000000;2.865635
2424.000000;3.272687
2423.000000;2.835995
2422.000000;2.514239
2421.000000;2.331791
2420.000000;2.276834
2419.000000;2.252801
2418.000000;2.162925
2417.000000;2.143974
2416.000000;2.234661
2415.000000;2.382692
2414.000000;2.501296
2413.000000;2.454403
2412.000000;2.279394
2411.000000;2.148069
2410.000000;2.117869
2409.000000;2.195122
2408.000000;2.323788
2407.000000;2.380664
2406.000000;2.382479
2405.000000;2.466533
2404.000000;2.596580
2403.000000;2.526202
2402.000000;2.471863
2401.000000;2.497618
2400.000000;2.534373
2399.000000;2.601247
2398.000000;2.748828
2397.000000;2.827311
2396.000000;2.536821
2395.000000;2.426737
2394.000000;2.506232
2393.000000;2.576337
2392.000000;2.461892
2391.000000;2.330852
2390.000000;2.323085
2389.000000;2.441054
2388.000000;2.656930
2387.000000;2.811874
2386.000000;2.819610
2385.000000;3.241176
2384.000000;3.485947
2383.000000;2.916214
2382.000000;3.005407
2381.000000;3.302135
2380.000000;3.597076
2379.000000;3.561638
2378.000000;3.609736
2377.000000;3.811533
2376.000000;3.407447
2375.000000;3.335495
2374.000000;3.739448
2373.000000;4.037661
2372.000000;3.683507
2371.000000;3.314021
2370.000000;3.261001
2369.000000;3.626368
2368.000000;3.569675
2367.000000;3.241574
2366.000000;3.153094
2365.000000;3.190287
2364.000000;3.364590
2363.000000;3.532675
2362.000000;3.416547
2361.000000;3.357345
2360.000000;3.437490
2359.000000;3.692679
2358.000000;3.995623
2357.000000;3.816849
2356.000000;3.787482
2355.000000;3.911767
2354.000000;4.029167
2353.000000;4.338043
2352.000000;3.724126
2351.000000;3.329804
2350.000000;3.216023
2349.000000;3.218832
2348.000000;3.285526
2347.000000;3.382682
2346.000000;3.641443
2345.000000;3.551523
2344.000000;3.231640
2343.000000;3.227156
2342.000000;3.418694
2341.000000;3.712661
2340.000000;3.931865
2339.000000;4.142251
2338.000000;4.548785
2337.000000;3.810496
2336.000000;3.579276
2335.000000;3.504246
2334.000000;3.399474
2333.000000;3.236445
2332.000000;3.095343
2331.000000;3.015375
2330.000000;2.978175
2329.000000;2.966440
2328.000000;2.958984
2327.000000;2.959506
2326.000000;2.960313
2325.000000;2.980981
2324.000000;2.986373
2323.000000;2.965852
2322.000000;2.956110
2321.000000;2.970070
2320.000000;3.017852
2319.000000;3.088252
2318.000000;3.138173
2317.000000;3.134050
2316.000000;3.079287
2315.000000;2.956070
2314.000000;2.814574
2313.000000;2.716520
2312.000000;2.683378
2311.000000;2.725061
2310.000000;2.836443
2309.000000;2.997836
2308.000000;3.075490
2307.000000;3.022040
2306.000000;3.099603
2305.000000;3.469868
2304.000000;3.720141
2303.000000;3.356841
2302.000000;2.996669
2301.000000;2.762649
2300.000000;2.678896
2299.000000;2.917501
2298.000000;3.059939
2297.000000;2.543664
2296.000000;2.340669
2295.000000;2.335466
2294.000000;2.454587
2293.000000;2.649059
2292.000000;2.951858
2291.000000;2.990300
2290.000000;2.952589
2289.000000;3.276913
2288.000000;2.651830
2287.000000;2.368170
2286.000000;2.308782
2285.000000;2.289693
2284.000000;2.452489
2283.000000;2.549594
2282.000000;2.180750
2281.000000;2.000162
2280.000000;1.957772
2279.000000;1.945402
2278.000000;1.951935
2277.000000;1.980014
2276.000000;2.050113
2275.000000;2.115608
2274.000000;2.257876
2273.000000;2.855625
2272.000000;2.749701
2271.000000;2.290117
2270.000000;2.257524
2269.000000;2.335784
2268.000000;2.398549
2267.000000;2.358198
2266.000000;2.316655
2265.000000;2.323941
2264.000000;2.385074
2263.000000;2.620938
2262.000000;2.764027
2261.000000;2.413494
2260.000000;2.276355
2259.000000;2.295705
2258.000000;2.443512
2257.000000;2.813438
2256.000000;2.594001
2255.000000;2.344244
2254.000000;2.391752
2253.000000;2.716249
2252.000000;3.048540
2251.000000;2.790588
2250.000000;3.170390
2249.000000;3.285258
2248.000000;2.519542
2247.000000;2.279436
2246.000000;2.156756
2245.000000;2.152129
2244.000000;2.318464
2243.000000;2.539402
2242.000000;2.444816
2241.000000;2.373218
2240.000000;2.632568
2239.000000;2.700984
2238.000000;2.319143
2237.000000;2.106707
2236.000000;2.055025
2235.000000;2.071630
2234.000000;1.948673
2233.000000;1.820203
2232.000000;1.740497
2231.000000;1.634881
2230.000000;1.586467
2229.000000;1.668311
2228.000000;1.900761
2227.000000;2.415117
2226.000000;2.489325
2225.000000;2.016014
2224.000000;1.885212
2223.000000;1.867154
2222.000000;1.899730
2221.000000;1.897006
2220.000000;1.866269
2219.000000;1.873792
2218.000000;1.939491
2217.000000;2.283059
2216.000000;2.557409
2215.000000;2.105797
2214.000000;1.922287
2213.000000;1.877613
2212.000000;1.919387
2211.000000;2.064509
2210.000000;2.394516
2209.000000;2.757543
2208.000000;2.691004
2207.000000;2.630796
2206.000000;2.240235
2205.000000;2.010786
2204.000000;1.935798
2203.000000;1.908676
2202.000000;1.908092
2201.000000;1.937212
2200.000000;2.033328
2199.000000;2.313297
2198.000000;2.546018
2197.000000;2.293394
2196.000000;2.169884
2195.000000;2.151965
2194.000000;2.183318
2193.000000;2.306771
2192.000000;2.626409
2191.000000;2.446263
2190.000000;2.176611
2189.000000;2.205777
2188.000000;2.381915
2187.000000;2.569627
2186.000000;2.800472
2185.000000;3.190557
2184.000000;2.617140
2183.000000;2.428204
2182.000000;2.554209
2181.000000;2.429122
2180.000000;2.241323
2179.000000;2.180658
2178.000000;2.146307
2177.000000;2.097148
2176.000000;2.081843
2175.000000;2.155895
2174.000000;2.252535
2173.000000;2.218796
2172.000000;2.192542
2171.000000;2.253513
2170.000000;2.379206
2169.000000;2.604640
2168.000000;2.809713
2167.000000;3.155123
2166.000000;3.178227
2165.000000;2.664212
2164.000000;2.506456
2163.000000;2.427921
2162.000000;2.428602
2161.000000;2.592871
2160.000000;2.581755
2159.000000;2.359384
2158.000000;2.244825
2157.000000;2.213240
2156.000000;2.200969
2155.000000;2.204857
2154.000000;2.232938
2153.000000;2.245069
2152.000000;2.217033
2151.000000;2.210544
2150.000000;2.297369
2149.000000;2.489509
2148.000000;2.589078
2147.000000;2.698833
2146.000000;2.876629
2145.000000;2.635611
2144.000000;2.487858
2143.000000;2.495088
2142.000000;2.547802
2141.000000;2.608406
2140.000000;2.695767
2139.000000;2.684164
2138.000000;2.499993
2137.000000;2.384486
2136.000000;2.355430
2135.000000;2.256719
2134.000000;2.136072
2133.000000;2.087588
2132.000000;2.194082
2131.000000;2.408125
2130.000000;2.685003
2129.000000;3.307984
2128.000000;2.615621
2127.000000;2.344503
2126.000000;2.283592
2125.000000;2.186869
2124.000000;2.089837
2123.000000;2.023000
2122.000000;2.040560
2121.000000;2.148113
2120.000000;2.366900
2119.000000;2.773579
2118.000000;2.753860
2117.000000;2.402561
2116.000000;2.281958
2115.000000;2.287632
2114.000000;2.572971
2113.000000;2.909937
2112.000000;2.592716
2111.000000;2.499325
2110.000000;2.601019
2109.000000;2.987886
2108.000000;2.848955
2107.000000;2.632589
2106.000000;2.645030
2105.000000;2.788009
2104.000000;3.301064
2103.000000;2.808963
2102.000000;2.503236
2101.000000;2.388655
2100.000000;2.348642
2099.000000;2.438588
2098.000000;2.580149
2097.000000;2.605362
2096.000000;2.520437
2095.000000;2.470115
2094.000000;2.441601
2093.000000;2.405237
2092.000000;2.360419
2091.000000;2.343710
2090.000000;2.390444
2089.000000;2.760838
2088.000000;3.138717
2087.000000;2.562896
2086.000000;2.407710
2085.000000;2.478272
2084.000000;2.695224
2083.000000;2.821337
2082.000000;3.199707
2081.000000;3.152076
2080.000000;2.643130
2079.000000;2.577082
2078.000000;2.682071
2077.000000;2.819780
2076.000000;2.795110
2075.000000;2.800029
2074.000000;2.854412
2073.000000;2.805728
2072.000000;2.759437
2071.000000;2.778718
2070.000000;2.816382
2069.000000;2.739025
2068.000000;2.625799
2067.000000;2.651935
2066.000000;2.685776
2065.000000;2.506493
2064.000000;2.354905
2063.000000;2.278883
2062.000000;2.242972
2061.000000;2.248296
2060.000000;2.335840
2059.000000;2.575006
2058.000000;2.869091
2057.000000;2.881702
2056.000000;2.905120
2055.000000;3.310825
2054.000000;2.919202
2053.000000;2.505897
2052.000000;2.369245
2051.000000;2.423284
2050.000000;2.841124
2049.000000;2.989925
2048.000000;2.593558
2047.000000;2.500310
2046.000000;2.474333
2045.000000;2.505090
2044.000000;2.586900
2043.000000;2.608332
2042.000000;2.633059
2041.000000;2.619964
2040.000000;2.622185
2039.000000;2.660715
2038.000000;2.465931
2037.000000;2.270590
2036.000000;2.211071
2035.000000;2.268879
2034.000000;2.483783
2033.000000;2.849814
2032.000000;2.957239
2031.000000;2.880903
2030.000000;2.882165
2029.000000;2.890974
2028.000000;2.879291
2027.000000;2.721974
2026.000000;2.640613
2025.000000;2.704767
2024.000000;2.586584
2023.000000;2.375928
2022.000000;2.347226
2021.000000;2.475047
2020.000000;2.455493
2019.000000;2.364022
2018.000000;2.397851
2017.000000;2.647711
2016.000000;2.767222
2015.000000;2.376788
2014.000000;2.248070
2013.000000;2.283460
2012.000000;2.355934
2011.000000;2.407564
2010.000000;2.468526
2009.000000;2.578364
2008.000000;2.510603
2007.000000;2.423663
2006.000000;2.472948
2005.000000;2.623409
2004.000000;3.069808
2003.000000;3.078540
2002.000000;2.665518
2001.000000;2.586519
2000.000000;2.705385
1999.000000;3.263003
1998.000000;3.247803
1997.000000;2.950083
1996.000000;2.890346
1995.000000;2.594017
1994.000000;2.390902
1993.000000;2.291382
1992.000000;2.223825
1991.000000;2.157627
1990.000000;2.107777
1989.000000;2.141951
1988.000000;2.293072
1987.000000;2.726633
1986.000000;3.691554
1985.000000;2.943121
1984.000000;2.858296
1983.000000;2.796140
1982.000000;2.919622
1981.000000;3.330205
1980.000000;2.838292
1979.000000;2.581238
1978.000000;2.553144
1977.000000;2.670613
1976.000000;2.910281
1975.000000;3.185749
1974.000000;3.173911
1973.000000;2.991649
1972.000000;2.923353
1971.000000;2.918989
1970.000000;2.722038
1969.000000;2.434032
1968.000000;2.275870
1967.000000;2.291451
1966.000000;2.436750
1965.000000;2.504039
1964.000000;2.427139
1963.000000;2.369775
1962.000000;2.401119
1961.000000;2.417260
1960.000000;2.316540
1959.000000;2.235802
1958.000000;2.221433
1957.000000;2.320229
1956.000000;2.512540
1955.000000;2.557878
1954.000000;2.520830
1953.000000;2.566810
1952.000000;2.621716
1951.000000;2.653382
1950.000000;2.600947
1949.000000;2.458437
1948.000000;2.387490
1947.000000;2.438412
1946.000000;2.448283
1945.000000;2.500673
1944.000000;2.723974
1943.000000;2.455458
1942.000000;2.275447
1941.000000;2.327145
1940.000000;2.547831
1939.000000;2.854087
1938.000000;2.520679
1937.000000;2.246753
1936.000000;2.125593
1935.000000;2.136773
1934.000000;2.334459
1933.000000;2.845731
1932.000000;3.011471
1931.000000;2.652670
1930.000000;2.593083
1929.000000;2.762559
1928.000000;2.927397
1927.000000;2.545938
1926.000000;2.377498
1925.000000;2.517421
1924.000000;2.808948
1923.000000;2.453182
1922.000000;2.202660
1921.000000;2.156960
1920.000000;2.158324
1919.000000;2.175088
1918.000000;2.210071
1917.000000;2.323796
1916.000000;2.558279
1915.000000;2.807264
1914.000000;2.807129
1913.000000;2.881102
1912.000000;3.089413
1911.000000;2.809857
1910.000000;2.650592
1909.000000;2.678373
1908.000000;2.949545
1907.000000;3.189397
1906.000000;2.793233
1905.000000;2.679668
1904.000000;2.721235
1903.000000;2.871164
1902.000000;2.817745
1901.000000;2.530064
1900.000000;2.327986
1899.000000;2.186643
1898.000000;2.098614
1897.000000;2.068446
1896.000000;2.086192
1895.000000;2.136160
1894.000000;2.217722
1893.000000;2.355603
1892.000000;2.715097
1891.000000;2.994733
1890.000000;2.526071
1889.000000;2.322356
1888.000000;2.234540
1887.000000;2.155988
1886.000000;2.109334
1885.000000;2.122576
1884.000000;2.176000
1883.000000;2.181963
1882.000000;2.165654
1881.000000;2.191187
1880.000000;2.223028
1879.000000;2.232303
1878.000000;2.276377
1877.000000;2.447410
1876.000000;2.654099
1875.000000;2.642980
1874.000000;2.722910
1873.000000;2.666846
1872.000000;2.551821
1871.000000;2.566852
1870.000000;2.499606
1869.000000;2.435104
1868.000000;2.399650
1867.000000;2.727076
1866.000000;2.768655
1865.000000;2.291196
1864.000000;2.135065
1863.000000;2.110601
1862.000000;2.163943
1861.000000;2.324969
1860.000000;2.786149
1859.000000;2.704883
1858.000000;2.306132
1857.000000;2.170157
1856.000000;2.140233
1855.000000;2.214882
1854.000000;2.382912
1853.000000;2.711820
1852.000000;2.917474
1851.000000;2.473278
1850.000000;2.349049
1849.000000;2.566002
1848.000000;2.784118
1847.000000;2.640344
1846.000000;2.975934
1845.000000;2.816049
1844.000000;2.542000
1843.000000;2.608927
1842.000000;2.548324
1841.000000;2.447126
1840.000000;2.332473
1839.000000;2.218575
1838.000000;2.176940
1837.000000;2.256343
1836.000000;2.599034
1835.000000;2.906637
1834.000000;2.524306
1833.000000;2.380158
1832.000000;2.379327
1831.000000;2.460793
1830.000000;2.626153
1829.000000;2.771395
1828.000000;2.516136
1827.000000;2.256086
1826.000000;2.177606
1825.000000;2.278848
1824.000000;2.481807
1823.000000;2.399727
1822.000000;2.307886
1821.000000;2.324255
1820.000000;2.326209
1819.000000;2.345266
1818.000000;2.420587
1817.000000;2.659532
1816.000000;2.684497
1815.000000;2.341775
1814.000000;2.170366
1813.000000;2.148628
1812.000000;2.315020
1811.000000;2.477345
1810.000000;2.292557
1809.000000;2.218733
1808.000000;2.298804
1807.000000;2.396140
1806.000000;2.497404
1805.000000;2.496801
1804.000000;2.349548
1803.000000;2.322782
1802.000000;2.510322
1801.000000;2.837000
1800.000000;2.769991
1799.000000;2.464880
1798.000000;2.309885
1797.000000;2.389909
1796.000000;2.488447
1795.000000;2.371382
1794.000000;2.243472
1793.000000;2.126485
1792.000000;2.118604
1791.000000;2.251095
1790.000000;2.495513
1789.000000;2.743476
1788.000000;2.686566
1787.000000;2.627744
1786.000000;2.789401
1785.000000;2.769989
1784.000000;2.554222
1783.000000;2.474759
1782.000000;2.454428
1781.000000;2.555447
1780.000000;3.130197
1779.000000;2.404772
1778.000000;2.111487
1777.000000;2.054922
1776.000000;2.077927
1775.000000;2.159502
1774.000000;2.301671
1773.000000;2.659752
1772.000000;2.431878
1771.000000;2.107993
1770.000000;2.159755
1769.000000;2.329531
1768.000000;2.340110
1767.000000;2.361614
1766.000000;2.459378
1765.000000;2.535212
1764.000000;2.529093
1763.000000;2.524380
1762.000000;2.567694
1761.000000;2.584585
1760.000000;2.569513
1759.000000;2.633676
1758.000000;2.826197
1757.000000;2.598343
1756.000000;2.235715
1755.000000;2.037588
1754.000000;1.933727
1753.000000;1.900067
1752.000000;1.956995
1751.000000;2.174537
1750.000000;2.506161
1749.000000;2.310374
1748.000000;2.113776
1747.000000;1.962346
1746.000000;1.882072
1745.000000;1.901015
1744.000000;1.957256
1743.000000;2.005120
1742.000000;2.065188
1741.000000;2.169686
1740.000000;2.205309
1739.000000;2.112860
1738.000000;2.067682
1737.000000;2.115378
1736.000000;2.251105
1735.000000;2.486841
1734.000000;2.611445
1733.000000;2.551821
1732.000000;2.478563
1731.000000;2.348386
1730.000000;2.231413
1729.000000;2.229048
1728.000000;2.330255
1727.000000;2.444490
1726.000000;2.296107
1725.000000;2.114315
1724.000000;2.100823
1723.000000;2.218797
1722.000000;2.368685
1721.000000;2.363127
1720.000000;2.168291
1719.000000;2.021031
1718.000000;1.981198
1717.000000;2.117398
1716.000000;2.317483
1715.000000;2.178802
1714.000000;2.038756
1713.000000;2.029068
1712.000000;2.169554
1711.000000;2.571063
1710.000000;3.119940
1709.000000;2.582515
1708.000000;2.246781
1707.000000;2.071642
1706.000000;1.978717
1705.000000;2.053139
1704.000000;2.193570
1703.000000;2.054139
1702.000000;2.067340
1701.000000;2.473355
1700.000000;2.169836
1699.000000;1.921742
1698.000000;1.900189
1697.000000;1.935128
1696.000000;2.083774
1695.000000;2.609641
1694.000000;2.610802
1693.000000;2.294722
1692.000000;2.167247
1691.000000;2.206076
1690.000000;2.422521
1689.000000;2.043331
1688.000000;1.825295
1687.000000;1.774086
1686.000000;1.821125
1685.000000;1.945395
1684.000000;2.434519
1683.000000;2.227231
1682.000000;1.874536
1681.000000;1.855300
1680.000000;1.869056
1679.000000;2.254255
1678.000000;2.358344
1677.000000;1.913233
1676.000000;1.840483
1675.000000;1.881663
1674.000000;1.917984
1673.000000;1.929413
1672.000000;1.969630
1671.000000;2.035895
1670.000000;1.982951
1669.000000;1.873868
1668.000000;1.895607
1667.000000;2.043075
1666.000000;2.221852
1665.000000;2.288615
1664.000000;2.197794
1663.000000;2.145951
1662.000000;2.214334
1661.000000;2.366653
1660.000000;2.439723
1659.000000;2.335818
1658.000000;2.211862
1657.000000;2.146910
1656.000000;2.124199
1655.000000;2.257703
1654.000000;2.176339
1653.000000;1.750149
1652.000000;1.678246
1651.000000;1.884272
1650.000000;1.986789
1649.000000;1.814373
1648.000000;1.647893
1647.000000;1.764227
1646.000000;1.886651
1645.000000;1.755651
1644.000000;1.841301
1643.000000;1.953706
1642.000000;1.992168
1641.000000;2.061628
1640.000000;2.234150
1639.000000;2.616096
1638.000000;2.429987
1637.000000;1.983461
1636.000000;1.742430
1635.000000;1.719371
1634.000000;1.811076
1633.000000;1.825429
1632.000000;1.808648
1631.000000;1.805548
1630.000000;1.859071
1629.000000;1.933973
1628.000000;1.830110
1627.000000;1.720726
1626.000000;1.769400
1625.000000;1.979948
1624.000000;1.977286
1623.000000;1.740355
1622.000000;1.686974
1621.000000;1.802691
1620.000000;1.968636
1619.000000;2.057024
1618.000000;2.068079
1617.000000;2.090047
1616.000000;2.101996
1615.000000;2.149411
1614.000000;2.276012
1613.000000;2.081381
1612.000000;1.788939
1611.000000;1.620115
1610.000000;1.574061
1609.000000;1.628845
1608.000000;1.738748
1607.000000;1.852624
1606.000000;1.949024
1605.000000;1.947990
1604.000000;1.799143
1603.000000;1.649109
1602.000000;1.602998
1601.000000;1.706472
1600.000000;1.937822
1599.000000;1.934366
1598.000000;1.829561
1597.000000;1.881117
1596.000000;2.037323
1595.000000;2.297561
1594.000000;2.333631
1593.000000;2.015001
1592.000000;1.833762
1591.000000;1.797509
1590.000000;1.865772
1589.000000;1.938422
1588.000000;1.883154
1587.000000;1.825510
1586.000000;1.817014
1585.000000;1.852262
1584.000000;1.912278
1583.000000;2.133081
1582.000000;2.703438
1581.000000;1.966552
1580.000000;1.785697
1579.000000;1.831559
1578.000000;2.130692
1577.000000;2.319743
1576.000000;1.807233
1575.000000;1.583631
1574.000000;1.560853
1573.000000;1.586329
1572.000000;1.593444
1571.000000;1.626372
1570.000000;1.694551
1569.000000;1.776949
1568.000000;1.901946
1567.000000;2.656253
1566.000000;2.098158
1565.000000;1.828636
1564.000000;1.896698
1563.000000;1.839616
1562.000000;1.777054
1561.000000;1.810563
1560.000000;1.796030
1559.000000;1.663148
1558.000000;1.651154
1557.000000;2.286592
1556.000000;1.815161
1555.000000;1.640358
1554.000000;1.676014
1553.000000;1.847296
1552.000000;2.054255
1551.000000;2.176625
1550.000000;2.185906
1549.000000;2.091620
1548.000000;2.004784
1547.000000;1.942726
1546.000000;1.896979
1545.000000;1.842807
1544.000000;1.713719
1543.000000;1.536980
1542.000000;1.428755
1541.000000;1.443545
1540.000000;1.634348
1539.000000;1.622762
1538.000000;1.576672
1537.000000;1.644373
1536.000000;1.663869
1535.000000;1.719347
1534.000000;1.876345
1533.000000;1.987447
1532.000000;2.169253
1531.000000;2.307520
1530.000000;1.950659
1529.000000;1.740255
1528.000000;1.654635
1527.000000;1.677779
1526.000000;1.769267
1525.000000;1.944609
1524.000000;2.275043
1523.000000;2.597480
1522.000000;2.538599
1521.000000;2.014405
1520.000000;1.797989
1519.000000;1.853244
1518.000000;1.911559
1517.000000;2.194622
1516.000000;2.231075
1515.000000;1.754268
1514.000000;1.600209
1513.000000;1.573234
1512.000000;1.640227
1511.000000;1.822575
1510.000000;2.240070
1509.000000;2.482011
1508.000000;1.997312
1507.000000;1.717238
1506.000000;1.429600
1505.000000;1.371985
1504.000000;1.467831
1503.000000;1.498963
1502.000000;1.502675
1501.000000;1.552861
1500.000000;1.671480
1499.000000;1.797701
1498.000000;2.183155
1497.000000;2.777073
1496.000000;2.085496
1495.000000;2.021256
1494.000000;1.862782
1493.000000;1.723029
1492.000000;1.664075
1491.000000;1.766617
1490.000000;2.144795
1489.000000;1.742979
1488.000000;1.496116
1487.000000;1.527987
1486.000000;1.821740
1485.000000;1.957235
1484.000000;1.609923
1483.000000;1.467790
1482.000000;1.434685
1481.000000;1.431592
1480.000000;1.410875
1479.000000;1.387878
1478.000000;1.406166
1477.000000;1.485920
1476.000000;1.648497
1475.000000;1.986315
1474.000000;1.978840
1473.000000;1.616539
1472.000000;1.511859
1471.000000;1.496073
1470.000000;1.567322
1469.000000;1.690666
1468.000000;1.737661
1467.000000;1.617413
1466.000000;1.547381
1465.000000;1.626773
1464.000000;1.709580
1463.000000;1.652012
1462.000000;1.707069
1461.000000;1.888686
1460.000000;2.835394
1459.000000;2.182245
1458.000000;1.799685
1457.000000;1.662531
1456.000000;1.548883
1455.000000;1.576098
1454.000000;1.617686
1453.000000;1.638534
1452.000000;1.688794
1451.000000;1.774808
1450.000000;1.959735
1449.000000;2.177558
1448.000000;1.860725
1447.000000;1.697824
1446.000000;1.663735
1445.000000;1.699205
1444.000000;1.779192
1443.000000;1.875587
1442.000000;1.891114
1441.000000;1.835371
1440.000000;1.832604
1439.000000;2.012664
1438.000000;2.357589
1437.000000;2.322712
1436.000000;2.307982
1435.000000;2.516372
1434.000000;2.886118
1433.000000;2.998495
1432.000000;2.195346
1431.000000;1.852649
1430.000000;1.818866
1429.000000;2.187621
1428.000000;2.318775
1427.000000;2.113125
1426.000000;2.105782
1425.000000;2.082514
1424.000000;1.998513
1423.000000;1.848183
1422.000000;1.833625
1421.000000;2.008048
1420.000000;2.383012
1419.000000;2.689330
1418.000000;2.945951
1417.000000;2.920508
1416.000000;2.638967
1415.000000;2.513499
1414.000000;2.326723
1413.000000;2.151747
1412.000000;2.047559
1411.000000;2.019910
1410.000000;2.004874
1409.000000;1.955216
1408.000000;1.882277
1407.000000;1.841851
1406.000000;1.887315
1405.000000;2.087609
1404.000000;2.066062
1403.000000;1.973485
1402.000000;2.094100
1401.000000;1.939426
1400.000000;1.805449
1399.000000;1.935014
1398.000000;2.429870
1397.000000;2.490048
1396.000000;2.344888
1395.000000;2.514703
1394.000000;2.666302
1393.000000;2.025083
1392.000000;1.833989
1391.000000;1.758709
1390.000000;1.936061
1389.000000;2.200816
1388.000000;1.779851
1387.000000;1.630340
1386.000000;1.649526
1385.000000;1.757943
1384.000000;1.947326
1383.000000;2.189175
1382.000000;2.017741
1381.000000;1.857290
1380.000000;1.923119
1379.000000;2.178718
1378.000000;2.437464
1377.000000;2.223300
1376.000000;1.841174
1375.000000;1.618606
1374.000000;1.541795
1373.000000;1.585188
1372.000000;1.723816
1371.000000;1.932009
1370.000000;2.179634
1369.000000;2.262715
1368.000000;2.253799
1367.000000;2.233485
1366.000000;2.160134
1365.000000;2.318483
1364.000000;2.658015
1363.000000;2.427118
1362.000000;2.651911
1361.000000;2.806849
1360.000000;2.444518
1359.000000;2.350161
1358.000000;2.270288
1357.000000;2.266581
1356.000000;2.315054
1355.000000;2.361536
1354.000000;2.308285
1353.000000;2.104673
1352.000000;1.941150
1351.000000;1.904691
1350.000000;2.002147
1349.000000;2.161706
1348.000000;2.117088
1347.000000;2.052766
1346.000000;2.114928
1345.000000;2.340604
1344.000000;3.215664
1343.000000;2.438756
1342.000000;2.182905
1341.000000;2.076330
1340.000000;2.065959
1339.000000;2.132078
1338.000000;2.215446
1337.000000;2.416711
1336.000000;2.569029
1335.000000;2.248338
1334.000000;2.139799
1333.000000;2.169624
1332.000000;2.253172
1331.000000;2.268352
1330.000000;2.161821
1329.000000;2.022646
1328.000000;1.939042
1327.000000;1.939150
1326.000000;2.034744
1325.000000;2.192687
1324.000000;2.227376
1323.000000;2.209089
1322.000000;2.291704
1321.000000;2.579802
1320.000000;2.762553
1319.000000;2.195574
1318.000000;1.988506
1317.000000;1.957995
1316.000000;2.025540
1315.000000;2.067790
1314.000000;2.043277
1313.000000;2.049577
1312.000000;2.153851
1311.000000;2.357480
1310.000000;2.579135
1309.000000;2.866793
1308.000000;3.057144
1307.000000;2.811778
1306.000000;2.626404
1305.000000;2.592598
1304.000000;2.564852
1303.000000;2.412805
1302.000000;2.346718
1301.000000;2.412514
1300.000000;2.532833
1299.000000;2.501811
1298.000000;2.468141
1297.000000;2.602211
1296.000000;3.069875
1295.000000;2.538395
1294.000000;2.252708
1293.000000;2.165509
1292.000000;2.210413
1291.000000;2.393547
1290.000000;2.746160
1289.000000;2.891758
1288.000000;2.485161
1287.000000;2.372249
1286.000000;2.394094
1285.000000;2.489323
1284.000000;2.673348
1283.000000;2.835920
1282.000000;2.665574
1281.000000;2.522406
1280.000000;2.510192
1279.000000;2.898823
1278.000000;3.095752
1277.000000;2.568984
1276.000000;2.440016
1275.000000;2.388708
1274.000000;2.331108
1273.000000;2.248395
1272.000000;2.219197
1271.000000;2.281959
1270.000000;2.459773
1269.000000;2.793972
1268.000000;2.925910
1267.000000;2.873377
1266.000000;2.733393
1265.000000;2.582292
1264.000000;2.530644
1263.000000;2.440280
1262.000000;2.326241
1261.000000;2.299991
1260.000000;2.382806
1259.000000;2.497609
1258.000000;2.501640
1257.000000;2.453918
1256.000000;2.427241
1255.000000;2.428484
1254.000000;2.461311
1253.000000;2.543017
1252.000000;2.728977
1251.000000;2.901884
1250.000000;2.734712
1249.000000;2.603310
1248.000000;2.585055
1247.000000;2.551000
1246.000000;2.542991
1245.000000;2.680339
1244.000000;3.034891
1243.000000;2.968920
1242.000000;3.123889
1241.000000;3.297599
1240.000000;2.859992
1239.000000;2.659641
1238.000000;2.488299
1237.000000;2.435946
1236.000000;2.480926
1235.000000;2.514320
1234.000000;2.560830
1233.000000;2.704818
1232.000000;2.859257
1231.000000;2.807394
1230.000000;2.705324
1229.000000;2.807573
1228.000000;3.135397
1227.000000;2.992637
1226.000000;2.927239
1225.000000;3.127363
1224.000000;3.119680
1223.000000;2.870976
1222.000000;2.695899
1221.000000;2.626437
1220.000000;2.591432
1219.000000;2.589260
1218.000000;2.673279
1217.000000;2.883929
1216.000000;2.955348
1215.000000;2.730704
1214.000000;2.578251
1213.000000;2.525760
1212.000000;2.572480
1211.000000;2.770269
1210.000000;3.246081
1209.000000;3.072156
1208.000000;3.062031
1207.000000;3.289722
1206.000000;2.806156
1205.000000;2.692021
1204.000000;2.748818
1203.000000;2.798608
1202.000000;2.882003
1201.000000;3.086754
1200.000000;3.183705
