Criado como novo conjunto de dados;"0307_DANIEL.spp","61205.0 Secs"
cm-1;Abs
10000.000000;0.544611
9999.000000;0.543767
9998.000000;0.542924
9997.000000;0.542083
9996.000000;0.541245
9995.000000;0.540406
9994.000000;0.539572
9993.000000;0.538734
9992.000000;0.537908
9991.000000;0.537065
9990.000000;0.536259
9989.000000;0.535324
9988.000000;0.534369
9987.000000;0.533730
9986.000000;0.533329
9985.000000;0.532831
9984.000000;0.531930
9983.000000;0.530713
9982.000000;0.529563
9981.000000;0.528779
9980.000000;0.528318
9979.000000;0.527916
9978.000000;0.527393
9977.000000;0.526747
9976.000000;0.526012
9975.000000;0.525147
9974.000000;0.524118
9973.000000;0.523006
9972.000000;0.521978
9971.000000;0.521172
9970.000000;0.520619
9969.000000;0.520267
9968.000000;0.519976
9967.000000;0.519531
9966.000000;0.518718
9965.000000;0.517509
9964.000000;0.516159
9963.000000;0.515034
9962.000000;0.514295
9961.000000;0.513770
9960.000000;0.513170
9959.000000;0.512385
9958.000000;0.511506
9957.000000;0.510605
9956.000000;0.509625
9955.000000;0.508503
9954.000000;0.507319
9953.000000;0.506221
9952.000000;0.505283
9951.000000;0.504486
9950.000000;0.503784
9949.000000;0.503107
9948.000000;0.502335
9947.000000;0.501374
9946.000000;0.500269
9945.000000;0.499165
9944.000000;0.498160
9943.000000;0.497240
9942.000000;0.496370
9941.000000;0.495569
9940.000000;0.494859
9939.000000;0.494226
9938.000000;0.493662
9937.000000;0.493186
9936.000000;0.492753
9935.000000;0.492202
9934.000000;0.491346
9933.000000;0.490153
9932.000000;0.488787
9931.000000;0.487491
9930.000000;0.486439
9929.000000;0.485658
9928.000000;0.485042
9927.000000;0.484424
9926.000000;0.483689
9925.000000;0.482821
9924.000000;0.481847
9923.000000;0.480747
9922.000000;0.479486
9921.000000;0.478127
9920.000000;0.476864
9919.000000;0.475890
9918.000000;0.475216
9917.000000;0.474635
9916.000000;0.473896
9915.000000;0.472915
9914.000000;0.471836
9913.000000;0.470882
9912.000000;0.470137
9911.000000;0.469468
9910.000000;0.468675
9909.000000;0.467704
9908.000000;0.466703
9907.000000;0.465853
9906.000000;0.465163
9905.000000;0.464456
9904.000000;0.463539
9903.000000;0.462382
9902.000000;0.461113
9901.000000;0.459887
9900.000000;0.458780
9899.000000;0.457786
9898.000000;0.456865
9897.000000;0.455978
9896.000000;0.455078
9895.000000;0.454126
9894.000000;0.453129
9893.000000;0.452139
9892.000000;0.451200
9891.000000;0.450304
9890.000000;0.449427
9889.000000;0.448584
9888.000000;0.447811
9887.000000;0.447086
9886.000000;0.446286
9885.000000;0.445259
9884.000000;0.443980
9883.000000;0.442627
9882.000000;0.441485
9881.000000;0.440707
9880.000000;0.440117
9879.000000;0.439302
9878.000000;0.437991
9877.000000;0.436373
9876.000000;0.434966
9875.000000;0.434126
9874.000000;0.433725
9873.000000;0.433308
9872.000000;0.432515
9871.000000;0.431309
9870.000000;0.429908
9869.000000;0.428596
9868.000000;0.427551
9867.000000;0.426743
9866.000000;0.425965
9865.000000;0.425024
9864.000000;0.423911
9863.000000;0.422736
9862.000000;0.421548
9861.000000;0.420320
9860.000000;0.419079
9859.000000;0.417921
9858.000000;0.416867
9857.000000;0.415834
9856.000000;0.414795
9855.000000;0.413832
9854.000000;0.412954
9853.000000;0.411984
9852.000000;0.410760
9851.000000;0.409368
9850.000000;0.408062
9849.000000;0.406982
9848.000000;0.406066
9847.000000;0.405211
9846.000000;0.404380
9845.000000;0.403556
9844.000000;0.402681
9843.000000;0.401673
9842.000000;0.400463
9841.000000;0.399031
9840.000000;0.397468
9839.000000;0.395973
9838.000000;0.394694
9837.000000;0.393601
9836.000000;0.392571
9835.000000;0.391563
9834.000000;0.390610
9833.000000;0.389703
9832.000000;0.388791
9831.000000;0.387888
9830.000000;0.387030
9829.000000;0.386123
9828.000000;0.384976
9827.000000;0.383537
9826.000000;0.381989
9825.000000;0.380548
9824.000000;0.379291
9823.000000;0.378189
9822.000000;0.377179
9821.000000;0.376137
9820.000000;0.374930
9819.000000;0.373606
9818.000000;0.372413
9817.000000;0.371507
9816.000000;0.370698
9815.000000;0.369627
9814.000000;0.368147
9813.000000;0.366439
9812.000000;0.364810
9811.000000;0.363498
9810.000000;0.362606
9809.000000;0.362031
9808.000000;0.361443
9807.000000;0.360499
9806.000000;0.359182
9805.000000;0.357806
9804.000000;0.356652
9803.000000;0.355676
9802.000000;0.354625
9801.000000;0.353351
9800.000000;0.351901
9799.000000;0.350385
9798.000000;0.348868
9797.000000;0.347391
9796.000000;0.346008
9795.000000;0.344740
9794.000000;0.343563
9793.000000;0.342448
9792.000000;0.341386
9791.000000;0.340346
9790.000000;0.339249
9789.000000;0.338029
9788.000000;0.336719
9787.000000;0.335419
9786.000000;0.334186
9785.000000;0.332994
9784.000000;0.331787
9783.000000;0.330541
9782.000000;0.329237
9781.000000;0.327830
9780.000000;0.326303
9779.000000;0.324718
9778.000000;0.323150
9777.000000;0.321619
9776.000000;0.320116
9775.000000;0.318675
9774.000000;0.317332
9773.000000;0.316059
9772.000000;0.314796
9771.000000;0.313544
9770.000000;0.312325
9769.000000;0.311070
9768.000000;0.309676
9767.000000;0.308214
9766.000000;0.306968
9765.000000;0.306171
9764.000000;0.305722
9763.000000;0.305218
9762.000000;0.304240
9761.000000;0.302635
9760.000000;0.300593
9759.000000;0.298516
9758.000000;0.296712
9757.000000;0.295158
9756.000000;0.293599
9755.000000;0.291895
9754.000000;0.290191
9753.000000;0.288692
9752.000000;0.287413
9751.000000;0.286231
9750.000000;0.285068
9749.000000;0.283882
9748.000000;0.282552
9747.000000;0.280978
9746.000000;0.279296
9745.000000;0.277824
9744.000000;0.276733
9743.000000;0.275878
9742.000000;0.274970
9741.000000;0.273817
9740.000000;0.272360
9739.000000;0.270600
9738.000000;0.268600
9737.000000;0.266543
9736.000000;0.264677
9735.000000;0.263182
9734.000000;0.262045
9733.000000;0.261042
9732.000000;0.259906
9731.000000;0.258572
9730.000000;0.257243
9729.000000;0.256133
9728.000000;0.255165
9727.000000;0.254010
9726.000000;0.252463
9725.000000;0.250642
9724.000000;0.248807
9723.000000;0.247082
9722.000000;0.245448
9721.000000;0.243905
9720.000000;0.242493
9719.000000;0.241205
9718.000000;0.239947
9717.000000;0.238624
9716.000000;0.237169
9715.000000;0.235524
9714.000000;0.233671
9713.000000;0.231709
9712.000000;0.229851
9711.000000;0.228267
9710.000000;0.226948
9709.000000;0.225732
9708.000000;0.224454
9707.000000;0.223039
9706.000000;0.221465
9705.000000;0.219695
9704.000000;0.217723
9703.000000;0.215684
9702.000000;0.213842
9701.000000;0.212396
9700.000000;0.211301
9699.000000;0.210306
9698.000000;0.209185
9697.000000;0.207892
9696.000000;0.206500
9695.000000;0.205020
9694.000000;0.203348
9693.000000;0.201394
9692.000000;0.199229
9691.000000;0.197073
9690.000000;0.195119
9689.000000;0.193405
9688.000000;0.191872
9687.000000;0.190489
9686.000000;0.189220
9685.000000;0.187897
9684.000000;0.186279
9683.000000;0.184299
9682.000000;0.182181
9681.000000;0.180225
9680.000000;0.178545
9679.000000;0.177082
9678.000000;0.175785
9677.000000;0.174628
9676.000000;0.173472
9675.000000;0.172070
9674.000000;0.170276
9673.000000;0.168196
9672.000000;0.166072
9671.000000;0.164067
9670.000000;0.162155
9669.000000;0.160215
9668.000000;0.158198
9667.000000;0.156233
9666.000000;0.154514
9665.000000;0.153065
9664.000000;0.151685
9663.000000;0.150184
9662.000000;0.148596
9661.000000;0.147035
9660.000000;0.145428
9659.000000;0.143585
9658.000000;0.141531
9657.000000;0.139586
9656.000000;0.138016
9655.000000;0.136732
9654.000000;0.135403
9653.000000;0.133775
9652.000000;0.131822
9651.000000;0.129684
9650.000000;0.127567
9649.000000;0.125632
9648.000000;0.123909
9647.000000;0.122321
9646.000000;0.120811
9645.000000;0.119375
9644.000000;0.117943
9643.000000;0.116329
9642.000000;0.114391
9641.000000;0.112199
9640.000000;0.109971
9639.000000;0.107889
9638.000000;0.106005
9637.000000;0.104261
9636.000000;0.102545
9635.000000;0.100772
9634.000000;0.098921
9633.000000;0.096953
9632.000000;0.094736
9631.000000;0.092188
9630.000000;0.089554
9629.000000;0.087354
9628.000000;0.085907
9627.000000;0.084963
9626.000000;0.083909
9625.000000;0.082301
9624.000000;0.080144
9623.000000;0.077762
9622.000000;0.075516
9621.000000;0.073591
9620.000000;0.071882
9619.000000;0.070110
9618.000000;0.068133
9617.000000;0.066122
9616.000000;0.064323
9615.000000;0.062709
9614.000000;0.060981
9613.000000;0.058908
9612.000000;0.056522
9611.000000;0.054016
9610.000000;0.051575
9609.000000;0.049346
9608.000000;0.047414
9607.000000;0.045742
9606.000000;0.044192
9605.000000;0.042665
9604.000000;0.041137
9603.000000;0.039544
9602.000000;0.037734
9601.000000;0.035593
9600.000000;0.033202
9599.000000;0.030808
9598.000000;0.028655
9597.000000;0.026812
9596.000000;0.025115
9595.000000;0.023278
9594.000000;0.021142
9593.000000;0.018824
9592.000000;0.016601
9591.000000;0.014633
9590.000000;0.012861
9589.000000;0.011129
9588.000000;0.009324
9587.000000;0.007406
9586.000000;0.005419
9585.000000;0.003491
9584.000000;0.001724
9583.000000;0.000017
9582.000000;-0.001921
9581.000000;-0.004300
9580.000000;-0.006992
9579.000000;-0.009614
9578.000000;-0.011861
9577.000000;-0.013746
9576.000000;-0.015531
9575.000000;-0.017446
9574.000000;-0.019485
9573.000000;-0.021459
9572.000000;-0.023230
9571.000000;-0.024868
9570.000000;-0.026575
9569.000000;-0.028519
9568.000000;-0.030767
9567.000000;-0.033288
9566.000000;-0.035915
9565.000000;-0.038326
9564.000000;-0.040214
9563.000000;-0.041575
9562.000000;-0.042767
9561.000000;-0.044250
9560.000000;-0.046228
9559.000000;-0.048547
9558.000000;-0.050861
9557.000000;-0.052896
9556.000000;-0.054619
9555.000000;-0.056226
9554.000000;-0.057985
9553.000000;-0.060028
9552.000000;-0.062267
9551.000000;-0.064476
9550.000000;-0.066478
9549.000000;-0.068286
9548.000000;-0.070062
9547.000000;-0.071947
9546.000000;-0.073921
9545.000000;-0.075886
9544.000000;-0.077831
9543.000000;-0.079822
9542.000000;-0.081831
9541.000000;-0.083715
9540.000000;-0.085441
9539.000000;-0.087210
9538.000000;-0.089215
9537.000000;-0.091382
9536.000000;-0.093483
9535.000000;-0.095440
9534.000000;-0.097348
9533.000000;-0.099222
9532.000000;-0.100926
9531.000000;-0.102420
9530.000000;-0.103899
9529.000000;-0.105595
9528.000000;-0.107525
9527.000000;-0.109506
9526.000000;-0.111333
9525.000000;-0.112901
9524.000000;-0.114264
9523.000000;-0.115645
9522.000000;-0.117296
9521.000000;-0.119261
9520.000000;-0.121327
9519.000000;-0.123278
9518.000000;-0.125115
9517.000000;-0.126946
9516.000000;-0.128731
9515.000000;-0.130297
9514.000000;-0.131594
9513.000000;-0.132802
9512.000000;-0.134151
9511.000000;-0.135684
9510.000000;-0.137259
9509.000000;-0.138767
9508.000000;-0.140246
9507.000000;-0.141762
9506.000000;-0.143228
9505.000000;-0.144477
9504.000000;-0.145536
9503.000000;-0.146707
9502.000000;-0.148237
9501.000000;-0.149998
9500.000000;-0.151640
9499.000000;-0.153044
9498.000000;-0.154450
9497.000000;-0.156077
9496.000000;-0.157808
9495.000000;-0.159330
9494.000000;-0.160478
9493.000000;-0.161319
9492.000000;-0.161982
9491.000000;-0.162565
9490.000000;-0.163167
9489.000000;-0.163883
9488.000000;-0.164748
9487.000000;-0.165750
9486.000000;-0.166879
9485.000000;-0.168124
9484.000000;-0.169411
9483.000000;-0.170615
9482.000000;-0.171639
9481.000000;-0.172473
9480.000000;-0.173198
9479.000000;-0.173972
9478.000000;-0.174923
9477.000000;-0.176009
9476.000000;-0.177030
9475.000000;-0.177853
9474.000000;-0.178573
9473.000000;-0.179379
9472.000000;-0.180307
9471.000000;-0.181200
9470.000000;-0.181908
9469.000000;-0.182389
9468.000000;-0.182661
9467.000000;-0.182756
9466.000000;-0.182763
9465.000000;-0.182822
9464.000000;-0.183026
9463.000000;-0.183389
9462.000000;-0.183905
9461.000000;-0.184546
9460.000000;-0.185189
9459.000000;-0.185672
9458.000000;-0.185987
9457.000000;-0.186329
9456.000000;-0.186851
9455.000000;-0.187439
9454.000000;-0.187824
9453.000000;-0.187877
9452.000000;-0.187699
9451.000000;-0.187447
9450.000000;-0.187198
9449.000000;-0.186995
9448.000000;-0.186901
9447.000000;-0.186942
9446.000000;-0.187024
9445.000000;-0.186977
9444.000000;-0.186680
9443.000000;-0.186159
9442.000000;-0.185601
9441.000000;-0.185246
9440.000000;-0.185191
9439.000000;-0.185262
9438.000000;-0.185159
9437.000000;-0.184778
9436.000000;-0.184321
9435.000000;-0.184017
9434.000000;-0.183796
9433.000000;-0.183356
9432.000000;-0.182558
9431.000000;-0.181629
9430.000000;-0.180928
9429.000000;-0.180590
9428.000000;-0.180470
9427.000000;-0.180356
9426.000000;-0.180129
9425.000000;-0.179713
9424.000000;-0.179009
9423.000000;-0.177962
9422.000000;-0.176689
9421.000000;-0.175449
9420.000000;-0.174454
9419.000000;-0.173706
9418.000000;-0.173058
9417.000000;-0.172396
9416.000000;-0.171716
9415.000000;-0.171039
9414.000000;-0.170329
9413.000000;-0.169552
9412.000000;-0.168757
9411.000000;-0.167999
9410.000000;-0.167207
9409.000000;-0.166227
9408.000000;-0.165034
9407.000000;-0.163779
9406.000000;-0.162593
9405.000000;-0.161434
9404.000000;-0.160226
9403.000000;-0.159062
9402.000000;-0.158071
9401.000000;-0.157137
9400.000000;-0.155949
9399.000000;-0.154425
9398.000000;-0.152917
9397.000000;-0.151824
9396.000000;-0.151105
9395.000000;-0.150344
9394.000000;-0.149286
9393.000000;-0.148088
9392.000000;-0.147007
9391.000000;-0.146029
9390.000000;-0.144949
9389.000000;-0.143694
9388.000000;-0.142398
9387.000000;-0.141176
9386.000000;-0.139974
9385.000000;-0.138647
9384.000000;-0.137093
9383.000000;-0.135297
9382.000000;-0.133368
9381.000000;-0.131587
9380.000000;-0.130280
9379.000000;-0.129503
9378.000000;-0.128918
9377.000000;-0.128095
9376.000000;-0.126943
9375.000000;-0.125738
9374.000000;-0.124721
9373.000000;-0.123779
9372.000000;-0.122582
9371.000000;-0.120976
9370.000000;-0.119133
9369.000000;-0.117356
9368.000000;-0.115807
9367.000000;-0.114460
9366.000000;-0.113207
9365.000000;-0.111914
9364.000000;-0.110414
9363.000000;-0.108594
9362.000000;-0.106581
9361.000000;-0.104740
9360.000000;-0.103349
9359.000000;-0.102265
9358.000000;-0.101042
9357.000000;-0.099420
9356.000000;-0.097604
9355.000000;-0.095999
9354.000000;-0.094750
9353.000000;-0.093664
9352.000000;-0.092524
9351.000000;-0.091343
9350.000000;-0.090254
9349.000000;-0.089277
9348.000000;-0.088244
9347.000000;-0.086944
9346.000000;-0.085307
9345.000000;-0.083473
9344.000000;-0.081704
9343.000000;-0.080147
9342.000000;-0.078695
9341.000000;-0.077108
9340.000000;-0.075311
9339.000000;-0.073510
9338.000000;-0.071979
9337.000000;-0.070794
9336.000000;-0.069801
9335.000000;-0.068788
9334.000000;-0.067618
9333.000000;-0.066235
9332.000000;-0.064655
9331.000000;-0.062972
9330.000000;-0.061334
9329.000000;-0.059871
9328.000000;-0.058622
9327.000000;-0.057501
9326.000000;-0.056320
9325.000000;-0.054907
9324.000000;-0.053264
9323.000000;-0.051579
9322.000000;-0.050030
9321.000000;-0.048607
9320.000000;-0.047166
9319.000000;-0.045634
9318.000000;-0.044086
9317.000000;-0.042667
9316.000000;-0.041487
9315.000000;-0.040574
9314.000000;-0.039826
9313.000000;-0.039007
9312.000000;-0.037901
9311.000000;-0.036489
9310.000000;-0.034910
9309.000000;-0.033251
9308.000000;-0.031500
9307.000000;-0.029739
9306.000000;-0.028198
9305.000000;-0.026983
9304.000000;-0.025835
9303.000000;-0.024356
9302.000000;-0.022460
9301.000000;-0.020470
9300.000000;-0.018774
9299.000000;-0.017485
9298.000000;-0.016467
9297.000000;-0.015534
9296.000000;-0.014515
9295.000000;-0.013246
9294.000000;-0.011664
9293.000000;-0.009937
9292.000000;-0.008405
9291.000000;-0.007299
9290.000000;-0.006519
9289.000000;-0.005715
9288.000000;-0.004600
9287.000000;-0.003190
9286.000000;-0.001713
9285.000000;-0.000315
9284.000000;0.001095
9283.000000;0.002652
9282.000000;0.004289
9281.000000;0.005788
9280.000000;0.007071
9279.000000;0.008271
9278.000000;0.009482
9277.000000;0.010599
9276.000000;0.011532
9275.000000;0.012437
9274.000000;0.013559
9273.000000;0.014892
9272.000000;0.016172
9271.000000;0.017209
9270.000000;0.018080
9269.000000;0.018984
9268.000000;0.020044
9267.000000;0.021311
9266.000000;0.022801
9265.000000;0.024412
9264.000000;0.025924
9263.000000;0.027204
9262.000000;0.028326
9261.000000;0.029425
9260.000000;0.030519
9259.000000;0.031584
9258.000000;0.032693
9257.000000;0.033898
9256.000000;0.035041
9255.000000;0.035891
9254.000000;0.036476
9253.000000;0.037121
9252.000000;0.038093
9251.000000;0.039367
9250.000000;0.040766
9249.000000;0.042176
9248.000000;0.043525
9247.000000;0.044709
9246.000000;0.045696
9245.000000;0.046623
9244.000000;0.047672
9243.000000;0.048847
9242.000000;0.049996
9241.000000;0.051038
9240.000000;0.052068
9239.000000;0.053245
9238.000000;0.054624
9237.000000;0.056125
9236.000000;0.057611
9235.000000;0.058990
9234.000000;0.060239
9233.000000;0.061341
9232.000000;0.062217
9231.000000;0.062802
9230.000000;0.063218
9229.000000;0.063768
9228.000000;0.064673
9227.000000;0.065868
9226.000000;0.067110
9225.000000;0.068243
9224.000000;0.069282
9223.000000;0.070286
9222.000000;0.071276
9221.000000;0.072275
9220.000000;0.073340
9219.000000;0.074492
9218.000000;0.075671
9217.000000;0.076801
9216.000000;0.077859
9215.000000;0.078895
9214.000000;0.079964
9213.000000;0.081034
9212.000000;0.081979
9211.000000;0.082728
9210.000000;0.083471
9209.000000;0.084566
9208.000000;0.086114
9207.000000;0.087687
9206.000000;0.088677
9205.000000;0.088944
9204.000000;0.088976
9203.000000;0.089361
9202.000000;0.090248
9201.000000;0.091400
9200.000000;0.092590
9199.000000;0.093793
9198.000000;0.095020
9197.000000;0.096168
9196.000000;0.097080
9195.000000;0.097705
9194.000000;0.098169
9193.000000;0.098712
9192.000000;0.099527
9191.000000;0.100619
9190.000000;0.101821
9189.000000;0.102979
9188.000000;0.104078
9187.000000;0.105157
9186.000000;0.106160
9185.000000;0.106975
9184.000000;0.107620
9183.000000;0.108279
9182.000000;0.109103
9181.000000;0.110048
9180.000000;0.110971
9179.000000;0.111838
9178.000000;0.112758
9177.000000;0.113785
9176.000000;0.114771
9175.000000;0.115457
9174.000000;0.115734
9173.000000;0.115774
9172.000000;0.115939
9171.000000;0.116537
9170.000000;0.117641
9169.000000;0.119065
9168.000000;0.120504
9167.000000;0.121722
9166.000000;0.122629
9165.000000;0.123254
9164.000000;0.123727
9163.000000;0.124281
9162.000000;0.125156
9161.000000;0.126361
9160.000000;0.127579
9159.000000;0.128436
9158.000000;0.128879
9157.000000;0.129174
9156.000000;0.129537
9155.000000;0.129945
9154.000000;0.130357
9153.000000;0.130935
9152.000000;0.131879
9151.000000;0.133124
9150.000000;0.134377
9149.000000;0.135408
9148.000000;0.136163
9147.000000;0.136650
9146.000000;0.136893
9145.000000;0.137057
9144.000000;0.137446
9143.000000;0.138258
9142.000000;0.139389
9141.000000;0.140535
9140.000000;0.141455
9139.000000;0.142098
9138.000000;0.142566
9137.000000;0.142984
9136.000000;0.143417
9135.000000;0.143880
9134.000000;0.144399
9133.000000;0.145020
9132.000000;0.145742
9131.000000;0.146479
9130.000000;0.147179
9129.000000;0.147907
9128.000000;0.148740
9127.000000;0.149620
9126.000000;0.150437
9125.000000;0.151202
9124.000000;0.152004
9123.000000;0.152798
9122.000000;0.153408
9121.000000;0.153783
9120.000000;0.154117
9119.000000;0.154640
9118.000000;0.155387
9117.000000;0.156242
9116.000000;0.157083
9115.000000;0.157818
9114.000000;0.158389
9113.000000;0.158820
9112.000000;0.159226
9111.000000;0.159706
9110.000000;0.160265
9109.000000;0.160881
9108.000000;0.161531
9107.000000;0.162125
9106.000000;0.162524
9105.000000;0.162729
9104.000000;0.162975
9103.000000;0.163517
9102.000000;0.164375
9101.000000;0.165359
9100.000000;0.166283
9099.000000;0.167041
9098.000000;0.167579
9097.000000;0.167920
9096.000000;0.168248
9095.000000;0.168824
9094.000000;0.169772
9093.000000;0.170976
9092.000000;0.172154
9091.000000;0.173003
9090.000000;0.173378
9089.000000;0.173422
9088.000000;0.173515
9087.000000;0.173947
9086.000000;0.174646
9085.000000;0.175276
9084.000000;0.175626
9083.000000;0.175798
9082.000000;0.176025
9081.000000;0.176395
9080.000000;0.176819
9079.000000;0.177188
9078.000000;0.177477
9077.000000;0.177730
9076.000000;0.178010
9075.000000;0.178392
9074.000000;0.178955
9073.000000;0.179731
9072.000000;0.180636
9071.000000;0.181495
9070.000000;0.182171
9069.000000;0.182676
9068.000000;0.183132
9067.000000;0.183624
9066.000000;0.184125
9065.000000;0.184568
9064.000000;0.184932
9063.000000;0.185232
9062.000000;0.185480
9061.000000;0.185701
9060.000000;0.185957
9059.000000;0.186299
9058.000000;0.186718
9057.000000;0.187161
9056.000000;0.187602
9055.000000;0.188077
9054.000000;0.188646
9053.000000;0.189325
9052.000000;0.190043
9051.000000;0.190668
9050.000000;0.191117
9049.000000;0.191430
9048.000000;0.191704
9047.000000;0.191961
9046.000000;0.192165
9045.000000;0.192371
9044.000000;0.192746
9043.000000;0.193363
9042.000000;0.194039
9041.000000;0.194488
9040.000000;0.194621
9039.000000;0.194628
9038.000000;0.194764
9037.000000;0.195107
9036.000000;0.195528
9035.000000;0.195875
9034.000000;0.196148
9033.000000;0.196492
9032.000000;0.197042
9031.000000;0.197793
9030.000000;0.198632
9029.000000;0.199435
9028.000000;0.200091
9027.000000;0.200481
9026.000000;0.200555
9025.000000;0.200430
9024.000000;0.200302
9023.000000;0.200247
9022.000000;0.200205
9021.000000;0.200187
9020.000000;0.200358
9019.000000;0.200839
9018.000000;0.201498
9017.000000;0.202056
9016.000000;0.202370
9015.000000;0.202569
9014.000000;0.202911
9013.000000;0.203531
9012.000000;0.204291
9011.000000;0.204866
9010.000000;0.205040
9009.000000;0.204923
9008.000000;0.204832
9007.000000;0.204958
9006.000000;0.205269
9005.000000;0.205692
9004.000000;0.206249
9003.000000;0.206912
9002.000000;0.207515
9001.000000;0.207913
9000.000000;0.208125
8999.000000;0.208224
8998.000000;0.208207
8997.000000;0.208113
8996.000000;0.208160
8995.000000;0.208574
8994.000000;0.209299
8993.000000;0.210025
8992.000000;0.210502
8991.000000;0.210707
8990.000000;0.210739
8989.000000;0.210713
8988.000000;0.210750
8987.000000;0.210957
8986.000000;0.211334
8985.000000;0.211779
8984.000000;0.212192
8983.000000;0.212517
8982.000000;0.212699
8981.000000;0.212708
8980.000000;0.212608
8979.000000;0.212521
8978.000000;0.212524
8977.000000;0.212627
8976.000000;0.212874
8975.000000;0.213332
8974.000000;0.213970
8973.000000;0.214625
8972.000000;0.215127
8971.000000;0.215431
8970.000000;0.215601
8969.000000;0.215726
8968.000000;0.215884
8967.000000;0.216123
8966.000000;0.216440
8965.000000;0.216765
8964.000000;0.216985
8963.000000;0.217004
8962.000000;0.216817
8961.000000;0.216560
8960.000000;0.216452
8959.000000;0.216626
8958.000000;0.217026
8957.000000;0.217464
8956.000000;0.217772
8955.000000;0.217881
8954.000000;0.217851
8953.000000;0.217866
8952.000000;0.218117
8951.000000;0.218596
8950.000000;0.219039
8949.000000;0.219167
8948.000000;0.218982
8947.000000;0.218759
8946.000000;0.218781
8945.000000;0.219143
8944.000000;0.219741
8943.000000;0.220338
8942.000000;0.220671
8941.000000;0.220654
8940.000000;0.220510
8939.000000;0.220589
8938.000000;0.221019
8937.000000;0.221607
8936.000000;0.222101
8935.000000;0.222426
8934.000000;0.222611
8933.000000;0.222629
8932.000000;0.222453
8931.000000;0.222211
8930.000000;0.222130
8929.000000;0.222293
8928.000000;0.222536
8927.000000;0.222634
8926.000000;0.222549
8925.000000;0.222426
8924.000000;0.222374
8923.000000;0.222357
8922.000000;0.222304
8921.000000;0.222285
8920.000000;0.222456
8919.000000;0.222835
8918.000000;0.223236
8917.000000;0.223474
8916.000000;0.223579
8915.000000;0.223726
8914.000000;0.223984
8913.000000;0.224224
8912.000000;0.224290
8911.000000;0.224194
8910.000000;0.224093
8909.000000;0.224095
8908.000000;0.224141
8907.000000;0.224113
8906.000000;0.224032
8905.000000;0.224075
8904.000000;0.224377
8903.000000;0.224892
8902.000000;0.225488
8901.000000;0.226092
8900.000000;0.226627
8899.000000;0.226861
8898.000000;0.226543
8897.000000;0.225744
8896.000000;0.224903
8895.000000;0.224448
8894.000000;0.224441
8893.000000;0.224665
8892.000000;0.224933
8891.000000;0.225192
8890.000000;0.225441
8889.000000;0.225691
8888.000000;0.225986
8887.000000;0.226354
8886.000000;0.226740
8885.000000;0.227058
8884.000000;0.227282
8883.000000;0.227411
8882.000000;0.227406
8881.000000;0.227234
8880.000000;0.226958
8879.000000;0.226672
8878.000000;0.226371
8877.000000;0.225987
8876.000000;0.225540
8875.000000;0.225187
8874.000000;0.225094
8873.000000;0.225301
8872.000000;0.225684
8871.000000;0.226020
8870.000000;0.226135
8869.000000;0.226065
8868.000000;0.226021
8867.000000;0.226143
8866.000000;0.226322
8865.000000;0.226341
8864.000000;0.226145
8863.000000;0.225884
8862.000000;0.225737
8861.000000;0.225784
8860.000000;0.226038
8859.000000;0.226476
8858.000000;0.226977
8857.000000;0.227325
8856.000000;0.227332
8855.000000;0.226981
8854.000000;0.226484
8853.000000;0.226171
8852.000000;0.226236
8851.000000;0.226526
8850.000000;0.226669
8849.000000;0.226469
8848.000000;0.226120
8847.000000;0.225951
8846.000000;0.226060
8845.000000;0.226299
8844.000000;0.226506
8843.000000;0.226615
8842.000000;0.226563
8841.000000;0.226292
8840.000000;0.225886
8839.000000;0.225574
8838.000000;0.225547
8837.000000;0.225811
8836.000000;0.226204
8835.000000;0.226507
8834.000000;0.226571
8833.000000;0.226437
8832.000000;0.226310
8831.000000;0.226338
8830.000000;0.226436
8829.000000;0.226400
8828.000000;0.226173
8827.000000;0.225900
8826.000000;0.225767
8825.000000;0.225870
8824.000000;0.226202
8823.000000;0.226620
8822.000000;0.226871
8821.000000;0.226761
8820.000000;0.226337
8819.000000;0.225832
8818.000000;0.225449
8817.000000;0.225291
8816.000000;0.225432
8815.000000;0.225895
8814.000000;0.226546
8813.000000;0.227138
8812.000000;0.227476
8811.000000;0.227473
8810.000000;0.227093
8809.000000;0.226397
8808.000000;0.225635
8807.000000;0.225124
8806.000000;0.224970
8805.000000;0.225016
8804.000000;0.225059
8803.000000;0.225010
8802.000000;0.224830
8801.000000;0.224493
8800.000000;0.224061
8799.000000;0.223685
8798.000000;0.223464
8797.000000;0.223369
8796.000000;0.223340
8795.000000;0.223357
8794.000000;0.223405
8793.000000;0.223474
8792.000000;0.223602
8791.000000;0.223803
8790.000000;0.223933
8789.000000;0.223766
8788.000000;0.223273
8787.000000;0.222696
8786.000000;0.222281
8785.000000;0.222060
8784.000000;0.221953
8783.000000;0.221931
8782.000000;0.221978
8781.000000;0.222003
8780.000000;0.221914
8779.000000;0.221717
8778.000000;0.221450
8777.000000;0.221106
8776.000000;0.220745
8775.000000;0.220571
8774.000000;0.220736
8773.000000;0.221103
8772.000000;0.221343
8771.000000;0.221287
8770.000000;0.221066
8769.000000;0.220895
8768.000000;0.220833
8767.000000;0.220792
8766.000000;0.220701
8765.000000;0.220564
8764.000000;0.220418
8763.000000;0.220301
8762.000000;0.220260
8761.000000;0.220307
8760.000000;0.220362
8759.000000;0.220273
8758.000000;0.219964
8757.000000;0.219540
8756.000000;0.219194
8755.000000;0.219012
8754.000000;0.218913
8753.000000;0.218795
8752.000000;0.218668
8751.000000;0.218605
8750.000000;0.218613
8749.000000;0.218636
8748.000000;0.218616
8747.000000;0.218502
8746.000000;0.218230
8745.000000;0.217786
8744.000000;0.217298
8743.000000;0.216991
8742.000000;0.217023
8741.000000;0.217375
8740.000000;0.217841
8739.000000;0.218124
8738.000000;0.218030
8737.000000;0.217655
8736.000000;0.217323
8735.000000;0.217244
8734.000000;0.217284
8733.000000;0.217157
8732.000000;0.216765
8731.000000;0.216238
8730.000000;0.215706
8729.000000;0.215202
8728.000000;0.214769
8727.000000;0.214485
8726.000000;0.214352
8725.000000;0.214294
8724.000000;0.214284
8723.000000;0.214352
8722.000000;0.214462
8721.000000;0.214509
8720.000000;0.214444
8719.000000;0.214292
8718.000000;0.214008
8717.000000;0.213513
8716.000000;0.212887
8715.000000;0.212391
8714.000000;0.212201
8713.000000;0.212241
8712.000000;0.212332
8711.000000;0.212376
8710.000000;0.212321
8709.000000;0.212116
8708.000000;0.211793
8707.000000;0.211495
8706.000000;0.211286
8705.000000;0.211019
8704.000000;0.210522
8703.000000;0.209867
8702.000000;0.209326
8701.000000;0.209109
8700.000000;0.209208
8699.000000;0.209480
8698.000000;0.209769
8697.000000;0.209977
8696.000000;0.210065
8695.000000;0.210031
8694.000000;0.209858
8693.000000;0.209525
8692.000000;0.209079
8691.000000;0.208639
8690.000000;0.208301
8689.000000;0.208080
8688.000000;0.207947
8687.000000;0.207857
8686.000000;0.207720
8685.000000;0.207471
8684.000000;0.207197
8683.000000;0.207081
8682.000000;0.207133
8681.000000;0.207098
8680.000000;0.206751
8679.000000;0.206223
8678.000000;0.205889
8677.000000;0.205926
8676.000000;0.206100
8675.000000;0.206018
8674.000000;0.205533
8673.000000;0.204873
8672.000000;0.204394
8671.000000;0.204234
8670.000000;0.204222
8669.000000;0.204097
8668.000000;0.203784
8667.000000;0.203408
8666.000000;0.203109
8665.000000;0.202925
8664.000000;0.202831
8663.000000;0.202761
8662.000000;0.202572
8661.000000;0.202129
8660.000000;0.201489
8659.000000;0.200911
8658.000000;0.200608
8657.000000;0.200561
8656.000000;0.200619
8655.000000;0.200696
8654.000000;0.200776
8653.000000;0.200797
8652.000000;0.200644
8651.000000;0.200253
8650.000000;0.199682
8649.000000;0.199092
8648.000000;0.198655
8647.000000;0.198433
8646.000000;0.198304
8645.000000;0.198089
8644.000000;0.197763
8643.000000;0.197465
8642.000000;0.197263
8641.000000;0.197035
8640.000000;0.196663
8639.000000;0.196216
8638.000000;0.195830
8637.000000;0.195513
8636.000000;0.195187
8635.000000;0.194885
8634.000000;0.194731
8633.000000;0.194744
8632.000000;0.194769
8631.000000;0.194635
8630.000000;0.194306
8629.000000;0.193872
8628.000000;0.193454
8627.000000;0.193129
8626.000000;0.192897
8625.000000;0.192700
8624.000000;0.192490
8623.000000;0.192277
8622.000000;0.192098
8621.000000;0.191956
8620.000000;0.191831
8619.000000;0.191692
8618.000000;0.191483
8617.000000;0.191154
8616.000000;0.190738
8615.000000;0.190340
8614.000000;0.190017
8613.000000;0.189718
8612.000000;0.189381
8611.000000;0.189037
8610.000000;0.188751
8609.000000;0.188523
8608.000000;0.188311
8607.000000;0.188105
8606.000000;0.187905
8605.000000;0.187702
8604.000000;0.187527
8603.000000;0.187456
8602.000000;0.187458
8601.000000;0.187327
8600.000000;0.186876
8599.000000;0.186192
8598.000000;0.185561
8597.000000;0.185164
8596.000000;0.184940
8595.000000;0.184736
8594.000000;0.184474
8593.000000;0.184166
8592.000000;0.183875
8591.000000;0.183685
8590.000000;0.183624
8589.000000;0.183591
8588.000000;0.183443
8587.000000;0.183179
8586.000000;0.182949
8585.000000;0.182858
8584.000000;0.182804
8583.000000;0.182592
8582.000000;0.182136
8581.000000;0.181531
8580.000000;0.180963
8579.000000;0.180581
8578.000000;0.180418
8577.000000;0.180375
8576.000000;0.180299
8575.000000;0.180113
8574.000000;0.179857
8573.000000;0.179602
8572.000000;0.179341
8571.000000;0.178999
8570.000000;0.178525
8569.000000;0.177970
8568.000000;0.177448
8567.000000;0.177030
8566.000000;0.176689
8565.000000;0.176355
8564.000000;0.176025
8563.000000;0.175780
8562.000000;0.175687
8561.000000;0.175705
8560.000000;0.175733
8559.000000;0.175688
8558.000000;0.175507
8557.000000;0.175124
8556.000000;0.174532
8555.000000;0.173868
8554.000000;0.173352
8553.000000;0.173103
8552.000000;0.173038
8551.000000;0.172977
8550.000000;0.172790
8549.000000;0.172446
8548.000000;0.171979
8547.000000;0.171463
8546.000000;0.170998
8545.000000;0.170664
8544.000000;0.170476
8543.000000;0.170378
8542.000000;0.170303
8541.000000;0.170193
8540.000000;0.170002
8539.000000;0.169681
8538.000000;0.169230
8537.000000;0.168736
8536.000000;0.168328
8535.000000;0.168055
8534.000000;0.167823
8533.000000;0.167492
8532.000000;0.167040
8531.000000;0.166588
8530.000000;0.166253
8529.000000;0.166020
8528.000000;0.165787
8527.000000;0.165515
8526.000000;0.165281
8525.000000;0.165165
8524.000000;0.165138
8523.000000;0.165081
8522.000000;0.164914
8521.000000;0.164666
8520.000000;0.164382
8519.000000;0.164009
8518.000000;0.163453
8517.000000;0.162769
8516.000000;0.162181
8515.000000;0.161845
8514.000000;0.161658
8513.000000;0.161404
8512.000000;0.161055
8511.000000;0.160793
8510.000000;0.160736
8509.000000;0.160771
8508.000000;0.160708
8507.000000;0.160497
8506.000000;0.160222
8505.000000;0.159964
8504.000000;0.159739
8503.000000;0.159518
8502.000000;0.159216
8501.000000;0.158729
8500.000000;0.158056
8499.000000;0.157357
8498.000000;0.156837
8497.000000;0.156586
8496.000000;0.156576
8495.000000;0.156719
8494.000000;0.156855
8493.000000;0.156759
8492.000000;0.156303
8491.000000;0.155613
8490.000000;0.154978
8489.000000;0.154573
8488.000000;0.154337
8487.000000;0.154113
8486.000000;0.153822
8485.000000;0.153487
8484.000000;0.153155
8483.000000;0.152852
8482.000000;0.152575
8481.000000;0.152307
8480.000000;0.152059
8479.000000;0.151857
8478.000000;0.151691
8477.000000;0.151474
8476.000000;0.151147
8475.000000;0.150783
8474.000000;0.150529
8473.000000;0.150427
8472.000000;0.150358
8471.000000;0.150170
8470.000000;0.149806
8469.000000;0.149318
8468.000000;0.148819
8467.000000;0.148446
8466.000000;0.148283
8465.000000;0.148248
8464.000000;0.148124
8463.000000;0.147763
8462.000000;0.147241
8461.000000;0.146767
8460.000000;0.146455
8459.000000;0.146231
8458.000000;0.145962
8457.000000;0.145586
8456.000000;0.145123
8455.000000;0.144638
8454.000000;0.144236
8453.000000;0.144046
8452.000000;0.144102
8451.000000;0.144236
8450.000000;0.144167
8449.000000;0.143767
8448.000000;0.143197
8447.000000;0.142726
8446.000000;0.142449
8445.000000;0.142251
8444.000000;0.142024
8443.000000;0.141804
8442.000000;0.141653
8441.000000;0.141508
8440.000000;0.141239
8439.000000;0.140815
8438.000000;0.140364
8437.000000;0.140073
8436.000000;0.140059
8435.000000;0.140265
8434.000000;0.140434
8433.000000;0.140247
8432.000000;0.139596
8431.000000;0.138700
8430.000000;0.137899
8429.000000;0.137346
8428.000000;0.136984
8427.000000;0.136747
8426.000000;0.136640
8425.000000;0.136625
8424.000000;0.136566
8423.000000;0.136383
8422.000000;0.136150
8421.000000;0.135964
8420.000000;0.135760
8419.000000;0.135367
8418.000000;0.134740
8417.000000;0.134066
8416.000000;0.133625
8415.000000;0.133550
8414.000000;0.133708
8413.000000;0.133812
8412.000000;0.133666
8411.000000;0.133331
8410.000000;0.133034
8409.000000;0.132904
8408.000000;0.132834
8407.000000;0.132636
8406.000000;0.132275
8405.000000;0.131907
8404.000000;0.131672
8403.000000;0.131532
8402.000000;0.131326
8401.000000;0.130970
8400.000000;0.130550
8399.000000;0.130182
8398.000000;0.129841
8397.000000;0.129398
8396.000000;0.128837
8395.000000;0.128365
8394.000000;0.128202
8393.000000;0.128311
8392.000000;0.128409
8391.000000;0.128254
8390.000000;0.127852
8389.000000;0.127368
8388.000000;0.126936
8387.000000;0.126593
8386.000000;0.126321
8385.000000;0.126074
8384.000000;0.125795
8383.000000;0.125492
8382.000000;0.125272
8381.000000;0.125249
8380.000000;0.125401
8379.000000;0.125552
8378.000000;0.125501
8377.000000;0.125171
8376.000000;0.124647
8375.000000;0.124102
8374.000000;0.123674
8373.000000;0.123389
8372.000000;0.123203
8371.000000;0.123086
8370.000000;0.123032
8369.000000;0.122992
8368.000000;0.122873
8367.000000;0.122627
8366.000000;0.122305
8365.000000;0.121980
8364.000000;0.121655
8363.000000;0.121309
8362.000000;0.120972
8361.000000;0.120690
8360.000000;0.120451
8359.000000;0.120185
8358.000000;0.119847
8357.000000;0.119442
8356.000000;0.119004
8355.000000;0.118593
8354.000000;0.118290
8353.000000;0.118122
8352.000000;0.118007
8351.000000;0.117822
8350.000000;0.117533
8349.000000;0.117222
8348.000000;0.116982
8347.000000;0.116846
8346.000000;0.116801
8345.000000;0.116806
8344.000000;0.116806
8343.000000;0.116766
8342.000000;0.116695
8341.000000;0.116590
8340.000000;0.116370
8339.000000;0.115953
8338.000000;0.115396
8337.000000;0.114875
8336.000000;0.114524
8335.000000;0.114345
8334.000000;0.114285
8333.000000;0.114286
8332.000000;0.114252
8331.000000;0.114082
8330.000000;0.113801
8329.000000;0.113564
8328.000000;0.113437
8327.000000;0.113275
8326.000000;0.112907
8325.000000;0.112384
8324.000000;0.111920
8323.000000;0.111625
8322.000000;0.111416
8321.000000;0.111161
8320.000000;0.110823
8319.000000;0.110437
8318.000000;0.110058
8317.000000;0.109754
8316.000000;0.109576
8315.000000;0.109485
8314.000000;0.109364
8313.000000;0.109133
8312.000000;0.108816
8311.000000;0.108494
8310.000000;0.108228
8309.000000;0.108057
8308.000000;0.108002
8307.000000;0.108026
8306.000000;0.108027
8305.000000;0.107908
8304.000000;0.107650
8303.000000;0.107305
8302.000000;0.106929
8301.000000;0.106547
8300.000000;0.106176
8299.000000;0.105858
8298.000000;0.105655
8297.000000;0.105598
8296.000000;0.105634
8295.000000;0.105645
8294.000000;0.105548
8293.000000;0.105357
8292.000000;0.105143
8291.000000;0.104951
8290.000000;0.104788
8289.000000;0.104665
8288.000000;0.104583
8287.000000;0.104491
8286.000000;0.104307
8285.000000;0.104021
8284.000000;0.103717
8283.000000;0.103478
8282.000000;0.103307
8281.000000;0.103185
8280.000000;0.103124
8279.000000;0.103136
8278.000000;0.103141
8277.000000;0.103005
8276.000000;0.102677
8275.000000;0.102264
8274.000000;0.101923
8273.000000;0.101719
8272.000000;0.101597
8271.000000;0.101505
8270.000000;0.101453
8269.000000;0.101447
8268.000000;0.101397
8267.000000;0.101185
8266.000000;0.100800
8265.000000;0.100357
8264.000000;0.099959
8263.000000;0.099618
8262.000000;0.099337
8261.000000;0.099183
8260.000000;0.099194
8259.000000;0.099283
8258.000000;0.099312
8257.000000;0.099237
8256.000000;0.099101
8255.000000;0.098916
8254.000000;0.098649
8253.000000;0.098335
8252.000000;0.098085
8251.000000;0.097959
8250.000000;0.097883
8249.000000;0.097757
8248.000000;0.097583
8247.000000;0.097433
8246.000000;0.097346
8245.000000;0.097302
8244.000000;0.097251
8243.000000;0.097150
8242.000000;0.096974
8241.000000;0.096756
8240.000000;0.096569
8239.000000;0.096436
8238.000000;0.096266
8237.000000;0.095952
8236.000000;0.095518
8235.000000;0.095139
8234.000000;0.094962
8233.000000;0.094952
8232.000000;0.094931
8231.000000;0.094791
8230.000000;0.094614
8229.000000;0.094560
8228.000000;0.094649
8227.000000;0.094710
8226.000000;0.094579
8225.000000;0.094282
8224.000000;0.093988
8223.000000;0.093796
8222.000000;0.093653
8221.000000;0.093441
8220.000000;0.093133
8219.000000;0.092818
8218.000000;0.092624
8217.000000;0.092602
8216.000000;0.092667
8215.000000;0.092672
8214.000000;0.092576
8213.000000;0.092489
8212.000000;0.092538
8211.000000;0.092703
8210.000000;0.092828
8209.000000;0.092774
8208.000000;0.092509
8207.000000;0.092089
8206.000000;0.091631
8205.000000;0.091286
8204.000000;0.091135
8203.000000;0.091112
8202.000000;0.091081
8201.000000;0.090990
8200.000000;0.090883
8199.000000;0.090783
8198.000000;0.090663
8197.000000;0.090531
8196.000000;0.090441
8195.000000;0.090386
8194.000000;0.090271
8193.000000;0.090039
8192.000000;0.089761
8191.000000;0.089546
8190.000000;0.089432
8189.000000;0.089394
8188.000000;0.089375
8187.000000;0.089283
8186.000000;0.089031
8185.000000;0.088649
8184.000000;0.088301
8183.000000;0.088133
8182.000000;0.088151
8181.000000;0.088259
8180.000000;0.088354
8179.000000;0.088348
8178.000000;0.088196
8177.000000;0.087953
8176.000000;0.087758
8175.000000;0.087680
8174.000000;0.087642
8173.000000;0.087542
8172.000000;0.087394
8171.000000;0.087269
8170.000000;0.087170
8169.000000;0.087043
8168.000000;0.086887
8167.000000;0.086755
8166.000000;0.086686
8165.000000;0.086678
8164.000000;0.086704
8163.000000;0.086688
8162.000000;0.086524
8161.000000;0.086204
8160.000000;0.085892
8159.000000;0.085777
8158.000000;0.085860
8157.000000;0.085960
8156.000000;0.085916
8155.000000;0.085693
8154.000000;0.085332
8153.000000;0.084898
8152.000000;0.084522
8151.000000;0.084370
8150.000000;0.084500
8149.000000;0.084775
8148.000000;0.084967
8147.000000;0.084959
8146.000000;0.084814
8145.000000;0.084688
8144.000000;0.084672
8143.000000;0.084713
8142.000000;0.084684
8141.000000;0.084533
8140.000000;0.084344
8139.000000;0.084227
8138.000000;0.084196
8137.000000;0.084180
8136.000000;0.084137
8135.000000;0.084089
8134.000000;0.084033
8133.000000;0.083901
8132.000000;0.083636
8131.000000;0.083307
8130.000000;0.083091
8129.000000;0.083142
8128.000000;0.083442
8127.000000;0.083784
8126.000000;0.083899
8125.000000;0.083657
8124.000000;0.083168
8123.000000;0.082692
8122.000000;0.082442
8121.000000;0.082456
8120.000000;0.082605
8119.000000;0.082722
8118.000000;0.082726
8117.000000;0.082649
8116.000000;0.082552
8115.000000;0.082436
8114.000000;0.082276
8113.000000;0.082112
8112.000000;0.082045
8111.000000;0.082119
8110.000000;0.082262
8109.000000;0.082350
8108.000000;0.082298
8107.000000;0.082074
8106.000000;0.081712
8105.000000;0.081360
8104.000000;0.081207
8103.000000;0.081284
8102.000000;0.081383
8101.000000;0.081264
8100.000000;0.080926
8099.000000;0.080596
8098.000000;0.080473
8097.000000;0.080555
8096.000000;0.080718
8095.000000;0.080848
8094.000000;0.080888
8093.000000;0.080826
8092.000000;0.080705
8091.000000;0.080614
8090.000000;0.080607
8089.000000;0.080656
8088.000000;0.080699
8087.000000;0.080717
8086.000000;0.080761
8085.000000;0.080859
8084.000000;0.080948
8083.000000;0.080909
8082.000000;0.080709
8081.000000;0.080471
8080.000000;0.080365
8079.000000;0.080426
8078.000000;0.080525
8077.000000;0.080510
8076.000000;0.080335
8075.000000;0.080062
8074.000000;0.079798
8073.000000;0.079654
8072.000000;0.079679
8071.000000;0.079789
8070.000000;0.079833
8069.000000;0.079759
8068.000000;0.079665
8067.000000;0.079640
8066.000000;0.079633
8065.000000;0.079538
8064.000000;0.079367
8063.000000;0.079236
8062.000000;0.079222
8061.000000;0.079295
8060.000000;0.079366
8059.000000;0.079353
8058.000000;0.079221
8057.000000;0.079023
8056.000000;0.078880
8055.000000;0.078863
8054.000000;0.078922
8053.000000;0.078976
8052.000000;0.079009
8051.000000;0.079030
8050.000000;0.078997
8049.000000;0.078880
8048.000000;0.078751
8047.000000;0.078711
8046.000000;0.078728
8045.000000;0.078661
8044.000000;0.078444
8043.000000;0.078173
8042.000000;0.077986
8041.000000;0.077930
8040.000000;0.077948
8039.000000;0.077944
8038.000000;0.077842
8037.000000;0.077659
8036.000000;0.077507
8035.000000;0.077496
8034.000000;0.077616
8033.000000;0.077770
8032.000000;0.077892
8031.000000;0.077969
8030.000000;0.077966
8029.000000;0.077854
8028.000000;0.077695
8027.000000;0.077616
8026.000000;0.077652
8025.000000;0.077713
8024.000000;0.077716
8023.000000;0.077655
8022.000000;0.077544
8021.000000;0.077381
8020.000000;0.077222
8019.000000;0.077184
8018.000000;0.077297
8017.000000;0.077452
8016.000000;0.077532
8015.000000;0.077536
8014.000000;0.077501
8013.000000;0.077390
8012.000000;0.077167
8011.000000;0.076927
8010.000000;0.076833
8009.000000;0.076936
8008.000000;0.077138
8007.000000;0.077331
8006.000000;0.077475
8005.000000;0.077536
8004.000000;0.077448
8003.000000;0.077194
8002.000000;0.076881
8001.000000;0.076681
8000.000000;0.076680
7999.000000;0.076802
7998.000000;0.076887
7997.000000;0.076841
7996.000000;0.076715
7995.000000;0.076640
7994.000000;0.076677
7993.000000;0.076749
7992.000000;0.076741
7991.000000;0.076640
7990.000000;0.076540
7989.000000;0.076525
7988.000000;0.076572
7987.000000;0.076577
7986.000000;0.076461
7985.000000;0.076241
7984.000000;0.076025
7983.000000;0.075952
7982.000000;0.076083
7981.000000;0.076346
7980.000000;0.076573
7979.000000;0.076638
7978.000000;0.076548
7977.000000;0.076391
7976.000000;0.076221
7975.000000;0.076022
7974.000000;0.075789
7973.000000;0.075593
7972.000000;0.075535
7971.000000;0.075646
7970.000000;0.075863
7969.000000;0.076068
7968.000000;0.076142
7967.000000;0.076023
7966.000000;0.075761
7965.000000;0.075506
7964.000000;0.075397
7963.000000;0.075431
7962.000000;0.075480
7961.000000;0.075436
7960.000000;0.075313
7959.000000;0.075198
7958.000000;0.075164
7957.000000;0.075218
7956.000000;0.075304
7955.000000;0.075328
7954.000000;0.075224
7953.000000;0.075031
7952.000000;0.074867
7951.000000;0.074817
7950.000000;0.074862
7949.000000;0.074927
7948.000000;0.074940
7947.000000;0.074865
7946.000000;0.074721
7945.000000;0.074604
7944.000000;0.074635
7943.000000;0.074838
7942.000000;0.075108
7941.000000;0.075318
7940.000000;0.075418
7939.000000;0.075403
7938.000000;0.075254
7937.000000;0.074990
7936.000000;0.074715
7935.000000;0.074539
7934.000000;0.074472
7933.000000;0.074455
7932.000000;0.074463
7931.000000;0.074513
7930.000000;0.074591
7929.000000;0.074654
7928.000000;0.074686
7927.000000;0.074710
7926.000000;0.074724
7925.000000;0.074695
7924.000000;0.074611
7923.000000;0.074496
7922.000000;0.074393
7921.000000;0.074363
7920.000000;0.074464
7919.000000;0.074670
7918.000000;0.074830
7917.000000;0.074796
7916.000000;0.074587
7915.000000;0.074368
7914.000000;0.074267
7913.000000;0.074254
7912.000000;0.074228
7911.000000;0.074144
7910.000000;0.074048
7909.000000;0.074009
7908.000000;0.074046
7907.000000;0.074102
7906.000000;0.074093
7905.000000;0.074005
7904.000000;0.073933
7903.000000;0.073974
7902.000000;0.074098
7901.000000;0.074181
7900.000000;0.074157
7899.000000;0.074090
7898.000000;0.074078
7897.000000;0.074146
7896.000000;0.074228
7895.000000;0.074243
7894.000000;0.074160
7893.000000;0.074029
7892.000000;0.073933
7891.000000;0.073909
7890.000000;0.073911
7889.000000;0.073880
7888.000000;0.073816
7887.000000;0.073744
7886.000000;0.073653
7885.000000;0.073525
7884.000000;0.073417
7883.000000;0.073427
7882.000000;0.073568
7881.000000;0.073728
7880.000000;0.073771
7879.000000;0.073651
7878.000000;0.073413
7877.000000;0.073153
7876.000000;0.072975
7875.000000;0.072939
7874.000000;0.073019
7873.000000;0.073138
7872.000000;0.073254
7871.000000;0.073367
7870.000000;0.073475
7869.000000;0.073549
7868.000000;0.073581
7867.000000;0.073594
7866.000000;0.073607
7865.000000;0.073604
7864.000000;0.073563
7863.000000;0.073483
7862.000000;0.073376
7861.000000;0.073275
7860.000000;0.073228
7859.000000;0.073240
7858.000000;0.073231
7857.000000;0.073127
7856.000000;0.072982
7855.000000;0.072938
7854.000000;0.073052
7853.000000;0.073209
7852.000000;0.073263
7851.000000;0.073199
7850.000000;0.073117
7849.000000;0.073102
7848.000000;0.073143
7847.000000;0.073178
7846.000000;0.073161
7845.000000;0.073091
7844.000000;0.072996
7843.000000;0.072898
7842.000000;0.072809
7841.000000;0.072746
7840.000000;0.072740
7839.000000;0.072788
7838.000000;0.072828
7837.000000;0.072796
7836.000000;0.072708
7835.000000;0.072635
7834.000000;0.072618
7833.000000;0.072641
7832.000000;0.072681
7831.000000;0.072712
7830.000000;0.072675
7829.000000;0.072515
7828.000000;0.072280
7827.000000;0.072123
7826.000000;0.072152
7825.000000;0.072332
7824.000000;0.072537
7823.000000;0.072673
7822.000000;0.072713
7821.000000;0.072657
7820.000000;0.072529
7819.000000;0.072382
7818.000000;0.072269
7817.000000;0.072206
7816.000000;0.072175
7815.000000;0.072157
7814.000000;0.072148
7813.000000;0.072153
7812.000000;0.072166
7811.000000;0.072158
7810.000000;0.072092
7809.000000;0.071971
7808.000000;0.071850
7807.000000;0.071774
7806.000000;0.071722
7805.000000;0.071643
7804.000000;0.071534
7803.000000;0.071431
7802.000000;0.071354
7801.000000;0.071314
7800.000000;0.071367
7799.000000;0.071570
7798.000000;0.071868
7797.000000;0.072101
7796.000000;0.072157
7795.000000;0.072066
7794.000000;0.071936
7793.000000;0.071842
7792.000000;0.071815
7791.000000;0.071855
7790.000000;0.071904
7789.000000;0.071867
7788.000000;0.071711
7787.000000;0.071528
7786.000000;0.071439
7785.000000;0.071466
7784.000000;0.071532
7783.000000;0.071565
7782.000000;0.071556
7781.000000;0.071537
7780.000000;0.071540
7779.000000;0.071568
7778.000000;0.071590
7777.000000;0.071557
7776.000000;0.071464
7775.000000;0.071362
7774.000000;0.071303
7773.000000;0.071275
7772.000000;0.071234
7771.000000;0.071165
7770.000000;0.071097
7769.000000;0.071072
7768.000000;0.071114
7767.000000;0.071205
7766.000000;0.071283
7765.000000;0.071278
7764.000000;0.071183
7763.000000;0.071067
7762.000000;0.071011
7761.000000;0.071047
7760.000000;0.071163
7759.000000;0.071335
7758.000000;0.071522
7757.000000;0.071652
7756.000000;0.071665
7755.000000;0.071544
7754.000000;0.071312
7753.000000;0.071020
7752.000000;0.070747
7751.000000;0.070584
7750.000000;0.070581
7749.000000;0.070717
7748.000000;0.070926
7747.000000;0.071141
7746.000000;0.071297
7745.000000;0.071347
7744.000000;0.071290
7743.000000;0.071177
7742.000000;0.071050
7741.000000;0.070915
7740.000000;0.070774
7739.000000;0.070654
7738.000000;0.070570
7737.000000;0.070501
7736.000000;0.070429
7735.000000;0.070401
7734.000000;0.070495
7733.000000;0.070722
7732.000000;0.070989
7731.000000;0.071169
7730.000000;0.071185
7729.000000;0.071041
7728.000000;0.070805
7727.000000;0.070576
7726.000000;0.070442
7725.000000;0.070440
7724.000000;0.070528
7723.000000;0.070606
7722.000000;0.070575
7721.000000;0.070407
7720.000000;0.070163
7719.000000;0.069935
7718.000000;0.069775
7717.000000;0.069692
7716.000000;0.069696
7715.000000;0.069799
7714.000000;0.069966
7713.000000;0.070110
7712.000000;0.070162
7711.000000;0.070135
7710.000000;0.070098
7709.000000;0.070099
7708.000000;0.070124
7707.000000;0.070119
7706.000000;0.070046
7705.000000;0.069933
7704.000000;0.069849
7703.000000;0.069838
7702.000000;0.069875
7701.000000;0.069915
7700.000000;0.069958
7699.000000;0.070033
7698.000000;0.070123
7697.000000;0.070167
7696.000000;0.070128
7695.000000;0.070025
7694.000000;0.069890
7693.000000;0.069742
7692.000000;0.069602
7691.000000;0.069512
7690.000000;0.069491
7689.000000;0.069516
7688.000000;0.069554
7687.000000;0.069594
7686.000000;0.069636
7685.000000;0.069685
7684.000000;0.069749
7683.000000;0.069828
7682.000000;0.069898
7681.000000;0.069919
7680.000000;0.069873
7679.000000;0.069775
7678.000000;0.069644
7677.000000;0.069510
7676.000000;0.069431
7675.000000;0.069449
7674.000000;0.069519
7673.000000;0.069540
7672.000000;0.069471
7671.000000;0.069370
7670.000000;0.069306
7669.000000;0.069286
7668.000000;0.069285
7667.000000;0.069297
7666.000000;0.069319
7665.000000;0.069333
7664.000000;0.069326
7663.000000;0.069313
7662.000000;0.069297
7661.000000;0.069264
7660.000000;0.069223
7659.000000;0.069211
7658.000000;0.069230
7657.000000;0.069228
7656.000000;0.069168
7655.000000;0.069076
7654.000000;0.068985
7653.000000;0.068876
7652.000000;0.068721
7651.000000;0.068557
7650.000000;0.068466
7649.000000;0.068486
7648.000000;0.068579
7647.000000;0.068668
7646.000000;0.068689
7645.000000;0.068632
7644.000000;0.068557
7643.000000;0.068541
7642.000000;0.068591
7641.000000;0.068642
7640.000000;0.068663
7639.000000;0.068699
7638.000000;0.068771
7637.000000;0.068818
7636.000000;0.068790
7635.000000;0.068748
7634.000000;0.068788
7633.000000;0.068886
7632.000000;0.068916
7631.000000;0.068808
7630.000000;0.068621
7629.000000;0.068450
7628.000000;0.068341
7627.000000;0.068285
7626.000000;0.068259
7625.000000;0.068234
7624.000000;0.068195
7623.000000;0.068164
7622.000000;0.068177
7621.000000;0.068229
7620.000000;0.068263
7619.000000;0.068234
7618.000000;0.068156
7617.000000;0.068074
7616.000000;0.068021
7615.000000;0.067999
7614.000000;0.067991
7613.000000;0.067982
7612.000000;0.067978
7611.000000;0.067997
7610.000000;0.068031
7609.000000;0.068037
7608.000000;0.067977
7607.000000;0.067869
7606.000000;0.067760
7605.000000;0.067683
7604.000000;0.067653
7603.000000;0.067687
7602.000000;0.067781
7601.000000;0.067894
7600.000000;0.067974
7599.000000;0.068001
7598.000000;0.067987
7597.000000;0.067948
7596.000000;0.067913
7595.000000;0.067931
7594.000000;0.068009
7593.000000;0.068065
7592.000000;0.067997
7591.000000;0.067811
7590.000000;0.067645
7589.000000;0.067627
7588.000000;0.067741
7587.000000;0.067848
7586.000000;0.067829
7585.000000;0.067690
7584.000000;0.067539
7583.000000;0.067459
7582.000000;0.067437
7581.000000;0.067412
7580.000000;0.067376
7579.000000;0.067365
7578.000000;0.067383
7577.000000;0.067383
7576.000000;0.067356
7575.000000;0.067373
7574.000000;0.067490
7573.000000;0.067656
7572.000000;0.067768
7571.000000;0.067788
7570.000000;0.067730
7569.000000;0.067601
7568.000000;0.067400
7567.000000;0.067184
7566.000000;0.067036
7565.000000;0.066972
7564.000000;0.066932
7563.000000;0.066890
7562.000000;0.066901
7561.000000;0.067014
7560.000000;0.067189
7559.000000;0.067320
7558.000000;0.067337
7557.000000;0.067251
7556.000000;0.067139
7555.000000;0.067083
7554.000000;0.067107
7553.000000;0.067158
7552.000000;0.067155
7551.000000;0.067073
7550.000000;0.066956
7549.000000;0.066870
7548.000000;0.066850
7547.000000;0.066886
7546.000000;0.066931
7545.000000;0.066922
7544.000000;0.066820
7543.000000;0.066647
7542.000000;0.066478
7541.000000;0.066381
7540.000000;0.066389
7539.000000;0.066476
7538.000000;0.066572
7537.000000;0.066604
7536.000000;0.066568
7535.000000;0.066524
7534.000000;0.066522
7533.000000;0.066538
7532.000000;0.066532
7531.000000;0.066517
7530.000000;0.066534
7529.000000;0.066573
7528.000000;0.066582
7527.000000;0.066556
7526.000000;0.066544
7525.000000;0.066571
7524.000000;0.066594
7523.000000;0.066555
7522.000000;0.066454
7521.000000;0.066336
7520.000000;0.066243
7519.000000;0.066179
7518.000000;0.066114
7517.000000;0.066020
7516.000000;0.065922
7515.000000;0.065891
7514.000000;0.065978
7513.000000;0.066145
7512.000000;0.066293
7511.000000;0.066333
7510.000000;0.066228
7509.000000;0.066010
7508.000000;0.065769
7507.000000;0.065621
7506.000000;0.065613
7505.000000;0.065694
7504.000000;0.065775
7503.000000;0.065824
7502.000000;0.065842
7501.000000;0.065811
7500.000000;0.065721
7499.000000;0.065614
7498.000000;0.065545
7497.000000;0.065513
7496.000000;0.065481
7495.000000;0.065457
7494.000000;0.065482
7493.000000;0.065541
7492.000000;0.065570
7491.000000;0.065526
7490.000000;0.065525
7489.000000;0.065423
7488.000000;0.065323
7487.000000;0.065279
7486.000000;0.065329
7485.000000;0.065431
7484.000000;0.065470
7483.000000;0.065396
7482.000000;0.065291
7481.000000;0.065251
7480.000000;0.065274
7479.000000;0.065285
7478.000000;0.065252
7477.000000;0.065216
7476.000000;0.065227
7475.000000;0.065298
7474.000000;0.065402
7473.000000;0.065489
7472.000000;0.065512
7471.000000;0.065452
7470.000000;0.065328
7469.000000;0.065185
7468.000000;0.065077
7467.000000;0.065026
7466.000000;0.064998
7465.000000;0.064940
7464.000000;0.064865
7463.000000;0.064848
7462.000000;0.064901
7461.000000;0.064924
7460.000000;0.064835
7459.000000;0.064703
7458.000000;0.064664
7457.000000;0.064734
7456.000000;0.064804
7455.000000;0.064802
7454.000000;0.064749
7453.000000;0.064685
7452.000000;0.064616
7451.000000;0.064554
7450.000000;0.064524
7449.000000;0.064522
7448.000000;0.064533
7447.000000;0.064585
7446.000000;0.064689
7445.000000;0.064767
7444.000000;0.064719
7443.000000;0.064578
7442.000000;0.064472
7441.000000;0.064446
7440.000000;0.064432
7439.000000;0.064417
7438.000000;0.064488
7437.000000;0.064659
7436.000000;0.064782
7435.000000;0.064719
7434.000000;0.064533
7433.000000;0.064393
7432.000000;0.064378
7431.000000;0.064436
7430.000000;0.064494
7429.000000;0.064523
7428.000000;0.064535
7427.000000;0.064545
7426.000000;0.064540
7425.000000;0.064479
7424.000000;0.064380
7423.000000;0.064376
7422.000000;0.064606
7421.000000;0.065010
7420.000000;0.065338
7419.000000;0.065410
7418.000000;0.065335
7417.000000;0.065378
7416.000000;0.065642
7415.000000;0.065970
7414.000000;0.066138
7413.000000;0.066070
7412.000000;0.065867
7411.000000;0.065676
7410.000000;0.065576
7409.000000;0.065569
7408.000000;0.065664
7407.000000;0.065894
7406.000000;0.066184
7405.000000;0.066298
7404.000000;0.066101
7403.000000;0.065815
7402.000000;0.065845
7401.000000;0.066312
7400.000000;0.066888
7399.000000;0.067136
7398.000000;0.066938
7397.000000;0.066561
7396.000000;0.066422
7395.000000;0.066790
7394.000000;0.067497
7393.000000;0.068003
7392.000000;0.068029
7391.000000;0.067925
7390.000000;0.068125
7389.000000;0.068553
7388.000000;0.068912
7387.000000;0.069291
7386.000000;0.070020
7385.000000;0.071018
7384.000000;0.071850
7383.000000;0.072393
7382.000000;0.072896
7381.000000;0.073332
7380.000000;0.073391
7379.000000;0.073306
7378.000000;0.074026
7377.000000;0.075999
7376.000000;0.078082
7375.000000;0.078465
7374.000000;0.076790
7373.000000;0.074807
7372.000000;0.074612
7371.000000;0.076523
7370.000000;0.078839
7369.000000;0.079470
7368.000000;0.077774
7367.000000;0.075107
7366.000000;0.073638
7365.000000;0.074354
7364.000000;0.076227
7363.000000;0.077410
7362.000000;0.076917
7361.000000;0.075075
7360.000000;0.073021
7359.000000;0.072086
7358.000000;0.073159
7357.000000;0.075914
7356.000000;0.078456
7355.000000;0.078619
7354.000000;0.076264
7353.000000;0.073807
7352.000000;0.073849
7351.000000;0.076625
7350.000000;0.080055
7349.000000;0.081721
7348.000000;0.080814
7347.000000;0.078731
7346.000000;0.078074
7345.000000;0.080346
7344.000000;0.084414
7343.000000;0.087816
7342.000000;0.089628
7341.000000;0.091086
7340.000000;0.093088
7339.000000;0.094621
7338.000000;0.094476
7337.000000;0.093354
7336.000000;0.092849
7335.000000;0.092971
7334.000000;0.092038
7333.000000;0.088999
7332.000000;0.084955
7331.000000;0.082032
7330.000000;0.081506
7329.000000;0.082899
7328.000000;0.084119
7327.000000;0.083087
7326.000000;0.080347
7325.000000;0.079113
7324.000000;0.081423
7323.000000;0.085186
7322.000000;0.086538
7321.000000;0.084577
7320.000000;0.081997
7319.000000;0.081371
7318.000000;0.082322
7317.000000;0.082631
7316.000000;0.080885
7315.000000;0.077633
7314.000000;0.074647
7313.000000;0.073375
7312.000000;0.073727
7311.000000;0.074242
7310.000000;0.073960
7309.000000;0.074008
7308.000000;0.076025
7307.000000;0.079159
7306.000000;0.080511
7305.000000;0.079030
7304.000000;0.077235
7303.000000;0.078086
7302.000000;0.081404
7301.000000;0.084310
7300.000000;0.084319
7299.000000;0.081399
7298.000000;0.077811
7297.000000;0.076464
7296.000000;0.078739
7295.000000;0.082870
7294.000000;0.084861
7293.000000;0.082652
7292.000000;0.078160
7291.000000;0.076726
7290.000000;0.078733
7289.000000;0.083952
7288.000000;0.082433
7287.000000;0.062732
7286.000000;0.063982
7285.000000;0.062176
7284.000000;0.061941
7283.000000;0.061626
7282.000000;0.062057
7281.000000;0.062070
7280.000000;0.062085
7279.000000;0.061725
7278.000000;0.062227
7277.000000;0.065621
7276.000000;0.065547
7275.000000;0.065836
7274.000000;0.065794
7273.000000;0.065722
7272.000000;0.065464
7271.000000;0.065319
7270.000000;0.065449
7269.000000;0.065885
7268.000000;0.066298
7267.000000;0.066250
7266.000000;0.065752
7265.000000;0.065492
7264.000000;0.066175
7263.000000;0.067577
7262.000000;0.068561
7261.000000;0.068271
7260.000000;0.067109
7259.000000;0.066236
7258.000000;0.066285
7257.000000;0.066932
7256.000000;0.067589
7255.000000;0.068114
7254.000000;0.068649
7253.000000;0.069072
7252.000000;0.069071
7251.000000;0.068707
7250.000000;0.068493
7249.000000;0.068744
7248.000000;0.069149
7247.000000;0.069369
7246.000000;0.069834
7245.000000;0.071681
7244.000000;0.075390
7243.000000;0.079435
7242.000000;0.081401
7241.000000;0.080907
7240.000000;0.080395
7239.000000;0.082182
7238.000000;0.085526
7237.000000;0.087531
7236.000000;0.086829
7235.000000;0.085424
7234.000000;0.086301
7233.000000;0.089661
7232.000000;0.092444
7231.000000;0.091862
7230.000000;0.088796
7229.000000;0.086832
7228.000000;0.088141
7227.000000;0.091038
7226.000000;0.091729
7225.000000;0.088608
7224.000000;0.084129
7223.000000;0.081879
7222.000000;0.082778
7221.000000;0.084606
7220.000000;0.084473
7219.000000;0.081433
7218.000000;0.077219
7217.000000;0.074613
7216.000000;0.074836
7215.000000;0.076493
7214.000000;0.077182
7213.000000;0.075911
7212.000000;0.073700
7211.000000;0.072115
7210.000000;0.071729
7209.000000;0.072028
7208.000000;0.072383
7207.000000;0.072706
7206.000000;0.073113
7205.000000;0.073451
7204.000000;0.073421
7203.000000;0.073001
7202.000000;0.072617
7201.000000;0.072792
7200.000000;0.073439
7199.000000;0.073713
7198.000000;0.072900
7197.000000;0.071360
7196.000000;0.070135
7195.000000;0.069692
7194.000000;0.069511
7193.000000;0.068931
7192.000000;0.067972
7191.000000;0.067053
7190.000000;0.066282
7189.000000;0.065445
7188.000000;0.064555
7187.000000;0.063967
7186.000000;0.063958
7185.000000;0.064645
7184.000000;0.066192
7183.000000;0.068572
7182.000000;0.070994
7181.000000;0.072231
7180.000000;0.072140
7179.000000;0.072249
7178.000000;0.074079
7177.000000;0.077110
7176.000000;0.079101
7175.000000;0.078397
7174.000000;0.075605
7173.000000;0.072903
7172.000000;0.071971
7171.000000;0.072737
7170.000000;0.073868
7169.000000;0.074020
7168.000000;0.072857
7167.000000;0.071232
7166.000000;0.070362
7165.000000;0.070886
7164.000000;0.072660
7163.000000;0.075262
7162.000000;0.078010
7161.000000;0.079657
7160.000000;0.079346
7159.000000;0.078052
7158.000000;0.077947
7157.000000;0.079749
7156.000000;0.081555
7155.000000;0.080866
7154.000000;0.077463
7153.000000;0.073515
7152.000000;0.071029
7151.000000;0.069970
7150.000000;0.069046
7149.000000;0.067462
7148.000000;0.065569
7147.000000;0.064296
7146.000000;0.064089
7145.000000;0.064452
7144.000000;0.064734
7143.000000;0.065248
7142.000000;0.067021
7141.000000;0.070319
7140.000000;0.073736
7139.000000;0.075232
7138.000000;0.074422
7137.000000;0.073272
7136.000000;0.073932
7135.000000;0.076149
7134.000000;0.077588
7133.000000;0.076598
7132.000000;0.073962
7131.000000;0.071644
7130.000000;0.070529
7129.000000;0.069898
7128.000000;0.068681
7127.000000;0.066659
7126.000000;0.064423
7125.000000;0.062650
7124.000000;0.061661
7123.000000;0.061312
7122.000000;0.061216
7121.000000;0.061352
7120.000000;0.062324
7119.000000;0.064538
7118.000000;0.067131
7117.000000;0.068474
7116.000000;0.068184
7115.000000;0.067924
7114.000000;0.069479
7113.000000;0.072355
7112.000000;0.074101
7111.000000;0.073100
7110.000000;0.070428
7109.000000;0.068534
7108.000000;0.068577
7107.000000;0.069553
7106.000000;0.069678
7105.000000;0.068150
7104.000000;0.065663
7103.000000;0.063629
7102.000000;0.062967
7101.000000;0.063364
7100.000000;0.063764
7099.000000;0.063640
7098.000000;0.063458
7097.000000;0.063932
7096.000000;0.065075
7095.000000;0.066080
7094.000000;0.066210
7093.000000;0.065740
7092.000000;0.065657
7091.000000;0.066402
7090.000000;0.067253
7089.000000;0.067103
7088.000000;0.065733
7087.000000;0.064022
7086.000000;0.062937
7085.000000;0.062583
7084.000000;0.062368
7083.000000;0.061810
7082.000000;0.060932
7081.000000;0.059964
7080.000000;0.059037
7079.000000;0.058271
7078.000000;0.057885
7077.000000;0.058007
7076.000000;0.058457
7075.000000;0.058858
7074.000000;0.059048
7073.000000;0.059288
7072.000000;0.059842
7071.000000;0.060546
7070.000000;0.061081
7069.000000;0.061463
7068.000000;0.061961
7067.000000;0.062586
7066.000000;0.062930
7065.000000;0.062615
7064.000000;0.061738
7063.000000;0.060764
7062.000000;0.060051
7061.000000;0.059585
7060.000000;0.059108
7059.000000;0.058435
7058.000000;0.057605
7057.000000;0.056839
7056.000000;0.056375
7055.000000;0.056230
7054.000000;0.056146
7053.000000;0.055921
7052.000000;0.055671
7051.000000;0.055687
7050.000000;0.056129
7049.000000;0.056847
7048.000000;0.057441
7047.000000;0.057598
7046.000000;0.057420
7045.000000;0.057346
7044.000000;0.057689
7043.000000;0.058261
7042.000000;0.058525
7041.000000;0.058180
7040.000000;0.057471
7039.000000;0.056882
7038.000000;0.056616
7037.000000;0.056499
7036.000000;0.056296
7035.000000;0.055949
7034.000000;0.055527
7033.000000;0.055125
7032.000000;0.054834
7031.000000;0.054685
7030.000000;0.054623
7029.000000;0.054549
7028.000000;0.054402
7027.000000;0.054207
7026.000000;0.054062
7025.000000;0.054078
7024.000000;0.054283
7023.000000;0.054537
7022.000000;0.054626
7021.000000;0.054508
7020.000000;0.054382
7019.000000;0.054433
7018.000000;0.054574
7017.000000;0.054551
7016.000000;0.054267
7015.000000;0.053879
7014.000000;0.053587
7013.000000;0.053430
7012.000000;0.053320
7011.000000;0.053184
7010.000000;0.053023
7009.000000;0.052856
7008.000000;0.052691
7007.000000;0.052521
7006.000000;0.052337
7005.000000;0.052174
7004.000000;0.052119
7003.000000;0.052204
7002.000000;0.052325
7001.000000;0.052350
7000.000000;0.052273
6999.000000;0.052199
6998.000000;0.052175
6997.000000;0.052140
6996.000000;0.052052
6995.000000;0.051956
6994.000000;0.051885
6993.000000;0.051770
6992.000000;0.051540
6991.000000;0.051255
6990.000000;0.051071
6989.000000;0.051082
6988.000000;0.051221
6987.000000;0.051325
6986.000000;0.051294
6985.000000;0.051194
6984.000000;0.051206
6983.000000;0.051461
6982.000000;0.051865
6981.000000;0.052116
6980.000000;0.051999
6979.000000;0.051624
6978.000000;0.051302
6977.000000;0.051211
6976.000000;0.051228
6975.000000;0.051132
6974.000000;0.050896
6973.000000;0.050692
6972.000000;0.050629
6971.000000;0.050606
6970.000000;0.050488
6969.000000;0.050314
6968.000000;0.050214
6967.000000;0.050177
6966.000000;0.050073
6965.000000;0.049855
6964.000000;0.049627
6963.000000;0.049488
6962.000000;0.049415
6961.000000;0.049322
6960.000000;0.049196
6959.000000;0.049092
6958.000000;0.049051
6957.000000;0.049085
6956.000000;0.049174
6955.000000;0.049225
6954.000000;0.049135
6953.000000;0.048951
6952.000000;0.048838
6951.000000;0.048863
6950.000000;0.048917
6949.000000;0.048878
6948.000000;0.048770
6947.000000;0.048669
6946.000000;0.048573
6945.000000;0.048458
6944.000000;0.048375
6943.000000;0.048359
6942.000000;0.048323
6941.000000;0.048160
6940.000000;0.047929
6939.000000;0.047801
6938.000000;0.047813
6937.000000;0.047800
6936.000000;0.047645
6935.000000;0.047452
6934.000000;0.047412
6933.000000;0.047566
6932.000000;0.047756
6931.000000;0.047775
6930.000000;0.047546
6929.000000;0.047186
6928.000000;0.046904
6927.000000;0.046804
6926.000000;0.046797
6925.000000;0.046720
6924.000000;0.046505
6923.000000;0.046214
6922.000000;0.045967
6921.000000;0.045885
6920.000000;0.046053
6919.000000;0.046467
6918.000000;0.046932
6917.000000;0.047144
6916.000000;0.046983
6915.000000;0.046687
6914.000000;0.046612
6913.000000;0.046837
6912.000000;0.047093
6911.000000;0.047046
6910.000000;0.046636
6909.000000;0.046116
6908.000000;0.045774
6907.000000;0.045665
6906.000000;0.045605
6905.000000;0.045398
6904.000000;0.045037
6903.000000;0.044676
6902.000000;0.044458
6901.000000;0.044389
6900.000000;0.044370
6899.000000;0.044310
6898.000000;0.044213
6897.000000;0.044154
6896.000000;0.044211
6895.000000;0.044390
6894.000000;0.044589
6893.000000;0.044687
6892.000000;0.044681
6891.000000;0.044667
6890.000000;0.044714
6889.000000;0.044787
6888.000000;0.044814
6887.000000;0.044750
6886.000000;0.044591
6885.000000;0.044364
6884.000000;0.044136
6883.000000;0.043973
6882.000000;0.043855
6881.000000;0.043685
6880.000000;0.043414
6879.000000;0.043123
6878.000000;0.042932
6877.000000;0.042866
6876.000000;0.042839
6875.000000;0.042775
6874.000000;0.042690
6873.000000;0.042649
6872.000000;0.042660
6871.000000;0.042637
6870.000000;0.042527
6869.000000;0.042419
6868.000000;0.042447
6867.000000;0.042601
6866.000000;0.042700
6865.000000;0.042597
6864.000000;0.042347
6863.000000;0.042110
6862.000000;0.041957
6861.000000;0.041845
6860.000000;0.041728
6859.000000;0.041607
6858.000000;0.041493
6857.000000;0.041377
6856.000000;0.041262
6855.000000;0.041169
6854.000000;0.041106
6853.000000;0.041070
6852.000000;0.041059
6851.000000;0.041064
6850.000000;0.041069
6849.000000;0.041068
6848.000000;0.041064
6847.000000;0.041060
6846.000000;0.041062
6845.000000;0.041090
6844.000000;0.041149
6843.000000;0.041172
6842.000000;0.041075
6841.000000;0.040867
6840.000000;0.040677
6839.000000;0.040613
6838.000000;0.040640
6837.000000;0.040648
6836.000000;0.040593
6835.000000;0.040498
6834.000000;0.040367
6833.000000;0.040192
6832.000000;0.040026
6831.000000;0.039945
6830.000000;0.039944
6829.000000;0.039944
6828.000000;0.039912
6827.000000;0.039915
6826.000000;0.039996
6825.000000;0.040083
6824.000000;0.040065
6823.000000;0.039943
6822.000000;0.039818
6821.000000;0.039769
6820.000000;0.039779
6819.000000;0.039780
6818.000000;0.039742
6817.000000;0.039679
6816.000000;0.039617
6815.000000;0.039550
6814.000000;0.039448
6813.000000;0.039299
6812.000000;0.039131
6811.000000;0.038985
6810.000000;0.038864
6809.000000;0.038756
6808.000000;0.038677
6807.000000;0.038680
6806.000000;0.038781
6805.000000;0.038885
6804.000000;0.038869
6803.000000;0.038739
6802.000000;0.038664
6801.000000;0.038796
6800.000000;0.039082
6799.000000;0.039291
6798.000000;0.039260
6797.000000;0.039065
6796.000000;0.038915
6795.000000;0.038919
6794.000000;0.038996
6793.000000;0.039000
6792.000000;0.038864
6791.000000;0.038641
6790.000000;0.038446
6789.000000;0.038375
6788.000000;0.038423
6787.000000;0.038467
6786.000000;0.038365
6785.000000;0.038088
6784.000000;0.037755
6783.000000;0.037505
6782.000000;0.037364
6781.000000;0.037260
6780.000000;0.037135
6779.000000;0.037011
6778.000000;0.036938
6777.000000;0.036917
6776.000000;0.036881
6775.000000;0.036763
6774.000000;0.036579
6773.000000;0.036436
6772.000000;0.036419
6771.000000;0.036490
6770.000000;0.036536
6769.000000;0.036522
6768.000000;0.036517
6767.000000;0.036564
6766.000000;0.036585
6765.000000;0.036493
6764.000000;0.036336
6763.000000;0.036244
6762.000000;0.036260
6761.000000;0.036302
6760.000000;0.036281
6759.000000;0.036194
6758.000000;0.036102
6757.000000;0.036065
6756.000000;0.036088
6755.000000;0.036105
6754.000000;0.036020
6753.000000;0.035827
6752.000000;0.035650
6751.000000;0.035627
6750.000000;0.035731
6749.000000;0.035793
6748.000000;0.035702
6747.000000;0.035523
6746.000000;0.035403
6745.000000;0.035400
6744.000000;0.035440
6743.000000;0.035411
6742.000000;0.035273
6741.000000;0.035087
6740.000000;0.034952
6739.000000;0.034906
6738.000000;0.034897
6737.000000;0.034847
6736.000000;0.034729
6735.000000;0.034577
6734.000000;0.034425
6733.000000;0.034288
6732.000000;0.034166
6731.000000;0.034074
6730.000000;0.034034
6729.000000;0.034053
6728.000000;0.034115
6727.000000;0.034174
6726.000000;0.034175
6725.000000;0.034108
6724.000000;0.034023
6723.000000;0.033972
6722.000000;0.033949
6721.000000;0.033906
6720.000000;0.033827
6719.000000;0.033732
6718.000000;0.033638
6717.000000;0.033549
6716.000000;0.033479
6715.000000;0.033450
6714.000000;0.033444
6713.000000;0.033404
6712.000000;0.033300
6711.000000;0.033166
6710.000000;0.033062
6709.000000;0.033015
6708.000000;0.033009
6707.000000;0.033009
6706.000000;0.033002
6705.000000;0.032992
6704.000000;0.032903
6703.000000;0.032753
6702.000000;0.032590
6701.000000;0.032454
6700.000000;0.032406
6699.000000;0.032419
6698.000000;0.032446
6697.000000;0.032298
6696.000000;0.032219
6695.000000;0.032234
6694.000000;0.032239
6693.000000;0.032243
6692.000000;0.032196
6691.000000;0.032114
6690.000000;0.032004
6689.000000;0.031885
6688.000000;0.031787
6687.000000;0.031732
6686.000000;0.031711
6685.000000;0.031704
6684.000000;0.031705
6683.000000;0.031715
6682.000000;0.031711
6681.000000;0.031662
6680.000000;0.031573
6679.000000;0.031482
6678.000000;0.031425
6677.000000;0.031409
6676.000000;0.031426
6675.000000;0.031448
6674.000000;0.031429
6673.000000;0.031340
6672.000000;0.031218
6671.000000;0.031132
6670.000000;0.031105
6669.000000;0.031098
6668.000000;0.031062
6667.000000;0.030990
6666.000000;0.030906
6665.000000;0.030829
6664.000000;0.030773
6663.000000;0.030740
6662.000000;0.030712
6661.000000;0.030661
6660.000000;0.030579
6659.000000;0.030495
6658.000000;0.030453
6657.000000;0.030474
6656.000000;0.030539
6655.000000;0.030590
6654.000000;0.030573
6653.000000;0.030477
6652.000000;0.030348
6651.000000;0.030242
6650.000000;0.030172
6649.000000;0.030124
6648.000000;0.030090
6647.000000;0.030072
6646.000000;0.030062
6645.000000;0.030043
6644.000000;0.030008
6643.000000;0.029961
6642.000000;0.029908
6641.000000;0.029855
6640.000000;0.029818
6639.000000;0.029802
6638.000000;0.029787
6637.000000;0.029747
6636.000000;0.029686
6635.000000;0.029628
6634.000000;0.029589
6633.000000;0.029567
6632.000000;0.029553
6631.000000;0.029537
6630.000000;0.029503
6629.000000;0.029449
6628.000000;0.029389
6627.000000;0.029334
6626.000000;0.029272
6625.000000;0.029199
6624.000000;0.029124
6623.000000;0.029056
6622.000000;0.028983
6621.000000;0.028906
6620.000000;0.028856
6619.000000;0.028857
6618.000000;0.028890
6617.000000;0.028916
6616.000000;0.028927
6615.000000;0.028942
6614.000000;0.028966
6613.000000;0.028972
6612.000000;0.028936
6611.000000;0.028847
6610.000000;0.028710
6609.000000;0.028554
6608.000000;0.028433
6607.000000;0.028377
6606.000000;0.028360
6605.000000;0.028329
6604.000000;0.028265
6603.000000;0.028190
6602.000000;0.028130
6601.000000;0.028090
6600.000000;0.028065
6599.000000;0.028046
6598.000000;0.028025
6597.000000;0.028007
6596.000000;0.028006
6595.000000;0.028021
6594.000000;0.028031
6593.000000;0.028024
6592.000000;0.028017
6591.000000;0.028029
6590.000000;0.028045
6589.000000;0.028038
6588.000000;0.028005
6587.000000;0.027947
6586.000000;0.027853
6585.000000;0.027724
6584.000000;0.027599
6583.000000;0.027516
6582.000000;0.027469
6581.000000;0.027431
6580.000000;0.027394
6579.000000;0.027364
6578.000000;0.027321
6577.000000;0.027243
6576.000000;0.027143
6575.000000;0.027056
6574.000000;0.026987
6573.000000;0.026925
6572.000000;0.026876
6571.000000;0.026861
6570.000000;0.026866
6569.000000;0.026849
6568.000000;0.026803
6567.000000;0.026766
6566.000000;0.026769
6565.000000;0.026800
6564.000000;0.026821
6563.000000;0.026798
6562.000000;0.026715
6561.000000;0.026592
6560.000000;0.026482
6559.000000;0.026423
6558.000000;0.026401
6557.000000;0.026382
6556.000000;0.026367
6555.000000;0.026381
6554.000000;0.026420
6553.000000;0.026451
6552.000000;0.026458
6551.000000;0.026454
6550.000000;0.026434
6549.000000;0.026375
6548.000000;0.026275
6547.000000;0.026164
6546.000000;0.026061
6545.000000;0.025957
6544.000000;0.025856
6543.000000;0.025799
6542.000000;0.025813
6541.000000;0.025878
6540.000000;0.025941
6539.000000;0.025966
6538.000000;0.025954
6537.000000;0.025934
6536.000000;0.025944
6535.000000;0.025988
6534.000000;0.026018
6533.000000;0.025969
6532.000000;0.025829
6531.000000;0.025662
6530.000000;0.025547
6529.000000;0.025507
6528.000000;0.025503
6527.000000;0.025475
6526.000000;0.025399
6525.000000;0.025301
6524.000000;0.025237
6523.000000;0.025231
6522.000000;0.025258
6521.000000;0.025276
6520.000000;0.025270
6519.000000;0.025251
6518.000000;0.025226
6517.000000;0.025196
6516.000000;0.025165
6515.000000;0.025129
6514.000000;0.025076
6513.000000;0.025008
6512.000000;0.024955
6511.000000;0.024936
6510.000000;0.024929
6509.000000;0.024903
6508.000000;0.024864
6507.000000;0.024847
6506.000000;0.024870
6505.000000;0.024923
6504.000000;0.024987
6503.000000;0.025035
6502.000000;0.025020
6501.000000;0.024922
6500.000000;0.024787
6499.000000;0.024688
6498.000000;0.024652
6497.000000;0.024647
6496.000000;0.024648
6495.000000;0.024655
6494.000000;0.024666
6493.000000;0.024661
6492.000000;0.024632
6491.000000;0.024589
6490.000000;0.024533
6489.000000;0.024448
6488.000000;0.024348
6487.000000;0.024270
6486.000000;0.024226
6485.000000;0.024188
6484.000000;0.024133
6483.000000;0.024083
6482.000000;0.024072
6481.000000;0.024095
6480.000000;0.024119
6479.000000;0.024120
6478.000000;0.024099
6477.000000;0.024069
6476.000000;0.024035
6475.000000;0.023992
6474.000000;0.023930
6473.000000;0.023852
6472.000000;0.023790
6471.000000;0.023778
6470.000000;0.023809
6469.000000;0.023847
6468.000000;0.023856
6467.000000;0.023833
6466.000000;0.023789
6465.000000;0.023742
6464.000000;0.023714
6463.000000;0.023717
6462.000000;0.023736
6461.000000;0.023738
6460.000000;0.023708
6459.000000;0.023656
6458.000000;0.023595
6457.000000;0.023524
6456.000000;0.023455
6455.000000;0.023421
6454.000000;0.023448
6453.000000;0.023527
6452.000000;0.023612
6451.000000;0.023653
6450.000000;0.023626
6449.000000;0.023541
6448.000000;0.023432
6447.000000;0.023327
6446.000000;0.023235
6445.000000;0.023155
6444.000000;0.023095
6443.000000;0.023058
6442.000000;0.023039
6441.000000;0.023037
6440.000000;0.023062
6439.000000;0.023105
6438.000000;0.023133
6437.000000;0.023112
6436.000000;0.023051
6435.000000;0.022984
6434.000000;0.022924
6433.000000;0.022876
6432.000000;0.022855
6431.000000;0.022884
6430.000000;0.022948
6429.000000;0.022994
6428.000000;0.022991
6427.000000;0.022956
6426.000000;0.022928
6425.000000;0.022930
6424.000000;0.022959
6423.000000;0.022998
6422.000000;0.023017
6421.000000;0.022998
6420.000000;0.022944
6419.000000;0.022878
6418.000000;0.022818
6417.000000;0.022771
6416.000000;0.022739
6415.000000;0.022709
6414.000000;0.022656
6413.000000;0.022566
6412.000000;0.022464
6411.000000;0.022394
6410.000000;0.022383
6409.000000;0.022416
6408.000000;0.022456
6407.000000;0.022467
6406.000000;0.022426
6405.000000;0.022343
6404.000000;0.022261
6403.000000;0.022210
6402.000000;0.022183
6401.000000;0.022153
6400.000000;0.022122
6399.000000;0.022117
6398.000000;0.022153
6397.000000;0.022208
6396.000000;0.022252
6395.000000;0.022268
6394.000000;0.022261
6393.000000;0.022249
6392.000000;0.022251
6391.000000;0.022271
6390.000000;0.022291
6389.000000;0.022294
6388.000000;0.022284
6387.000000;0.022271
6386.000000;0.022257
6385.000000;0.022241
6384.000000;0.022236
6383.000000;0.022248
6382.000000;0.022271
6381.000000;0.022291
6380.000000;0.022301
6379.000000;0.022288
6378.000000;0.022240
6377.000000;0.022168
6376.000000;0.022107
6375.000000;0.022072
6374.000000;0.022037
6373.000000;0.021976
6372.000000;0.021904
6371.000000;0.021856
6370.000000;0.021840
6369.000000;0.021832
6368.000000;0.021814
6367.000000;0.021772
6366.000000;0.021698
6365.000000;0.021607
6364.000000;0.021538
6363.000000;0.021510
6362.000000;0.021491
6361.000000;0.021451
6360.000000;0.021412
6359.000000;0.021422
6358.000000;0.021481
6357.000000;0.021533
6356.000000;0.021544
6355.000000;0.021526
6354.000000;0.021503
6353.000000;0.021483
6352.000000;0.021463
6351.000000;0.021438
6350.000000;0.021394
6349.000000;0.021326
6348.000000;0.021262
6347.000000;0.021247
6346.000000;0.021286
6345.000000;0.021343
6344.000000;0.021382
6343.000000;0.021402
6342.000000;0.021417
6341.000000;0.021430
6340.000000;0.021435
6339.000000;0.021426
6338.000000;0.021398
6337.000000;0.021351
6336.000000;0.021293
6335.000000;0.021234
6334.000000;0.021176
6333.000000;0.021135
6332.000000;0.021132
6331.000000;0.021169
6330.000000;0.021205
6329.000000;0.021202
6328.000000;0.021172
6327.000000;0.021155
6326.000000;0.021160
6325.000000;0.021154
6324.000000;0.021108
6323.000000;0.021028
6322.000000;0.020948
6321.000000;0.020898
6320.000000;0.020890
6319.000000;0.020907
6318.000000;0.020915
6317.000000;0.020892
6316.000000;0.020850
6315.000000;0.020810
6314.000000;0.020780
6313.000000;0.020760
6312.000000;0.020761
6311.000000;0.020784
6310.000000;0.020808
6309.000000;0.020825
6308.000000;0.020861
6307.000000;0.020929
6306.000000;0.020985
6305.000000;0.020975
6304.000000;0.020903
6303.000000;0.020821
6302.000000;0.020758
6301.000000;0.020705
6300.000000;0.020668
6299.000000;0.020670
6298.000000;0.020706
6297.000000;0.020729
6296.000000;0.020704
6295.000000;0.020646
6294.000000;0.020593
6293.000000;0.020564
6292.000000;0.020548
6291.000000;0.020524
6290.000000;0.020478
6289.000000;0.020408
6288.000000;0.020332
6287.000000;0.020266
6286.000000;0.020206
6285.000000;0.020145
6284.000000;0.020098
6283.000000;0.020096
6282.000000;0.020154
6281.000000;0.020253
6280.000000;0.020364
6279.000000;0.020455
6278.000000;0.020495
6277.000000;0.020473
6276.000000;0.020411
6275.000000;0.020352
6274.000000;0.020320
6273.000000;0.020326
6272.000000;0.020364
6271.000000;0.020405
6270.000000;0.020397
6269.000000;0.020316
6268.000000;0.020200
6267.000000;0.020113
6266.000000;0.020076
6265.000000;0.020069
6264.000000;0.020078
6263.000000;0.020097
6262.000000;0.020103
6261.000000;0.020074
6260.000000;0.020023
6259.000000;0.019985
6258.000000;0.019961
6257.000000;0.019925
6256.000000;0.019870
6255.000000;0.019827
6254.000000;0.019820
6253.000000;0.019840
6252.000000;0.019867
6251.000000;0.019894
6250.000000;0.019911
6249.000000;0.019912
6248.000000;0.019906
6247.000000;0.019915
6246.000000;0.019941
6245.000000;0.019965
6244.000000;0.019969
6243.000000;0.019949
6242.000000;0.019909
6241.000000;0.019856
6240.000000;0.019814
6239.000000;0.019799
6238.000000;0.019804
6237.000000;0.019810
6236.000000;0.019814
6235.000000;0.019826
6234.000000;0.019833
6233.000000;0.019810
6232.000000;0.019753
6231.000000;0.019681
6230.000000;0.019614
6229.000000;0.019561
6228.000000;0.019541
6227.000000;0.019569
6226.000000;0.019632
6225.000000;0.019694
6224.000000;0.019727
6223.000000;0.019726
6222.000000;0.019690
6221.000000;0.019624
6220.000000;0.019552
6219.000000;0.019496
6218.000000;0.019461
6217.000000;0.019443
6216.000000;0.019449
6215.000000;0.019481
6214.000000;0.019508
6213.000000;0.019487
6212.000000;0.019421
6211.000000;0.019352
6210.000000;0.019308
6209.000000;0.019286
6208.000000;0.019269
6207.000000;0.019248
6206.000000;0.019211
6205.000000;0.019149
6204.000000;0.019083
6203.000000;0.019049
6202.000000;0.019059
6201.000000;0.019082
6200.000000;0.019091
6199.000000;0.019080
6198.000000;0.019060
6197.000000;0.019042
6196.000000;0.019039
6195.000000;0.019058
6194.000000;0.019078
6193.000000;0.019065
6192.000000;0.019015
6191.000000;0.018957
6190.000000;0.018921
6189.000000;0.018910
6188.000000;0.018910
6187.000000;0.018911
6186.000000;0.018902
6185.000000;0.018881
6184.000000;0.018860
6183.000000;0.018858
6182.000000;0.018879
6181.000000;0.018903
6180.000000;0.018913
6179.000000;0.018903
6178.000000;0.018877
6177.000000;0.018850
6176.000000;0.018835
6175.000000;0.018818
6174.000000;0.018767
6173.000000;0.018674
6172.000000;0.018581
6171.000000;0.018534
6170.000000;0.018533
6169.000000;0.018549
6168.000000;0.018575
6167.000000;0.018615
6166.000000;0.018643
6165.000000;0.018615
6164.000000;0.018528
6163.000000;0.018425
6162.000000;0.018348
6161.000000;0.018309
6160.000000;0.018314
6159.000000;0.018363
6158.000000;0.018433
6157.000000;0.018483
6156.000000;0.018494
6155.000000;0.018485
6154.000000;0.018478
6153.000000;0.018481
6152.000000;0.018492
6151.000000;0.018508
6150.000000;0.018508
6149.000000;0.018477
6148.000000;0.018428
6147.000000;0.018391
6146.000000;0.018372
6145.000000;0.018351
6144.000000;0.018315
6143.000000;0.018273
6142.000000;0.018232
6141.000000;0.018195
6140.000000;0.018170
6139.000000;0.018167
6138.000000;0.018167
6137.000000;0.018139
6136.000000;0.018083
6135.000000;0.018026
6134.000000;0.017988
6133.000000;0.017958
6132.000000;0.017931
6131.000000;0.017917
6130.000000;0.017912
6129.000000;0.017888
6128.000000;0.017829
6127.000000;0.017750
6126.000000;0.017685
6125.000000;0.017655
6124.000000;0.017670
6123.000000;0.017724
6122.000000;0.017779
6121.000000;0.017791
6120.000000;0.017747
6119.000000;0.017684
6118.000000;0.017641
6117.000000;0.017623
6116.000000;0.017609
6115.000000;0.017587
6114.000000;0.017560
6113.000000;0.017541
6112.000000;0.017539
6111.000000;0.017553
6110.000000;0.017556
6109.000000;0.017514
6108.000000;0.017426
6107.000000;0.017325
6106.000000;0.017249
6105.000000;0.017212
6104.000000;0.017203
6103.000000;0.017208
6102.000000;0.017224
6101.000000;0.017257
6100.000000;0.017298
6099.000000;0.017321
6098.000000;0.017300
6097.000000;0.017238
6096.000000;0.017173
6095.000000;0.017131
6094.000000;0.017104
6093.000000;0.017081
6092.000000;0.017075
6091.000000;0.017100
6090.000000;0.017134
6089.000000;0.017132
6088.000000;0.017083
6087.000000;0.017019
6086.000000;0.016969
6085.000000;0.016934
6084.000000;0.016907
6083.000000;0.016884
6082.000000;0.016862
6081.000000;0.016829
6080.000000;0.016786
6079.000000;0.016753
6078.000000;0.016753
6077.000000;0.016797
6076.000000;0.016867
6075.000000;0.016913
6074.000000;0.016884
6073.000000;0.016787
6072.000000;0.016692
6071.000000;0.016659
6070.000000;0.016668
6069.000000;0.016657
6068.000000;0.016602
6067.000000;0.016526
6066.000000;0.016449
6065.000000;0.016367
6064.000000;0.016279
6063.000000;0.016207
6062.000000;0.016167
6061.000000;0.016148
6060.000000;0.016126
6059.000000;0.016099
6058.000000;0.016083
6057.000000;0.016108
6056.000000;0.016177
6055.000000;0.016254
6054.000000;0.016273
6053.000000;0.016206
6052.000000;0.016095
6051.000000;0.016014
6050.000000;0.015992
6049.000000;0.016007
6048.000000;0.016033
6047.000000;0.016053
6046.000000;0.016047
6045.000000;0.016003
6044.000000;0.015934
6043.000000;0.015867
6042.000000;0.015808
6041.000000;0.015744
6040.000000;0.015679
6039.000000;0.015636
6038.000000;0.015616
6037.000000;0.015588
6036.000000;0.015519
6035.000000;0.015415
6034.000000;0.015316
6033.000000;0.015260
6032.000000;0.015270
6031.000000;0.015335
6030.000000;0.015417
6029.000000;0.015476
6028.000000;0.015498
6027.000000;0.015488
6026.000000;0.015457
6025.000000;0.015415
6024.000000;0.015371
6023.000000;0.015326
6022.000000;0.015262
6021.000000;0.015173
6020.000000;0.015077
6019.000000;0.014995
6018.000000;0.014931
6017.000000;0.014886
6016.000000;0.014875
6015.000000;0.014903
6014.000000;0.014946
6013.000000;0.014972
6012.000000;0.014970
6011.000000;0.014938
6010.000000;0.014866
6009.000000;0.014755
6008.000000;0.014649
6007.000000;0.014595
6006.000000;0.014582
6005.000000;0.014563
6004.000000;0.014516
6003.000000;0.014461
6002.000000;0.014410
6001.000000;0.014355
6000.000000;0.014295
5999.000000;0.014253
5998.000000;0.014247
5997.000000;0.014270
5996.000000;0.014308
5995.000000;0.014340
5994.000000;0.014345
5993.000000;0.014306
5992.000000;0.014235
5991.000000;0.014159
5990.000000;0.014100
5989.000000;0.014075
5988.000000;0.014090
5987.000000;0.014126
5986.000000;0.014126
5985.000000;0.014051
5984.000000;0.013920
5983.000000;0.013791
5982.000000;0.013693
5981.000000;0.013620
5980.000000;0.013565
5979.000000;0.013537
5978.000000;0.013531
5977.000000;0.013524
5976.000000;0.013500
5975.000000;0.013466
5974.000000;0.013428
5973.000000;0.013387
5972.000000;0.013356
5971.000000;0.013334
5970.000000;0.013299
5969.000000;0.013233
5968.000000;0.013154
5967.000000;0.013099
5966.000000;0.013071
5965.000000;0.013036
5964.000000;0.012975
5963.000000;0.012903
5962.000000;0.012839
5961.000000;0.012785
5960.000000;0.012739
5959.000000;0.012706
5958.000000;0.012686
5957.000000;0.012676
5956.000000;0.012676
5955.000000;0.012680
5954.000000;0.012665
5953.000000;0.012609
5952.000000;0.012528
5951.000000;0.012456
5950.000000;0.012412
5949.000000;0.012389
5948.000000;0.012377
5947.000000;0.012362
5946.000000;0.012328
5945.000000;0.012271
5944.000000;0.012216
5943.000000;0.012190
5942.000000;0.012179
5941.000000;0.012145
5940.000000;0.012077
5939.000000;0.011999
5938.000000;0.011936
5937.000000;0.011891
5936.000000;0.011863
5935.000000;0.011838
5934.000000;0.011797
5933.000000;0.011737
5932.000000;0.011691
5931.000000;0.011686
5930.000000;0.011703
5929.000000;0.011688
5928.000000;0.011618
5927.000000;0.011512
5926.000000;0.011401
5925.000000;0.011305
5924.000000;0.011246
5923.000000;0.011227
5922.000000;0.011219
5921.000000;0.011188
5920.000000;0.011138
5919.000000;0.011091
5918.000000;0.011034
5917.000000;0.010938
5916.000000;0.010813
5915.000000;0.010715
5914.000000;0.010686
5913.000000;0.010716
5912.000000;0.010763
5911.000000;0.010783
5910.000000;0.010736
5909.000000;0.010613
5908.000000;0.010470
5907.000000;0.010383
5906.000000;0.010374
5905.000000;0.010385
5904.000000;0.010353
5903.000000;0.010262
5902.000000;0.010132
5901.000000;0.009994
5900.000000;0.009875
5899.000000;0.009788
5898.000000;0.009725
5897.000000;0.009667
5896.000000;0.009614
5895.000000;0.009579
5894.000000;0.009559
5893.000000;0.009533
5892.000000;0.009497
5891.000000;0.009461
5890.000000;0.009426
5889.000000;0.009385
5888.000000;0.009341
5887.000000;0.009309
5886.000000;0.009288
5885.000000;0.009262
5884.000000;0.009229
5883.000000;0.009199
5882.000000;0.009170
5881.000000;0.009126
5880.000000;0.009055
5879.000000;0.008965
5878.000000;0.008869
5877.000000;0.008789
5876.000000;0.008747
5875.000000;0.008741
5874.000000;0.008736
5873.000000;0.008698
5872.000000;0.008634
5871.000000;0.008576
5870.000000;0.008527
5869.000000;0.008474
5868.000000;0.008415
5867.000000;0.008365
5866.000000;0.008314
5865.000000;0.008233
5864.000000;0.008127
5863.000000;0.008033
5862.000000;0.007971
5861.000000;0.007926
5860.000000;0.007878
5859.000000;0.007825
5858.000000;0.007764
5857.000000;0.007687
5856.000000;0.007597
5855.000000;0.007519
5854.000000;0.007462
5853.000000;0.007413
5852.000000;0.007361
5851.000000;0.007314
5850.000000;0.007284
5849.000000;0.007265
5848.000000;0.007250
5847.000000;0.007227
5846.000000;0.007181
5845.000000;0.007107
5844.000000;0.007014
5843.000000;0.006921
5842.000000;0.006833
5841.000000;0.006748
5840.000000;0.006678
5839.000000;0.006631
5838.000000;0.006590
5837.000000;0.006526
5836.000000;0.006433
5835.000000;0.006327
5834.000000;0.006219
5833.000000;0.006112
5832.000000;0.006017
5831.000000;0.005949
5830.000000;0.005901
5829.000000;0.005847
5828.000000;0.005772
5827.000000;0.005679
5826.000000;0.005576
5825.000000;0.005477
5824.000000;0.005398
5823.000000;0.005349
5822.000000;0.005320
5821.000000;0.005300
5820.000000;0.005290
5819.000000;0.005280
5818.000000;0.005238
5817.000000;0.005149
5816.000000;0.005038
5815.000000;0.004935
5814.000000;0.004836
5813.000000;0.004734
5812.000000;0.004660
5811.000000;0.004648
5810.000000;0.004672
5809.000000;0.004667
5808.000000;0.004605
5807.000000;0.004508
5806.000000;0.004404
5805.000000;0.004296
5804.000000;0.004185
5803.000000;0.004081
5802.000000;0.003984
5801.000000;0.003881
5800.000000;0.003783
5799.000000;0.003712
5798.000000;0.003673
5797.000000;0.003644
5796.000000;0.003607
5795.000000;0.003555
5794.000000;0.003483
5793.000000;0.003390
5792.000000;0.003292
5791.000000;0.003200
5790.000000;0.003099
5789.000000;0.002974
5788.000000;0.002842
5787.000000;0.002726
5786.000000;0.002623
5785.000000;0.002515
5784.000000;0.002409
5783.000000;0.002326
5782.000000;0.002255
5781.000000;0.002160
5780.000000;0.002040
5779.000000;0.001925
5778.000000;0.001832
5777.000000;0.001751
5776.000000;0.001680
5775.000000;0.001629
5774.000000;0.001590
5773.000000;0.001533
5772.000000;0.001438
5771.000000;0.001314
5770.000000;0.001179
5769.000000;0.001052
5768.000000;0.000950
5767.000000;0.000876
5766.000000;0.000806
5765.000000;0.000722
5764.000000;0.000635
5763.000000;0.000561
5762.000000;0.000491
5761.000000;0.000403
5760.000000;0.000310
5759.000000;0.000235
5758.000000;0.000175
5757.000000;0.000100
5756.000000;0.000004
5755.000000;-0.000094
5754.000000;-0.000190
5753.000000;-0.000297
5752.000000;-0.000409
5751.000000;-0.000505
5750.000000;-0.000583
5749.000000;-0.000665
5748.000000;-0.000770
5747.000000;-0.000896
5746.000000;-0.001035
5745.000000;-0.001165
5744.000000;-0.001256
5743.000000;-0.001300
5742.000000;-0.001338
5741.000000;-0.001413
5740.000000;-0.001514
5739.000000;-0.001604
5738.000000;-0.001680
5737.000000;-0.001773
5736.000000;-0.001895
5735.000000;-0.002031
5734.000000;-0.002170
5733.000000;-0.002300
5732.000000;-0.002398
5731.000000;-0.002452
5730.000000;-0.002504
5729.000000;-0.002606
5728.000000;-0.002745
5727.000000;-0.002863
5726.000000;-0.002944
5725.000000;-0.003030
5724.000000;-0.003152
5723.000000;-0.003296
5722.000000;-0.003434
5721.000000;-0.003561
5720.000000;-0.003676
5719.000000;-0.003779
5718.000000;-0.003873
5717.000000;-0.003965
5716.000000;-0.004044
5715.000000;-0.004102
5714.000000;-0.004166
5713.000000;-0.004269
5712.000000;-0.004400
5711.000000;-0.004518
5710.000000;-0.004606
5709.000000;-0.004682
5708.000000;-0.004756
5707.000000;-0.004828
5706.000000;-0.004916
5705.000000;-0.005051
5704.000000;-0.005231
5703.000000;-0.005415
5702.000000;-0.005566
5701.000000;-0.005672
5700.000000;-0.005732
5699.000000;-0.005760
5698.000000;-0.005793
5697.000000;-0.005871
5696.000000;-0.006002
5695.000000;-0.006145
5694.000000;-0.006303
5693.000000;-0.006407
5692.000000;-0.006521
5691.000000;-0.006647
5690.000000;-0.006737
5689.000000;-0.006830
5688.000000;-0.006928
5687.000000;-0.007038
5686.000000;-0.007166
5685.000000;-0.007322
5684.000000;-0.007485
5683.000000;-0.007628
5682.000000;-0.007757
5681.000000;-0.007904
5680.000000;-0.008071
5679.000000;-0.008227
5678.000000;-0.008344
5677.000000;-0.008421
5676.000000;-0.008462
5675.000000;-0.008487
5674.000000;-0.008534
5673.000000;-0.008634
5672.000000;-0.008775
5671.000000;-0.008919
5670.000000;-0.009049
5669.000000;-0.009172
5668.000000;-0.009289
5667.000000;-0.009398
5666.000000;-0.009511
5665.000000;-0.009638
5664.000000;-0.009769
5663.000000;-0.009891
5662.000000;-0.010011
5661.000000;-0.010122
5660.000000;-0.010195
5659.000000;-0.010232
5658.000000;-0.010293
5657.000000;-0.010416
5656.000000;-0.010561
5655.000000;-0.010670
5654.000000;-0.010764
5653.000000;-0.010914
5652.000000;-0.011132
5651.000000;-0.011353
5650.000000;-0.011520
5649.000000;-0.011633
5648.000000;-0.011720
5647.000000;-0.011806
5646.000000;-0.011911
5645.000000;-0.012034
5644.000000;-0.012150
5643.000000;-0.012244
5642.000000;-0.012339
5641.000000;-0.012458
5640.000000;-0.012575
5639.000000;-0.012654
5638.000000;-0.012714
5637.000000;-0.012803
5636.000000;-0.012923
5635.000000;-0.013033
5634.000000;-0.013122
5633.000000;-0.013214
5632.000000;-0.013326
5631.000000;-0.013453
5630.000000;-0.013601
5629.000000;-0.013772
5628.000000;-0.013941
5627.000000;-0.014079
5626.000000;-0.014198
5625.000000;-0.014323
5624.000000;-0.014434
5623.000000;-0.014501
5622.000000;-0.014549
5621.000000;-0.014637
5620.000000;-0.014769
5619.000000;-0.014894
5618.000000;-0.014993
5617.000000;-0.015094
5616.000000;-0.015217
5615.000000;-0.015355
5614.000000;-0.015517
5613.000000;-0.015717
5612.000000;-0.015930
5611.000000;-0.016099
5610.000000;-0.016209
5609.000000;-0.016298
5608.000000;-0.016392
5607.000000;-0.016477
5606.000000;-0.016544
5605.000000;-0.016596
5604.000000;-0.016637
5603.000000;-0.016664
5602.000000;-0.016690
5601.000000;-0.016737
5600.000000;-0.016813
5599.000000;-0.016923
5598.000000;-0.017070
5597.000000;-0.017234
5596.000000;-0.017372
5595.000000;-0.017478
5594.000000;-0.017604
5593.000000;-0.017785
5592.000000;-0.017987
5591.000000;-0.018174
5590.000000;-0.018366
5589.000000;-0.018578
5588.000000;-0.018758
5587.000000;-0.018856
5586.000000;-0.018914
5585.000000;-0.019010
5584.000000;-0.019144
5583.000000;-0.019255
5582.000000;-0.019340
5581.000000;-0.019447
5580.000000;-0.019586
5579.000000;-0.019714
5578.000000;-0.019811
5577.000000;-0.019901
5576.000000;-0.019994
5575.000000;-0.020082
5574.000000;-0.020180
5573.000000;-0.020299
5572.000000;-0.020411
5571.000000;-0.020498
5570.000000;-0.020607
5569.000000;-0.020778
5568.000000;-0.020948
5567.000000;-0.021022
5566.000000;-0.021029
5565.000000;-0.021082
5564.000000;-0.021210
5563.000000;-0.021341
5562.000000;-0.021453
5561.000000;-0.021621
5560.000000;-0.021875
5559.000000;-0.022123
5558.000000;-0.022278
5557.000000;-0.022364
5556.000000;-0.022432
5555.000000;-0.022450
5554.000000;-0.022365
5553.000000;-0.022217
5552.000000;-0.022098
5551.000000;-0.022027
5550.000000;-0.021939
5549.000000;-0.021817
5548.000000;-0.021743
5547.000000;-0.021804
5546.000000;-0.021997
5545.000000;-0.022259
5544.000000;-0.022550
5543.000000;-0.022887
5542.000000;-0.023285
5541.000000;-0.023673
5540.000000;-0.023911
5539.000000;-0.023910
5538.000000;-0.023748
5537.000000;-0.023609
5536.000000;-0.023569
5535.000000;-0.023509
5534.000000;-0.023330
5533.000000;-0.023157
5532.000000;-0.023221
5531.000000;-0.023559
5530.000000;-0.023973
5529.000000;-0.024290
5528.000000;-0.024562
5527.000000;-0.024927
5526.000000;-0.025370
5525.000000;-0.025692
5524.000000;-0.025724
5523.000000;-0.025535
5522.000000;-0.025346
5521.000000;-0.025248
5520.000000;-0.025091
5519.000000;-0.024697
5518.000000;-0.024192
5517.000000;-0.023952
5516.000000;-0.024142
5515.000000;-0.024511
5514.000000;-0.024756
5513.000000;-0.024922
5512.000000;-0.025269
5511.000000;-0.025733
5510.000000;-0.025885
5509.000000;-0.025523
5508.000000;-0.024980
5507.000000;-0.024639
5506.000000;-0.024399
5505.000000;-0.023951
5504.000000;-0.023449
5503.000000;-0.023445
5502.000000;-0.024065
5501.000000;-0.024736
5500.000000;-0.025019
5499.000000;-0.025262
5498.000000;-0.026026
5497.000000;-0.027036
5496.000000;-0.027157
5495.000000;-0.025791
5494.000000;-0.023772
5493.000000;-0.022295
5492.000000;-0.021316
5491.000000;-0.019687
5490.000000;-0.017048
5489.000000;-0.014759
5488.000000;-0.014308
5487.000000;-0.015440
5486.000000;-0.016696
5485.000000;-0.017493
5484.000000;-0.018701
5483.000000;-0.021083
5482.000000;-0.024127
5481.000000;-0.026810
5480.000000;-0.028779
5479.000000;-0.029966
5478.000000;-0.029767
5477.000000;-0.027863
5476.000000;-0.025264
5475.000000;-0.023464
5474.000000;-0.022519
5473.000000;-0.021021
5472.000000;-0.018509
5471.000000;-0.016578
5470.000000;-0.016769
5469.000000;-0.018438
5468.000000;-0.019793
5467.000000;-0.020300
5466.000000;-0.020934
5465.000000;-0.022318
5464.000000;-0.023604
5463.000000;-0.023587
5462.000000;-0.022269
5461.000000;-0.020755
5460.000000;-0.019933
5459.000000;-0.019611
5458.000000;-0.019137
5457.000000;-0.018690
5456.000000;-0.019230
5455.000000;-0.021123
5454.000000;-0.023491
5453.000000;-0.025151
5452.000000;-0.025880
5451.000000;-0.026453
5450.000000;-0.027403
5449.000000;-0.027915
5448.000000;-0.026518
5447.000000;-0.023044
5446.000000;-0.019323
5445.000000;-0.017118
5444.000000;-0.015614
5443.000000;-0.012696
5442.000000;-0.008659
5441.000000;-0.006447
5440.000000;-0.007687
5439.000000;-0.010246
5438.000000;-0.011002
5437.000000;-0.009944
5436.000000;-0.009773
5435.000000;-0.011972
5434.000000;-0.015021
5433.000000;-0.016391
5432.000000;-0.015164
5431.000000;-0.012697
5430.000000;-0.011128
5429.000000;-0.011278
5428.000000;-0.011996
5427.000000;-0.011764
5426.000000;-0.010870
5425.000000;-0.011326
5424.000000;-0.014455
5423.000000;-0.019323
5422.000000;-0.023892
5421.000000;-0.027249
5420.000000;-0.030214
5419.000000;-0.033845
5418.000000;-0.037660
5417.000000;-0.039559
5416.000000;-0.037973
5415.000000;-0.033779
5414.000000;-0.029251
5413.000000;-0.025269
5412.000000;-0.020626
5411.000000;-0.014784
5410.000000;-0.009760
5409.000000;-0.007835
5408.000000;-0.008578
5407.000000;-0.009867
5406.000000;-0.011306
5405.000000;-0.014504
5404.000000;-0.020021
5403.000000;-0.026154
5402.000000;-0.031104
5401.000000;-0.034824
5400.000000;-0.037903
5399.000000;-0.040149
5398.000000;-0.041156
5397.000000;-0.040672
5396.000000;-0.038454
5395.000000;-0.034789
5394.000000;-0.030953
5393.000000;-0.028407
5392.000000;-0.027142
5391.000000;-0.026007
5390.000000;-0.024823
5389.000000;-0.024568
5388.000000;-0.025549
5387.000000;-0.026840
5386.000000;-0.027885
5385.000000;-0.029210
5384.000000;-0.030980
5383.000000;-0.032346
5382.000000;-0.032983
5381.000000;-0.033758
5380.000000;-0.034731
5379.000000;-0.034485
5378.000000;-0.032600
5377.000000;-0.030771
5376.000000;-0.030333
5375.000000;-0.030210
5374.000000;-0.028857
5373.000000;-0.027076
5372.000000;-0.026974
5371.000000;-0.028976
5370.000000;-0.031748
5369.000000;-0.034531
5368.000000;-0.037815
5367.000000;-0.041583
5366.000000;-0.044668
5365.000000;-0.046344
5364.000000;-0.047169
5363.000000;-0.047751
5362.000000;-0.047888
5361.000000;-0.047465
5360.000000;-0.047085
5359.000000;-0.047407
5358.000000;-0.048190
5357.000000;-0.048272
5356.000000;-0.046688
5355.000000;-0.043637
5354.000000;-0.040394
5353.000000;-0.038006
5352.000000;-0.035999
5351.000000;-0.033116
5350.000000;-0.029628
5349.000000;-0.027546
5348.000000;-0.027420
5347.000000;-0.026787
5346.000000;-0.023708
5345.000000;-0.020136
5344.000000;-0.019382
5343.000000;-0.021033
5342.000000;-0.021029
5341.000000;-0.017370
5340.000000;-0.012994
5339.000000;-0.011578
5338.000000;-0.012876
5337.000000;-0.014074
5336.000000;-0.014157
5335.000000;-0.014678
5334.000000;-0.017103
5333.000000;-0.021209
5332.000000;-0.025775
5331.000000;-0.029500
5330.000000;-0.031569
5329.000000;-0.032485
5328.000000;-0.033800
5327.000000;-0.036363
5326.000000;-0.039017
5325.000000;-0.039913
5324.000000;-0.039263
5323.000000;-0.039451
5322.000000;-0.041912
5321.000000;-0.045445
5320.000000;-0.048277
5319.000000;-0.050307
5318.000000;-0.052496
5317.000000;-0.055021
5316.000000;-0.057122
5315.000000;-0.058225
5314.000000;-0.058484
5313.000000;-0.058400
5312.000000;-0.058420
5311.000000;-0.058524
5310.000000;-0.058089
5309.000000;-0.056788
5308.000000;-0.055282
5307.000000;-0.054420
5306.000000;-0.053963
5305.000000;-0.053002
5304.000000;-0.051609
5303.000000;-0.050937
5302.000000;-0.051530
5301.000000;-0.052609
5300.000000;-0.053415
5299.000000;-0.054297
5298.000000;-0.055831
5297.000000;-0.057693
5296.000000;-0.059153
5295.000000;-0.060118
5294.000000;-0.060754
5293.000000;-0.060577
5292.000000;-0.059149
5291.000000;-0.057197
5290.000000;-0.055930
5289.000000;-0.055351
5288.000000;-0.054157
5287.000000;-0.051846
5286.000000;-0.049802
5285.000000;-0.049556
5284.000000;-0.050736
5283.000000;-0.051663
5282.000000;-0.051793
5281.000000;-0.052310
5280.000000;-0.054140
5279.000000;-0.056505
5278.000000;-0.058025
5277.000000;-0.058549
5276.000000;-0.059090
5275.000000;-0.060320
5274.000000;-0.061886
5273.000000;-0.063045
5272.000000;-0.063450
5271.000000;-0.063262
5270.000000;-0.062822
5269.000000;-0.062376
5268.000000;-0.061665
5267.000000;-0.059787
5266.000000;-0.056268
5265.000000;-0.052017
5264.000000;-0.048473
5263.000000;-0.045917
5262.000000;-0.043496
5261.000000;-0.041047
5260.000000;-0.039794
5259.000000;-0.040647
5258.000000;-0.042565
5257.000000;-0.043823
5256.000000;-0.044377
5255.000000;-0.045658
5254.000000;-0.048161
5253.000000;-0.050525
5252.000000;-0.051166
5251.000000;-0.049984
5250.000000;-0.048128
5249.000000;-0.046656
5248.000000;-0.045685
5247.000000;-0.044379
5246.000000;-0.042176
5245.000000;-0.039924
5244.000000;-0.039250
5243.000000;-0.040643
5242.000000;-0.042710
5241.000000;-0.044139
5240.000000;-0.045664
5239.000000;-0.048921
5238.000000;-0.053708
5237.000000;-0.057950
5236.000000;-0.060400
5235.000000;-0.061843
5234.000000;-0.063211
5233.000000;-0.064080
5232.000000;-0.063787
5231.000000;-0.062802
5230.000000;-0.062045
5229.000000;-0.061325
5228.000000;-0.059651
5227.000000;-0.057022
5226.000000;-0.054751
5225.000000;-0.053694
5224.000000;-0.053140
5223.000000;-0.052152
5222.000000;-0.051163
5221.000000;-0.051336
5220.000000;-0.052827
5219.000000;-0.054676
5218.000000;-0.056278
5217.000000;-0.057958
5216.000000;-0.060105
5215.000000;-0.062507
5214.000000;-0.064727
5213.000000;-0.066502
5212.000000;-0.067470
5211.000000;-0.067233
5210.000000;-0.065746
5209.000000;-0.063168
5208.000000;-0.059657
5207.000000;-0.055710
5206.000000;-0.052265
5205.000000;-0.049907
5204.000000;-0.048401
5203.000000;-0.047581
5202.000000;-0.048107
5201.000000;-0.050466
5200.000000;-0.053751
5199.000000;-0.056544
5198.000000;-0.058694
5197.000000;-0.061117
5196.000000;-0.063980
5195.000000;-0.066164
5194.000000;-0.066909
5193.000000;-0.066928
5192.000000;-0.067211
5191.000000;-0.067759
5190.000000;-0.068119
5189.000000;-0.068297
5188.000000;-0.068457
5187.000000;-0.068320
5186.000000;-0.067661
5185.000000;-0.066933
5184.000000;-0.066654
5183.000000;-0.066550
5182.000000;-0.066117
5181.000000;-0.065676
5180.000000;-0.065981
5179.000000;-0.066983
5178.000000;-0.067882
5177.000000;-0.068385
5176.000000;-0.069069
5175.000000;-0.070304
5174.000000;-0.071551
5173.000000;-0.072120
5172.000000;-0.072071
5171.000000;-0.071963
5170.000000;-0.072071
5169.000000;-0.072273
5168.000000;-0.072419
5167.000000;-0.072460
5166.000000;-0.072367
5165.000000;-0.072178
5164.000000;-0.072045
5163.000000;-0.072023
5162.000000;-0.071969
5161.000000;-0.071799
5160.000000;-0.071670
5159.000000;-0.071708
5158.000000;-0.071744
5157.000000;-0.071576
5156.000000;-0.071352
5155.000000;-0.071403
5154.000000;-0.071759
5153.000000;-0.072156
5152.000000;-0.072509
5151.000000;-0.072994
5150.000000;-0.073650
5149.000000;-0.074263
5148.000000;-0.074730
5147.000000;-0.075211
5146.000000;-0.075816
5145.000000;-0.076354
5144.000000;-0.076560
5143.000000;-0.076435
5142.000000;-0.076225
5141.000000;-0.076120
5140.000000;-0.076105
5139.000000;-0.076109
5138.000000;-0.076168
5137.000000;-0.076383
5136.000000;-0.076737
5135.000000;-0.077068
5134.000000;-0.077267
5133.000000;-0.077393
5132.000000;-0.077567
5131.000000;-0.077792
5130.000000;-0.077981
5129.000000;-0.078113
5128.000000;-0.078258
5127.000000;-0.078449
5126.000000;-0.078638
5125.000000;-0.078784
5124.000000;-0.078920
5123.000000;-0.079064
5122.000000;-0.079150
5121.000000;-0.079129
5120.000000;-0.079058
5119.000000;-0.079025
5118.000000;-0.079021
5117.000000;-0.078995
5116.000000;-0.078968
5115.000000;-0.079018
5114.000000;-0.079160
5113.000000;-0.079337
5112.000000;-0.079516
5111.000000;-0.079711
5110.000000;-0.079921
5109.000000;-0.080112
5108.000000;-0.080268
5107.000000;-0.080407
5106.000000;-0.080535
5105.000000;-0.080659
5104.000000;-0.080799
5103.000000;-0.080953
5102.000000;-0.081060
5101.000000;-0.081077
5100.000000;-0.081045
5099.000000;-0.081038
5098.000000;-0.081072
5097.000000;-0.081111
5096.000000;-0.081144
5095.000000;-0.081176
5094.000000;-0.081193
5093.000000;-0.081184
5092.000000;-0.081193
5091.000000;-0.081272
5090.000000;-0.081410
5089.000000;-0.081547
5088.000000;-0.081669
5087.000000;-0.081805
5086.000000;-0.081960
5085.000000;-0.082109
5084.000000;-0.082251
5083.000000;-0.082406
5082.000000;-0.082564
5081.000000;-0.082682
5080.000000;-0.082742
5079.000000;-0.082774
5078.000000;-0.082822
5077.000000;-0.082915
5076.000000;-0.083050
5075.000000;-0.083198
5074.000000;-0.083311
5073.000000;-0.083366
5072.000000;-0.083381
5071.000000;-0.083387
5070.000000;-0.083400
5069.000000;-0.083430
5068.000000;-0.083504
5067.000000;-0.083632
5066.000000;-0.083782
5065.000000;-0.083910
5064.000000;-0.084006
5063.000000;-0.084081
5062.000000;-0.084142
5061.000000;-0.084195
5060.000000;-0.084262
5059.000000;-0.084345
5058.000000;-0.084406
5057.000000;-0.084408
5056.000000;-0.084371
5055.000000;-0.084349
5054.000000;-0.084365
5053.000000;-0.084408
5052.000000;-0.084470
5051.000000;-0.084552
5050.000000;-0.084637
5049.000000;-0.084705
5048.000000;-0.084760
5047.000000;-0.084831
5046.000000;-0.084931
5045.000000;-0.085056
5044.000000;-0.085205
5043.000000;-0.085374
5042.000000;-0.085532
5041.000000;-0.085647
5040.000000;-0.085718
5039.000000;-0.085776
5038.000000;-0.085832
5037.000000;-0.085875
5036.000000;-0.085897
5035.000000;-0.085906
5034.000000;-0.085918
5033.000000;-0.085951
5032.000000;-0.086025
5031.000000;-0.086142
5030.000000;-0.086286
5029.000000;-0.086441
5028.000000;-0.086600
5027.000000;-0.086743
5026.000000;-0.086831
5025.000000;-0.086852
5024.000000;-0.086856
5023.000000;-0.086897
5022.000000;-0.086981
5021.000000;-0.087075
5020.000000;-0.087166
5019.000000;-0.087256
5018.000000;-0.087338
5017.000000;-0.087405
5016.000000;-0.087472
5015.000000;-0.087560
5014.000000;-0.087659
5013.000000;-0.087749
5012.000000;-0.087824
5011.000000;-0.087882
5010.000000;-0.087900
5009.000000;-0.087868
5008.000000;-0.087819
5007.000000;-0.087813
5006.000000;-0.087881
5005.000000;-0.088015
5004.000000;-0.088195
5003.000000;-0.088386
5002.000000;-0.088539
5001.000000;-0.088620
5000.000000;-0.088660
4999.000000;-0.088698
4998.000000;-0.088781
4997.000000;-0.088893
4996.000000;-0.088966
4995.000000;-0.089029
4994.000000;-0.089043
4993.000000;-0.089031
4992.000000;-0.089055
4991.000000;-0.089164
4990.000000;-0.089323
4989.000000;-0.089466
4988.000000;-0.089570
4987.000000;-0.089661
4986.000000;-0.089757
4985.000000;-0.089853
4984.000000;-0.089951
4983.000000;-0.090059
4982.000000;-0.090155
4981.000000;-0.090210
4980.000000;-0.090229
4979.000000;-0.090246
4978.000000;-0.090278
4977.000000;-0.090319
4976.000000;-0.090377
4975.000000;-0.090472
4974.000000;-0.090597
4973.000000;-0.090717
4972.000000;-0.090801
4971.000000;-0.090843
4970.000000;-0.090853
4969.000000;-0.090856
4968.000000;-0.090897
4967.000000;-0.091011
4966.000000;-0.091179
4965.000000;-0.091350
4964.000000;-0.091495
4963.000000;-0.091613
4962.000000;-0.091716
4961.000000;-0.091807
4960.000000;-0.091895
4959.000000;-0.091980
4958.000000;-0.092039
4957.000000;-0.092060
4956.000000;-0.092069
4955.000000;-0.092112
4954.000000;-0.092208
4953.000000;-0.092340
4952.000000;-0.092485
4951.000000;-0.092622
4950.000000;-0.092718
4949.000000;-0.092755
4948.000000;-0.092771
4947.000000;-0.092830
4946.000000;-0.092957
4945.000000;-0.093123
4944.000000;-0.093279
4943.000000;-0.093400
4942.000000;-0.093478
4941.000000;-0.093523
4940.000000;-0.093570
4939.000000;-0.093654
4938.000000;-0.093777
4937.000000;-0.093915
4936.000000;-0.094043
4935.000000;-0.094146
4934.000000;-0.094204
4933.000000;-0.094215
4932.000000;-0.094214
4931.000000;-0.094251
4930.000000;-0.094335
4929.000000;-0.094432
4928.000000;-0.094513
4927.000000;-0.094582
4926.000000;-0.094660
4925.000000;-0.094757
4924.000000;-0.094873
4923.000000;-0.095002
4922.000000;-0.095132
4921.000000;-0.095258
4920.000000;-0.095383
4919.000000;-0.095511
4918.000000;-0.095632
4917.000000;-0.095740
4916.000000;-0.095843
4915.000000;-0.095949
4914.000000;-0.096052
4913.000000;-0.096152
4912.000000;-0.096262
4911.000000;-0.096388
4910.000000;-0.096501
4909.000000;-0.096575
4908.000000;-0.096629
4907.000000;-0.096705
4906.000000;-0.096813
4905.000000;-0.096931
4904.000000;-0.097041
4903.000000;-0.097140
4902.000000;-0.097229
4901.000000;-0.097316
4900.000000;-0.097423
4899.000000;-0.097563
4898.000000;-0.097714
4897.000000;-0.097843
4896.000000;-0.097946
4895.000000;-0.098051
4894.000000;-0.098168
4893.000000;-0.098291
4892.000000;-0.098419
4891.000000;-0.098558
4890.000000;-0.098698
4889.000000;-0.098815
4888.000000;-0.098907
4887.000000;-0.098991
4886.000000;-0.099080
4885.000000;-0.099181
4884.000000;-0.099304
4883.000000;-0.099463
4882.000000;-0.099635
4881.000000;-0.099776
4880.000000;-0.099863
4879.000000;-0.099911
4878.000000;-0.099942
4877.000000;-0.099972
4876.000000;-0.100015
4875.000000;-0.100089
4874.000000;-0.100195
4873.000000;-0.100313
4872.000000;-0.100427
4871.000000;-0.100532
4870.000000;-0.100631
4869.000000;-0.100731
4868.000000;-0.100855
4867.000000;-0.101023
4866.000000;-0.101219
4865.000000;-0.101398
4864.000000;-0.101531
4863.000000;-0.101626
4862.000000;-0.101710
4861.000000;-0.101807
4860.000000;-0.101924
4859.000000;-0.102050
4858.000000;-0.102160
4857.000000;-0.102233
4856.000000;-0.102274
4855.000000;-0.102309
4854.000000;-0.102365
4853.000000;-0.102450
4852.000000;-0.102560
4851.000000;-0.102678
4850.000000;-0.102782
4849.000000;-0.102865
4848.000000;-0.102936
4847.000000;-0.103011
4846.000000;-0.103095
4845.000000;-0.103189
4844.000000;-0.103295
4843.000000;-0.103402
4842.000000;-0.103486
4841.000000;-0.103537
4840.000000;-0.103591
4839.000000;-0.103691
4838.000000;-0.103851
4837.000000;-0.104042
4836.000000;-0.104225
4835.000000;-0.104371
4834.000000;-0.104464
4833.000000;-0.104513
4832.000000;-0.104558
4831.000000;-0.104640
4830.000000;-0.104772
4829.000000;-0.104928
4828.000000;-0.105071
4827.000000;-0.105169
4826.000000;-0.105209
4825.000000;-0.105218
4824.000000;-0.105264
4823.000000;-0.105400
4822.000000;-0.105614
4821.000000;-0.105835
4820.000000;-0.105995
4819.000000;-0.106073
4818.000000;-0.106092
4817.000000;-0.106098
4816.000000;-0.106139
4815.000000;-0.106234
4814.000000;-0.106358
4813.000000;-0.106464
4812.000000;-0.106529
4811.000000;-0.106562
4810.000000;-0.106592
4809.000000;-0.106648
4808.000000;-0.106753
4807.000000;-0.106905
4806.000000;-0.107073
4805.000000;-0.107218
4804.000000;-0.107316
4803.000000;-0.107371
4802.000000;-0.107405
4801.000000;-0.107450
4800.000000;-0.107535
4799.000000;-0.107671
4798.000000;-0.107831
4797.000000;-0.107981
4796.000000;-0.108101
4795.000000;-0.108194
4794.000000;-0.108276
4793.000000;-0.108381
4792.000000;-0.108545
4791.000000;-0.108770
4790.000000;-0.108999
4789.000000;-0.109163
4788.000000;-0.109235
4787.000000;-0.109239
4786.000000;-0.109227
4785.000000;-0.109245
4784.000000;-0.109310
4783.000000;-0.109407
4782.000000;-0.109491
4781.000000;-0.109532
4780.000000;-0.109537
4779.000000;-0.109529
4778.000000;-0.109532
4777.000000;-0.109564
4776.000000;-0.109648
4775.000000;-0.109780
4774.000000;-0.109923
4773.000000;-0.110033
4772.000000;-0.110095
4771.000000;-0.110119
4770.000000;-0.110135
4769.000000;-0.110183
4768.000000;-0.110294
4767.000000;-0.110448
4766.000000;-0.110575
4765.000000;-0.110621
4764.000000;-0.110610
4763.000000;-0.110611
4762.000000;-0.110672
4761.000000;-0.110797
4760.000000;-0.110975
4759.000000;-0.111182
4758.000000;-0.111376
4757.000000;-0.111515
4756.000000;-0.111593
4755.000000;-0.111635
4754.000000;-0.111671
4753.000000;-0.111727
4752.000000;-0.111823
4751.000000;-0.111948
4750.000000;-0.112058
4749.000000;-0.112115
4748.000000;-0.112131
4747.000000;-0.112153
4746.000000;-0.112214
4745.000000;-0.112320
4744.000000;-0.112456
4743.000000;-0.112590
4742.000000;-0.112672
4741.000000;-0.112682
4740.000000;-0.112666
4739.000000;-0.112693
4738.000000;-0.112784
4737.000000;-0.112914
4736.000000;-0.113056
4735.000000;-0.113193
4734.000000;-0.113309
4733.000000;-0.113395
4732.000000;-0.113475
4731.000000;-0.113578
4730.000000;-0.113691
4729.000000;-0.113777
4728.000000;-0.113826
4727.000000;-0.113870
4726.000000;-0.113941
4725.000000;-0.114044
4724.000000;-0.114170
4723.000000;-0.114312
4722.000000;-0.114452
4721.000000;-0.114566
4720.000000;-0.114641
4719.000000;-0.114685
4718.000000;-0.114703
4717.000000;-0.114699
4716.000000;-0.114700
4715.000000;-0.114747
4714.000000;-0.114843
4713.000000;-0.114955
4712.000000;-0.115046
4711.000000;-0.115110
4710.000000;-0.115150
4709.000000;-0.115167
4708.000000;-0.115175
4707.000000;-0.115204
4706.000000;-0.115269
4705.000000;-0.115346
4704.000000;-0.115400
4703.000000;-0.115418
4702.000000;-0.115430
4701.000000;-0.115477
4700.000000;-0.115586
4699.000000;-0.115747
4698.000000;-0.115924
4697.000000;-0.116085
4696.000000;-0.116217
4695.000000;-0.116323
4694.000000;-0.116400
4693.000000;-0.116443
4692.000000;-0.116463
4691.000000;-0.116489
4690.000000;-0.116542
4689.000000;-0.116618
4688.000000;-0.116687
4687.000000;-0.116712
4686.000000;-0.116678
4685.000000;-0.116616
4684.000000;-0.116578
4683.000000;-0.116595
4682.000000;-0.116644
4681.000000;-0.116691
4680.000000;-0.116721
4679.000000;-0.116738
4678.000000;-0.116737
4677.000000;-0.116720
4676.000000;-0.116711
4675.000000;-0.116740
4674.000000;-0.116797
4673.000000;-0.116848
4672.000000;-0.116869
4671.000000;-0.116872
4670.000000;-0.116883
4669.000000;-0.116924
4668.000000;-0.116997
4667.000000;-0.117080
4666.000000;-0.117135
4665.000000;-0.117153
4664.000000;-0.117168
4663.000000;-0.117226
4662.000000;-0.117332
4661.000000;-0.117457
4660.000000;-0.117568
4659.000000;-0.117635
4658.000000;-0.117623
4657.000000;-0.117521
4656.000000;-0.117376
4655.000000;-0.117258
4654.000000;-0.117203
4653.000000;-0.117208
4652.000000;-0.117257
4651.000000;-0.117330
4650.000000;-0.117386
4649.000000;-0.117380
4648.000000;-0.117316
4647.000000;-0.117248
4646.000000;-0.117219
4645.000000;-0.117230
4644.000000;-0.117259
4643.000000;-0.117290
4642.000000;-0.117303
4641.000000;-0.117274
4640.000000;-0.117200
4639.000000;-0.117106
4638.000000;-0.117019
4637.000000;-0.116954
4636.000000;-0.116921
4635.000000;-0.116934
4634.000000;-0.116987
4633.000000;-0.117050
4632.000000;-0.117099
4631.000000;-0.117133
4630.000000;-0.117159
4629.000000;-0.117174
4628.000000;-0.117175
4627.000000;-0.117170
4626.000000;-0.117155
4625.000000;-0.117106
4624.000000;-0.117011
4623.000000;-0.116894
4622.000000;-0.116800
4621.000000;-0.116757
4620.000000;-0.116753
4619.000000;-0.116755
4618.000000;-0.116731
4617.000000;-0.116665
4616.000000;-0.116555
4615.000000;-0.116417
4614.000000;-0.116282
4613.000000;-0.116182
4612.000000;-0.116127
4611.000000;-0.116080
4610.000000;-0.115979
4609.000000;-0.115796
4608.000000;-0.115580
4607.000000;-0.115420
4606.000000;-0.115361
4605.000000;-0.115376
4604.000000;-0.115392
4603.000000;-0.115355
4602.000000;-0.115253
4601.000000;-0.115118
4600.000000;-0.115006
4599.000000;-0.114952
4598.000000;-0.114927
4597.000000;-0.114870
4596.000000;-0.114744
4595.000000;-0.114570
4594.000000;-0.114394
4593.000000;-0.114240
4592.000000;-0.114109
4591.000000;-0.114001
4590.000000;-0.113916
4589.000000;-0.113846
4588.000000;-0.113767
4587.000000;-0.113643
4586.000000;-0.113449
4585.000000;-0.113192
4584.000000;-0.112915
4583.000000;-0.112670
4582.000000;-0.112478
4581.000000;-0.112310
4580.000000;-0.112119
4579.000000;-0.111869
4578.000000;-0.111562
4577.000000;-0.111231
4576.000000;-0.110923
4575.000000;-0.110655
4574.000000;-0.110406
4573.000000;-0.110137
4572.000000;-0.109831
4571.000000;-0.109496
4570.000000;-0.109143
4569.000000;-0.108774
4568.000000;-0.108400
4567.000000;-0.108044
4566.000000;-0.107717
4565.000000;-0.107403
4564.000000;-0.107077
4563.000000;-0.106732
4562.000000;-0.106386
4561.000000;-0.106050
4560.000000;-0.105708
4559.000000;-0.105328
4558.000000;-0.104889
4557.000000;-0.104400
4556.000000;-0.103886
4555.000000;-0.103366
4554.000000;-0.102851
4553.000000;-0.102353
4552.000000;-0.101887
4551.000000;-0.101452
4550.000000;-0.101015
4549.000000;-0.100535
4548.000000;-0.099988
4547.000000;-0.099384
4546.000000;-0.098754
4545.000000;-0.098143
4544.000000;-0.097577
4543.000000;-0.097043
4542.000000;-0.096502
4541.000000;-0.095929
4540.000000;-0.095347
4539.000000;-0.094795
4538.000000;-0.094288
4537.000000;-0.093816
4536.000000;-0.093365
4535.000000;-0.092927
4534.000000;-0.092496
4533.000000;-0.092061
4532.000000;-0.091615
4531.000000;-0.091157
4530.000000;-0.090701
4529.000000;-0.090272
4528.000000;-0.089892
4527.000000;-0.089553
4526.000000;-0.089212
4525.000000;-0.088841
4524.000000;-0.088461
4523.000000;-0.088121
4522.000000;-0.087849
4521.000000;-0.087635
4520.000000;-0.087438
4519.000000;-0.087212
4518.000000;-0.086937
4517.000000;-0.086641
4516.000000;-0.086385
4515.000000;-0.086208
4514.000000;-0.086095
4513.000000;-0.085999
4512.000000;-0.085873
4511.000000;-0.085682
4510.000000;-0.085408
4509.000000;-0.085071
4508.000000;-0.084742
4507.000000;-0.084488
4506.000000;-0.084325
4505.000000;-0.084215
4504.000000;-0.084108
4503.000000;-0.083980
4502.000000;-0.083821
4501.000000;-0.083631
4500.000000;-0.083412
4499.000000;-0.083166
4498.000000;-0.082890
4497.000000;-0.082587
4496.000000;-0.082264
4495.000000;-0.081916
4494.000000;-0.081542
4493.000000;-0.081179
4492.000000;-0.080902
4491.000000;-0.080757
4490.000000;-0.080693
4489.000000;-0.080598
4488.000000;-0.080390
4487.000000;-0.080064
4486.000000;-0.079662
4485.000000;-0.079240
4484.000000;-0.078852
4483.000000;-0.078537
4482.000000;-0.078293
4481.000000;-0.078074
4480.000000;-0.077817
4479.000000;-0.077482
4478.000000;-0.077071
4477.000000;-0.076629
4476.000000;-0.076213
4475.000000;-0.075850
4474.000000;-0.075525
4473.000000;-0.075203
4472.000000;-0.074868
4471.000000;-0.074521
4470.000000;-0.074163
4469.000000;-0.073794
4468.000000;-0.073419
4467.000000;-0.073035
4466.000000;-0.072633
4465.000000;-0.072200
4464.000000;-0.071729
4463.000000;-0.071212
4462.000000;-0.070651
4461.000000;-0.070087
4460.000000;-0.069580
4459.000000;-0.069147
4458.000000;-0.068733
4457.000000;-0.068268
4456.000000;-0.067735
4455.000000;-0.067174
4454.000000;-0.066630
4453.000000;-0.066134
4452.000000;-0.065701
4451.000000;-0.065325
4450.000000;-0.064966
4449.000000;-0.064578
4448.000000;-0.064151
4447.000000;-0.063701
4446.000000;-0.063224
4445.000000;-0.062694
4444.000000;-0.062107
4443.000000;-0.061492
4442.000000;-0.060890
4441.000000;-0.060324
4440.000000;-0.059805
4439.000000;-0.059328
4438.000000;-0.058873
4437.000000;-0.058411
4436.000000;-0.057927
4435.000000;-0.057416
4434.000000;-0.056881
4433.000000;-0.056327
4432.000000;-0.055754
4431.000000;-0.055150
4430.000000;-0.054510
4429.000000;-0.053881
4428.000000;-0.053339
4427.000000;-0.052906
4426.000000;-0.052501
4425.000000;-0.052007
4424.000000;-0.051383
4423.000000;-0.050681
4422.000000;-0.049967
4421.000000;-0.049279
4420.000000;-0.048629
4419.000000;-0.048006
4418.000000;-0.047378
4417.000000;-0.046717
4416.000000;-0.046042
4415.000000;-0.045399
4414.000000;-0.044808
4413.000000;-0.044245
4412.000000;-0.043671
4411.000000;-0.043048
4410.000000;-0.042343
4409.000000;-0.041540
4408.000000;-0.040685
4407.000000;-0.039856
4406.000000;-0.039111
4405.000000;-0.038461
4404.000000;-0.037884
4403.000000;-0.037338
4402.000000;-0.036757
4401.000000;-0.036084
4400.000000;-0.035335
4399.000000;-0.034590
4398.000000;-0.033903
4397.000000;-0.033257
4396.000000;-0.032600
4395.000000;-0.031887
4394.000000;-0.031093
4393.000000;-0.030211
4392.000000;-0.029276
4391.000000;-0.028350
4390.000000;-0.027464
4389.000000;-0.026598
4388.000000;-0.025720
4387.000000;-0.024832
4386.000000;-0.023948
4385.000000;-0.023061
4384.000000;-0.022157
4383.000000;-0.021250
4382.000000;-0.020362
4381.000000;-0.019489
4380.000000;-0.018601
4379.000000;-0.017677
4378.000000;-0.016717
4377.000000;-0.015718
4376.000000;-0.014676
4375.000000;-0.013607
4374.000000;-0.012561
4373.000000;-0.011574
4372.000000;-0.010625
4371.000000;-0.009638
4370.000000;-0.008548
4369.000000;-0.007361
4368.000000;-0.006159
4367.000000;-0.005037
4366.000000;-0.004035
4365.000000;-0.003112
4364.000000;-0.002180
4363.000000;-0.001158
4362.000000;-0.000021
4361.000000;0.001196
4360.000000;0.002428
4359.000000;0.003633
4358.000000;0.004811
4357.000000;0.005987
4356.000000;0.007190
4355.000000;0.008441
4354.000000;0.009737
4353.000000;0.011042
4352.000000;0.012298
4351.000000;0.013470
4350.000000;0.014580
4349.000000;0.015691
4348.000000;0.016873
4347.000000;0.018160
4346.000000;0.019539
4345.000000;0.020952
4344.000000;0.022337
4343.000000;0.023686
4342.000000;0.025030
4341.000000;0.026387
4340.000000;0.027746
4339.000000;0.029097
4338.000000;0.030462
4337.000000;0.031855
4336.000000;0.033256
4335.000000;0.034637
4334.000000;0.036009
4333.000000;0.037412
4332.000000;0.038867
4331.000000;0.040368
4330.000000;0.041906
4329.000000;0.043471
4328.000000;0.045026
4327.000000;0.046511
4326.000000;0.047886
4325.000000;0.049170
4324.000000;0.050443
4323.000000;0.051804
4322.000000;0.053301
4321.000000;0.054905
4320.000000;0.056526
4319.000000;0.058089
4318.000000;0.059578
4317.000000;0.061018
4316.000000;0.062463
4315.000000;0.063981
4314.000000;0.065619
4313.000000;0.067347
4312.000000;0.069067
4311.000000;0.070687
4310.000000;0.072193
4309.000000;0.073641
4308.000000;0.075112
4307.000000;0.076693
4306.000000;0.078422
4305.000000;0.080241
4304.000000;0.082016
4303.000000;0.083672
4302.000000;0.085259
4301.000000;0.086876
4300.000000;0.088550
4299.000000;0.090250
4298.000000;0.091982
4297.000000;0.093789
4296.000000;0.095677
4295.000000;0.097580
4294.000000;0.099436
4293.000000;0.101237
4292.000000;0.103022
4291.000000;0.104824
4290.000000;0.106651
4289.000000;0.108481
4288.000000;0.110284
4287.000000;0.112054
4286.000000;0.113827
4285.000000;0.115643
4284.000000;0.117509
4283.000000;0.119416
4282.000000;0.121349
4281.000000;0.123279
4280.000000;0.125158
4279.000000;0.126978
4278.000000;0.128805
4277.000000;0.130719
4276.000000;0.132739
4275.000000;0.134810
4274.000000;0.136854
4273.000000;0.138806
4272.000000;0.140637
4271.000000;0.142396
4270.000000;0.144211
4269.000000;0.146196
4268.000000;0.148367
4267.000000;0.150644
4266.000000;0.152924
4265.000000;0.155128
4264.000000;0.157230
4263.000000;0.159273
4262.000000;0.161353
4261.000000;0.163527
4260.000000;0.165762
4259.000000;0.167980
4258.000000;0.170133
4257.000000;0.172202
4256.000000;0.174176
4255.000000;0.176088
4254.000000;0.178039
4253.000000;0.180120
4252.000000;0.182329
4251.000000;0.184606
4250.000000;0.186912
4249.000000;0.189219
4248.000000;0.191464
4247.000000;0.193602
4246.000000;0.195708
4245.000000;0.197937
4244.000000;0.200376
4243.000000;0.202943
4242.000000;0.205462
4241.000000;0.207809
4240.000000;0.209999
4239.000000;0.212156
4238.000000;0.214379
4237.000000;0.216630
4236.000000;0.218797
4235.000000;0.220886
4234.000000;0.223079
4233.000000;0.225537
4232.000000;0.228218
4231.000000;0.230941
4230.000000;0.233598
4229.000000;0.236199
4228.000000;0.238782
4227.000000;0.241380
4226.000000;0.244053
4225.000000;0.246835
4224.000000;0.249631
4223.000000;0.252298
4222.000000;0.254838
4221.000000;0.257420
4220.000000;0.260184
4219.000000;0.263113
4218.000000;0.266083
4217.000000;0.268958
4216.000000;0.271615
4215.000000;0.274016
4214.000000;0.276310
4213.000000;0.278786
4212.000000;0.281629
4211.000000;0.284764
4210.000000;0.287965
4209.000000;0.291076
4208.000000;0.294089
4207.000000;0.297058
4206.000000;0.300022
4205.000000;0.302992
4204.000000;0.305965
4203.000000;0.308938
4202.000000;0.311907
4201.000000;0.314851
4200.000000;0.317746
4199.000000;0.320620
4198.000000;0.323571
4197.000000;0.326682
4196.000000;0.329931
4195.000000;0.333241
4194.000000;0.336582
4193.000000;0.339963
4192.000000;0.343361
4191.000000;0.346735
4190.000000;0.350119
4189.000000;0.353579
4188.000000;0.357087
4187.000000;0.360531
4186.000000;0.363870
4185.000000;0.367171
4184.000000;0.370477
4183.000000;0.373748
4182.000000;0.376993
4181.000000;0.380358
4180.000000;0.383980
4179.000000;0.387794
4178.000000;0.391563
4177.000000;0.395095
4176.000000;0.398383
4175.000000;0.401577
4174.000000;0.404867
4173.000000;0.408372
4172.000000;0.412059
4171.000000;0.415783
4170.000000;0.419425
4169.000000;0.423002
4168.000000;0.426634
4167.000000;0.430417
4166.000000;0.434330
4165.000000;0.438241
4164.000000;0.442000
4163.000000;0.445581
4162.000000;0.449135
4161.000000;0.452856
4160.000000;0.456765
4159.000000;0.460697
4158.000000;0.464523
4157.000000;0.468334
4156.000000;0.472327
4155.000000;0.476554
4154.000000;0.480834
4153.000000;0.484902
4152.000000;0.488637
4151.000000;0.492146
4150.000000;0.495684
4149.000000;0.499484
4148.000000;0.503607
4147.000000;0.507906
4146.000000;0.512138
4145.000000;0.516135
4144.000000;0.519906
4143.000000;0.523612
4142.000000;0.527445
4141.000000;0.531478
4140.000000;0.535598
4139.000000;0.539585
4138.000000;0.543325
4137.000000;0.546966
4136.000000;0.550824
4135.000000;0.555071
4134.000000;0.559547
4133.000000;0.563898
4132.000000;0.567913
4131.000000;0.571664
4130.000000;0.575350
4129.000000;0.579095
4128.000000;0.582953
4127.000000;0.586956
4126.000000;0.591058
4125.000000;0.595113
4124.000000;0.599049
4123.000000;0.603018
4122.000000;0.607226
4121.000000;0.611640
4120.000000;0.615990
4119.000000;0.620070
4118.000000;0.623862
4117.000000;0.627375
4116.000000;0.630608
4115.000000;0.633767
4114.000000;0.637307
4113.000000;0.641543
4112.000000;0.646246
4111.000000;0.650765
4110.000000;0.654592
4109.000000;0.657784
4108.000000;0.660874
4107.000000;0.664382
4106.000000;0.668398
4105.000000;0.672597
4104.000000;0.676672
4103.000000;0.680654
4102.000000;0.684701
4101.000000;0.688714
4100.000000;0.692425
4099.000000;0.695869
4098.000000;0.699506
4097.000000;0.703674
4096.000000;0.708141
4095.000000;0.712344
4094.000000;0.715994
4093.000000;0.719313
4092.000000;0.722752
4091.000000;0.726620
4090.000000;0.730900
4089.000000;0.735286
4088.000000;0.739435
4087.000000;0.743231
4086.000000;0.746744
4085.000000;0.749946
4084.000000;0.752687
4083.000000;0.755026
4082.000000;0.757390
4081.000000;0.760254
4080.000000;0.763745
4079.000000;0.767637
4078.000000;0.771601
4077.000000;0.775349
4076.000000;0.778712
4075.000000;0.781732
4074.000000;0.784601
4073.000000;0.787421
4072.000000;0.790132
4071.000000;0.792778
4070.000000;0.795665
4069.000000;0.799079
4068.000000;0.802968
4067.000000;0.806989
4066.000000;0.810748
4065.000000;0.813954
4064.000000;0.816557
4063.000000;0.818912
4062.000000;0.821565
4061.000000;0.824670
4060.000000;0.827745
4059.000000;0.830256
4058.000000;0.832303
4057.000000;0.834486
4056.000000;0.837139
4055.000000;0.839958
4054.000000;0.842386
4053.000000;0.844206
4052.000000;0.845717
4051.000000;0.847445
4050.000000;0.849642
4049.000000;0.852038
4048.000000;0.854173
4047.000000;0.855964
4046.000000;0.857720
4045.000000;0.859556
4044.000000;0.861148
4043.000000;0.862294
4042.000000;0.863393
4041.000000;0.864930
4040.000000;0.866711
4039.000000;0.868115
4038.000000;0.869082
4037.000000;0.870257
4036.000000;0.872019
4035.000000;0.873846
4034.000000;0.874948
4033.000000;0.875202
4032.000000;0.875130
4031.000000;0.875258
4030.000000;0.875883
4029.000000;0.877199
4028.000000;0.879119
4027.000000;0.880943
4026.000000;0.881749
4025.000000;0.881355
4024.000000;0.880483
4023.000000;0.879784
4022.000000;0.879126
4021.000000;0.878112
4020.000000;0.876906
4019.000000;0.876088
4018.000000;0.875799
4017.000000;0.875489
4016.000000;0.874593
4015.000000;0.873128
4014.000000;0.871536
4013.000000;0.870224
4012.000000;0.869357
4011.000000;0.868833
4010.000000;0.868310
4009.000000;0.867431
4008.000000;0.866131
4007.000000;0.864594
4006.000000;0.862854
4005.000000;0.860665
4004.000000;0.857914
4003.000000;0.854975
4002.000000;0.852403
4001.000000;0.850358
4000.000000;0.848520
3999.000000;0.846578
3998.000000;0.844597
3997.000000;0.842843
3996.000000;0.841377
3995.000000;0.839938
3994.000000;0.838232
3993.000000;0.836232
3992.000000;0.834121
3991.000000;0.831982
3990.000000;0.829663
3989.000000;0.826938
3988.000000;0.823750
3987.000000;0.820280
3986.000000;0.816848
3985.000000;0.813736
3984.000000;0.810988
3983.000000;0.808312
3982.000000;0.805268
3981.000000;0.801615
3980.000000;0.797413
3979.000000;0.792832
3978.000000;0.788047
3977.000000;0.783407
3976.000000;0.779494
3975.000000;0.776747
3974.000000;0.775005
3973.000000;0.773505
3972.000000;0.771398
3971.000000;0.768326
3970.000000;0.764543
3969.000000;0.760536
3968.000000;0.756602
3967.000000;0.752851
3966.000000;0.749513
3965.000000;0.746886
3964.000000;0.744774
3963.000000;0.742288
3962.000000;0.738653
3961.000000;0.734154
3960.000000;0.729825
3959.000000;0.726193
3958.000000;0.722835
3957.000000;0.719246
3956.000000;0.715579
3955.000000;0.712159
3954.000000;0.708743
3953.000000;0.704799
3952.000000;0.700314
3951.000000;0.695844
3950.000000;0.691866
3949.000000;0.688481
3948.000000;0.685588
3947.000000;0.682904
3946.000000;0.679795
3945.000000;0.675579
3944.000000;0.670295
3943.000000;0.664926
3942.000000;0.660567
3941.000000;0.657401
3940.000000;0.654625
3939.000000;0.651375
3938.000000;0.647585
3937.000000;0.643817
3936.000000;0.640333
3935.000000;0.636625
3934.000000;0.631987
3933.000000;0.626359
3932.000000;0.620401
3931.000000;0.614886
3930.000000;0.610246
3929.000000;0.606542
3928.000000;0.603436
3927.000000;0.600234
3926.000000;0.596351
3925.000000;0.591899
3924.000000;0.587534
3923.000000;0.583635
3922.000000;0.579859
3921.000000;0.575620
3920.000000;0.570777
3919.000000;0.565761
3918.000000;0.561225
3917.000000;0.557661
3916.000000;0.555079
3915.000000;0.552882
3914.000000;0.550287
3913.000000;0.547032
3912.000000;0.543519
3911.000000;0.540181
3910.000000;0.536966
3909.000000;0.533466
3908.000000;0.529261
3907.000000;0.524101
3906.000000;0.518137
3905.000000;0.512116
3904.000000;0.506942
3903.000000;0.502828
3902.000000;0.499228
3901.000000;0.495737
3900.000000;0.492649
3899.000000;0.490320
3898.000000;0.488388
3897.000000;0.486082
3896.000000;0.483122
3895.000000;0.479809
3894.000000;0.476447
3893.000000;0.473145
3892.000000;0.470115
3891.000000;0.467580
3890.000000;0.465245
3889.000000;0.462361
3888.000000;0.458612
3887.000000;0.454712
3886.000000;0.451788
3885.000000;0.450176
3884.000000;0.449027
3883.000000;0.447111
3882.000000;0.443922
3881.000000;0.440108
3880.000000;0.436844
3879.000000;0.434723
3878.000000;0.433331
3877.000000;0.431850
3876.000000;0.429865
3875.000000;0.427495
3874.000000;0.424899
3873.000000;0.422057
3872.000000;0.419058
3871.000000;0.416148
3870.000000;0.413410
3869.000000;0.410661
3868.000000;0.407662
3867.000000;0.404306
3866.000000;0.400716
3865.000000;0.397344
3864.000000;0.394734
3863.000000;0.393054
3862.000000;0.391979
3861.000000;0.391000
3860.000000;0.389671
3859.000000;0.387645
3858.000000;0.384768
3857.000000;0.381315
3856.000000;0.377933
3855.000000;0.375105
3854.000000;0.372735
3853.000000;0.370450
3852.000000;0.368156
3851.000000;0.366071
3850.000000;0.364171
3849.000000;0.362151
3848.000000;0.360181
3847.000000;0.358582
3846.000000;0.357079
3845.000000;0.355205
3844.000000;0.352971
3843.000000;0.350817
3842.000000;0.348979
3841.000000;0.347207
3840.000000;0.345171
3839.000000;0.342874
3838.000000;0.340554
3837.000000;0.338349
3836.000000;0.336178
3835.000000;0.333907
3834.000000;0.331513
3833.000000;0.329087
3832.000000;0.326701
3831.000000;0.324306
3830.000000;0.321821
3829.000000;0.319305
3828.000000;0.316956
3827.000000;0.314918
3826.000000;0.313081
3825.000000;0.311142
3824.000000;0.308868
3823.000000;0.306267
3822.000000;0.303586
3821.000000;0.301185
3820.000000;0.299278
3819.000000;0.297699
3818.000000;0.295908
3817.000000;0.293386
3816.000000;0.290218
3815.000000;0.286954
3814.000000;0.283994
3813.000000;0.281549
3812.000000;0.279772
3811.000000;0.278537
3810.000000;0.277282
3809.000000;0.275406
3808.000000;0.272913
3807.000000;0.270325
3806.000000;0.267934
3805.000000;0.265551
3804.000000;0.262983
3803.000000;0.260367
3802.000000;0.257964
3801.000000;0.255784
3800.000000;0.253618
3799.000000;0.251373
3798.000000;0.249045
3797.000000;0.246596
3796.000000;0.244092
3795.000000;0.241683
3794.000000;0.239499
3793.000000;0.237574
3792.000000;0.235717
3791.000000;0.233601
3790.000000;0.231090
3789.000000;0.228397
3788.000000;0.225827
3787.000000;0.223407
3786.000000;0.220927
3785.000000;0.218335
3784.000000;0.215839
3783.000000;0.213530
3782.000000;0.211158
3781.000000;0.208464
3780.000000;0.205604
3779.000000;0.203022
3778.000000;0.200944
3777.000000;0.199146
3776.000000;0.197180
3775.000000;0.194733
3774.000000;0.191855
3773.000000;0.188861
3772.000000;0.186057
3771.000000;0.183562
3770.000000;0.181276
3769.000000;0.178992
3768.000000;0.176512
3767.000000;0.173749
3766.000000;0.170851
3765.000000;0.168281
3764.000000;0.166458
3763.000000;0.165192
3762.000000;0.163731
3761.000000;0.161510
3760.000000;0.158655
3759.000000;0.155606
3758.000000;0.152524
3757.000000;0.149306
3756.000000;0.146017
3755.000000;0.143021
3754.000000;0.140573
3753.000000;0.138382
3752.000000;0.135748
3751.000000;0.132234
3750.000000;0.128156
3749.000000;0.124300
3748.000000;0.121115
3747.000000;0.118367
3746.000000;0.115746
3745.000000;0.113326
3744.000000;0.111129
3743.000000;0.108824
3742.000000;0.106124
3741.000000;0.103251
3740.000000;0.100842
3739.000000;0.099210
3738.000000;0.097837
3737.000000;0.095967
3736.000000;0.093341
3735.000000;0.090114
3734.000000;0.086577
3733.000000;0.083141
3732.000000;0.080149
3731.000000;0.077486
3730.000000;0.074700
3729.000000;0.071630
3728.000000;0.068713
3727.000000;0.066429
3726.000000;0.064573
3725.000000;0.062437
3724.000000;0.059604
3723.000000;0.056238
3722.000000;0.052716
3721.000000;0.049304
3720.000000;0.046143
3719.000000;0.043224
3718.000000;0.040362
3717.000000;0.037383
3716.000000;0.034319
3715.000000;0.031266
3714.000000;0.028108
3713.000000;0.024609
3712.000000;0.020781
3711.000000;0.016983
3710.000000;0.013624
3709.000000;0.010832
3708.000000;0.008374
3707.000000;0.005870
3706.000000;0.003141
3705.000000;0.000297
3704.000000;-0.002488
3703.000000;-0.005250
3702.000000;-0.008271
3701.000000;-0.011718
3700.000000;-0.015382
3699.000000;-0.018971
3698.000000;-0.022470
3697.000000;-0.025928
3696.000000;-0.029085
3695.000000;-0.031651
3694.000000;-0.033875
3693.000000;-0.036485
3692.000000;-0.039974
3691.000000;-0.044152
3690.000000;-0.048454
3689.000000;-0.052405
3688.000000;-0.055745
3687.000000;-0.058464
3686.000000;-0.060951
3685.000000;-0.063800
3684.000000;-0.067245
3683.000000;-0.071010
3682.000000;-0.074680
3681.000000;-0.078021
3680.000000;-0.081056
3679.000000;-0.083893
3678.000000;-0.086553
3677.000000;-0.089025
3676.000000;-0.091473
3675.000000;-0.094259
3674.000000;-0.097638
3673.000000;-0.101500
3672.000000;-0.105541
3671.000000;-0.109466
3670.000000;-0.113138
3669.000000;-0.116877
3668.000000;-0.121051
3667.000000;-0.125416
3666.000000;-0.129376
3665.000000;-0.132595
3664.000000;-0.135308
3663.000000;-0.138206
3662.000000;-0.141784
3661.000000;-0.145914
3660.000000;-0.150154
3659.000000;-0.154223
3658.000000;-0.158121
3657.000000;-0.161914
3656.000000;-0.165562
3655.000000;-0.168936
3654.000000;-0.171942
3653.000000;-0.174695
3652.000000;-0.177530
3651.000000;-0.180776
3650.000000;-0.184461
3649.000000;-0.188224
3648.000000;-0.191615
3647.000000;-0.194617
3646.000000;-0.197735
3645.000000;-0.201350
3644.000000;-0.205140
3643.000000;-0.208496
3642.000000;-0.211241
3641.000000;-0.213774
3640.000000;-0.216785
3639.000000;-0.220787
3638.000000;-0.225651
3637.000000;-0.230574
3636.000000;-0.234747
3635.000000;-0.238105
3634.000000;-0.241248
3633.000000;-0.244688
3632.000000;-0.248414
3631.000000;-0.252157
3630.000000;-0.255725
3629.000000;-0.259001
3628.000000;-0.261899
3627.000000;-0.264513
3626.000000;-0.267196
3625.000000;-0.270354
3624.000000;-0.273993
3623.000000;-0.277847
3622.000000;-0.281837
3621.000000;-0.285843
3620.000000;-0.289548
3619.000000;-0.292866
3618.000000;-0.296091
3617.000000;-0.299441
3616.000000;-0.302771
3615.000000;-0.305875
3614.000000;-0.308792
3613.000000;-0.311677
3612.000000;-0.314571
3611.000000;-0.317474
3610.000000;-0.320494
3609.000000;-0.323607
3608.000000;-0.326421
3607.000000;-0.328599
3606.000000;-0.330442
3605.000000;-0.332700
3604.000000;-0.335802
3603.000000;-0.339468
3602.000000;-0.343075
3601.000000;-0.346164
3600.000000;-0.348571
3599.000000;-0.350432
3598.000000;-0.352157
3597.000000;-0.354138
3596.000000;-0.356364
3595.000000;-0.358495
3594.000000;-0.360382
3593.000000;-0.362291
3592.000000;-0.364505
3591.000000;-0.366917
3590.000000;-0.369139
3589.000000;-0.370963
3588.000000;-0.372585
3587.000000;-0.374329
3586.000000;-0.376226
3585.000000;-0.377931
3584.000000;-0.379119
3583.000000;-0.379799
3582.000000;-0.380251
3581.000000;-0.380757
3580.000000;-0.381404
3579.000000;-0.382159
3578.000000;-0.383123
3577.000000;-0.384495
3576.000000;-0.386231
3575.000000;-0.387908
3574.000000;-0.389080
3573.000000;-0.389672
3572.000000;-0.389927
3571.000000;-0.390057
3570.000000;-0.390077
3569.000000;-0.390025
3568.000000;-0.390127
3567.000000;-0.390479
3566.000000;-0.390645
3565.000000;-0.389977
3564.000000;-0.388563
3563.000000;-0.387475
3562.000000;-0.387623
3561.000000;-0.388617
3560.000000;-0.389178
3559.000000;-0.388606
3558.000000;-0.387468
3557.000000;-0.386740
3556.000000;-0.386630
3555.000000;-0.386582
3554.000000;-0.386140
3553.000000;-0.385340
3552.000000;-0.384290
3551.000000;-0.382831
3550.000000;-0.380803
3549.000000;-0.378428
3548.000000;-0.376217
3547.000000;-0.374534
3546.000000;-0.373322
3545.000000;-0.372201
3544.000000;-0.370811
3543.000000;-0.369128
3542.000000;-0.367467
3541.000000;-0.366129
3540.000000;-0.365087
3539.000000;-0.364043
3538.000000;-0.362724
3537.000000;-0.361071
3536.000000;-0.359209
3535.000000;-0.357296
3534.000000;-0.355393
3533.000000;-0.353434
3532.000000;-0.351323
3531.000000;-0.349055
3530.000000;-0.346733
3529.000000;-0.344453
3528.000000;-0.342235
3527.000000;-0.340050
3526.000000;-0.337859
3525.000000;-0.335643
3524.000000;-0.333475
3523.000000;-0.331537
3522.000000;-0.329922
3521.000000;-0.328446
3520.000000;-0.326808
3519.000000;-0.324943
3518.000000;-0.323029
3517.000000;-0.321136
3516.000000;-0.319076
3515.000000;-0.316672
3514.000000;-0.314007
3513.000000;-0.311315
3512.000000;-0.308796
3511.000000;-0.306564
3510.000000;-0.304580
3509.000000;-0.302548
3508.000000;-0.300123
3507.000000;-0.297392
3506.000000;-0.294894
3505.000000;-0.292989
3504.000000;-0.291413
3503.000000;-0.289676
3502.000000;-0.287681
3501.000000;-0.285668
3500.000000;-0.283719
3499.000000;-0.281595
3498.000000;-0.279066
3497.000000;-0.276158
3496.000000;-0.273119
3495.000000;-0.270308
3494.000000;-0.268060
3493.000000;-0.266402
3492.000000;-0.264908
3491.000000;-0.262999
3490.000000;-0.260416
3489.000000;-0.257316
3488.000000;-0.254054
3487.000000;-0.251026
3486.000000;-0.248600
3485.000000;-0.246860
3484.000000;-0.245406
3483.000000;-0.243653
3482.000000;-0.241399
3481.000000;-0.238969
3480.000000;-0.236761
3479.000000;-0.234831
3478.000000;-0.232970
3477.000000;-0.230995
3476.000000;-0.228890
3475.000000;-0.226747
3474.000000;-0.224644
3473.000000;-0.222533
3472.000000;-0.220236
3471.000000;-0.217644
3470.000000;-0.214924
3469.000000;-0.212426
3468.000000;-0.210354
3467.000000;-0.208563
3466.000000;-0.206726
3465.000000;-0.204624
3464.000000;-0.202266
3463.000000;-0.199774
3462.000000;-0.197250
3461.000000;-0.194776
3460.000000;-0.192489
3459.000000;-0.190515
3458.000000;-0.188780
3457.000000;-0.186979
3456.000000;-0.184911
3455.000000;-0.182748
3454.000000;-0.180811
3453.000000;-0.179113
3452.000000;-0.177364
3451.000000;-0.175434
3450.000000;-0.173528
3449.000000;-0.171827
3448.000000;-0.170248
3447.000000;-0.168711
3446.000000;-0.167357
3445.000000;-0.166270
3444.000000;-0.165173
3443.000000;-0.163654
3442.000000;-0.161577
3441.000000;-0.159099
3440.000000;-0.156435
3439.000000;-0.153819
3438.000000;-0.151570
3437.000000;-0.149894
3436.000000;-0.148637
3435.000000;-0.147412
3434.000000;-0.145931
3433.000000;-0.144136
3432.000000;-0.142167
3431.000000;-0.140346
3430.000000;-0.138983
3429.000000;-0.137928
3428.000000;-0.136527
3427.000000;-0.134322
3426.000000;-0.131690
3425.000000;-0.129455
3424.000000;-0.127934
3423.000000;-0.126712
3422.000000;-0.125313
3421.000000;-0.123677
3420.000000;-0.121933
3419.000000;-0.120106
3418.000000;-0.118212
3417.000000;-0.116340
3416.000000;-0.114458
3415.000000;-0.112389
3414.000000;-0.110138
3413.000000;-0.108066
3412.000000;-0.106539
3411.000000;-0.105520
3410.000000;-0.104659
3409.000000;-0.103696
3408.000000;-0.102654
3407.000000;-0.101684
3406.000000;-0.100825
3405.000000;-0.099884
3404.000000;-0.098552
3403.000000;-0.096702
3402.000000;-0.094585
3401.000000;-0.092615
3400.000000;-0.090974
3399.000000;-0.089531
3398.000000;-0.088130
3397.000000;-0.086814
3396.000000;-0.085722
3395.000000;-0.084848
3394.000000;-0.083936
3393.000000;-0.082599
3392.000000;-0.080602
3391.000000;-0.078179
3390.000000;-0.075997
3389.000000;-0.074618
3388.000000;-0.073947
3387.000000;-0.073355
3386.000000;-0.072341
3385.000000;-0.070895
3384.000000;-0.069288
3383.000000;-0.067754
3382.000000;-0.066426
3381.000000;-0.065318
3380.000000;-0.064251
3379.000000;-0.062948
3378.000000;-0.061356
3377.000000;-0.059765
3376.000000;-0.058501
3375.000000;-0.057612
3374.000000;-0.056894
3373.000000;-0.056093
3372.000000;-0.055019
3371.000000;-0.053610
3370.000000;-0.051998
3369.000000;-0.050398
3368.000000;-0.048824
3367.000000;-0.047034
3366.000000;-0.044909
3365.000000;-0.042828
3364.000000;-0.041451
3363.000000;-0.041072
3362.000000;-0.041281
3361.000000;-0.041317
3360.000000;-0.040693
3359.000000;-0.039482
3358.000000;-0.038044
3357.000000;-0.036592
3356.000000;-0.035101
3355.000000;-0.033572
3354.000000;-0.032177
3353.000000;-0.031019
3352.000000;-0.029891
3351.000000;-0.028533
3350.000000;-0.027084
3349.000000;-0.026021
3348.000000;-0.025546
3347.000000;-0.025206
3346.000000;-0.024299
3345.000000;-0.022595
3344.000000;-0.020552
3343.000000;-0.018846
3342.000000;-0.017760
3341.000000;-0.017027
3340.000000;-0.016200
3339.000000;-0.015164
3338.000000;-0.014227
3337.000000;-0.013686
3336.000000;-0.013377
3335.000000;-0.012834
3334.000000;-0.011884
3333.000000;-0.010897
3332.000000;-0.010345
3331.000000;-0.010224
3330.000000;-0.010052
3329.000000;-0.009393
3328.000000;-0.008183
3327.000000;-0.006592
3326.000000;-0.004774
3325.000000;-0.002881
3324.000000;-0.001199
3323.000000;-0.000045
3322.000000;0.000545
3321.000000;0.000901
3320.000000;0.001411
3319.000000;0.002185
3318.000000;0.003072
3317.000000;0.003938
3316.000000;0.004791
3315.000000;0.005709
3314.000000;0.006780
3313.000000;0.008097
3312.000000;0.009646
3311.000000;0.011153
3310.000000;0.012225
3309.000000;0.012752
3308.000000;0.013042
3307.000000;0.013475
3306.000000;0.014129
3305.000000;0.014838
3304.000000;0.015471
3303.000000;0.016036
3302.000000;0.016636
3301.000000;0.017440
3300.000000;0.018582
3299.000000;0.019954
3298.000000;0.021183
3297.000000;0.021974
3296.000000;0.022393
3295.000000;0.022763
3294.000000;0.023372
3293.000000;0.024366
3292.000000;0.025735
3291.000000;0.027222
3290.000000;0.028413
3289.000000;0.029156
3288.000000;0.029750
3287.000000;0.030519
3286.000000;0.031384
3285.000000;0.032104
3284.000000;0.032761
3283.000000;0.033615
3282.000000;0.034572
3281.000000;0.035231
3280.000000;0.035497
3279.000000;0.035745
3278.000000;0.036297
3277.000000;0.037083
3276.000000;0.037895
3275.000000;0.038626
3274.000000;0.039149
3273.000000;0.039365
3272.000000;0.039598
3271.000000;0.040538
3270.000000;0.042427
3269.000000;0.044525
3268.000000;0.045750
3267.000000;0.045797
3266.000000;0.045391
3265.000000;0.045533
3264.000000;0.046687
3263.000000;0.048531
3262.000000;0.050222
3261.000000;0.051004
3260.000000;0.050842
3259.000000;0.050447
3258.000000;0.050557
3257.000000;0.051298
3256.000000;0.052334
3255.000000;0.053420
3254.000000;0.054498
3253.000000;0.055411
3252.000000;0.055902
3251.000000;0.055967
3250.000000;0.055938
3249.000000;0.056178
3248.000000;0.056841
3247.000000;0.057843
3246.000000;0.058868
3245.000000;0.059470
3244.000000;0.059507
3243.000000;0.059460
3242.000000;0.060021
3241.000000;0.061288
3240.000000;0.062675
3239.000000;0.063687
3238.000000;0.064409
3237.000000;0.065064
3236.000000;0.065482
3235.000000;0.065422
3234.000000;0.065219
3233.000000;0.065649
3232.000000;0.067092
3231.000000;0.069084
3230.000000;0.070725
3229.000000;0.071376
3228.000000;0.071002
3227.000000;0.070093
3226.000000;0.069326
3225.000000;0.069127
3224.000000;0.069422
3223.000000;0.069882
3222.000000;0.070390
3221.000000;0.071123
3220.000000;0.072198
3219.000000;0.073455
3218.000000;0.074684
3217.000000;0.075841
3216.000000;0.076918
3215.000000;0.077750
3214.000000;0.078158
3213.000000;0.078214
3212.000000;0.078192
3211.000000;0.078260
3210.000000;0.078399
3209.000000;0.078604
3208.000000;0.079001
3207.000000;0.079685
3206.000000;0.080573
3205.000000;0.081516
3204.000000;0.082485
3203.000000;0.083549
3202.000000;0.084692
3201.000000;0.085742
3200.000000;0.086541
3199.000000;0.087140
3198.000000;0.087743
3197.000000;0.088425
3196.000000;0.088961
3195.000000;0.089072
3194.000000;0.088833
3193.000000;0.088720
3192.000000;0.089143
3191.000000;0.090023
3190.000000;0.090925
3189.000000;0.091532
3188.000000;0.091833
3187.000000;0.091919
3186.000000;0.091854
3185.000000;0.091799
3184.000000;0.092028
3183.000000;0.092636
3182.000000;0.093359
3181.000000;0.093874
3180.000000;0.094232
3179.000000;0.094795
3178.000000;0.095789
3177.000000;0.097075
3176.000000;0.098368
3175.000000;0.099472
3174.000000;0.100244
3173.000000;0.100552
3172.000000;0.100476
3171.000000;0.100412
3170.000000;0.100736
3169.000000;0.101344
3168.000000;0.101713
3167.000000;0.101488
3166.000000;0.100922
3165.000000;0.100639
3164.000000;0.101032
3163.000000;0.101928
3162.000000;0.102814
3161.000000;0.103299
3160.000000;0.103405
3159.000000;0.103475
3158.000000;0.103833
3157.000000;0.104527
3156.000000;0.105371
3155.000000;0.106208
3154.000000;0.107023
3153.000000;0.107798
3152.000000;0.108393
3151.000000;0.108715
3150.000000;0.108939
3149.000000;0.109405
3148.000000;0.110272
3147.000000;0.111375
3146.000000;0.112452
3145.000000;0.113349
3144.000000;0.113989
3143.000000;0.114308
3142.000000;0.114331
3141.000000;0.114215
3140.000000;0.114070
3139.000000;0.113870
3138.000000;0.113659
3137.000000;0.113744
3136.000000;0.114428
3135.000000;0.115548
3134.000000;0.116537
3133.000000;0.117038
3132.000000;0.117298
3131.000000;0.117825
3130.000000;0.118776
3129.000000;0.119824
3128.000000;0.120571
3127.000000;0.120912
3126.000000;0.121014
3125.000000;0.121081
3124.000000;0.121193
3123.000000;0.121292
3122.000000;0.121270
3121.000000;0.121109
3120.000000;0.120977
3119.000000;0.121144
3118.000000;0.121769
3117.000000;0.122735
3116.000000;0.123732
3115.000000;0.124478
3114.000000;0.124884
3113.000000;0.125061
3112.000000;0.125223
3111.000000;0.125536
3110.000000;0.126004
3109.000000;0.126478
3108.000000;0.126836
3107.000000;0.127127
3106.000000;0.127482
3105.000000;0.127909
3104.000000;0.128275
3103.000000;0.128549
3102.000000;0.128929
3101.000000;0.129605
3100.000000;0.130456
3099.000000;0.131132
3098.000000;0.131443
3097.000000;0.131528
3096.000000;0.131591
3095.000000;0.131668
3094.000000;0.131734
3093.000000;0.131922
3092.000000;0.132452
3091.000000;0.133363
3090.000000;0.134457
3089.000000;0.135515
3088.000000;0.136446
3087.000000;0.137181
3086.000000;0.137585
3085.000000;0.137598
3084.000000;0.137451
3083.000000;0.137537
3082.000000;0.138017
3081.000000;0.138633
3080.000000;0.138984
3079.000000;0.138942
3078.000000;0.138729
3077.000000;0.138628
3076.000000;0.138780
3075.000000;0.139261
3074.000000;0.140160
3073.000000;0.141431
3072.000000;0.142798
3071.000000;0.143961
3070.000000;0.144852
3069.000000;0.145519
3068.000000;0.145856
3067.000000;0.145695
3066.000000;0.145183
3065.000000;0.144803
3064.000000;0.144878
3063.000000;0.145244
3062.000000;0.145546
3061.000000;0.145761
3060.000000;0.146221
3059.000000;0.147154
3058.000000;0.148341
3057.000000;0.149268
3056.000000;0.149587
3055.000000;0.149427
3054.000000;0.149273
3053.000000;0.149497
3052.000000;0.150020
3051.000000;0.150497
3050.000000;0.150764
3049.000000;0.150979
3048.000000;0.151290
3047.000000;0.151588
3046.000000;0.151705
3045.000000;0.151711
3044.000000;0.151874
3043.000000;0.152401
3042.000000;0.153308
3041.000000;0.154459
3040.000000;0.155589
3039.000000;0.156390
3038.000000;0.156736
3037.000000;0.156823
3036.000000;0.156959
3035.000000;0.157278
3034.000000;0.157708
3033.000000;0.158130
3032.000000;0.158435
3031.000000;0.158522
3030.000000;0.158424
3029.000000;0.158402
3028.000000;0.158723
3027.000000;0.159351
3026.000000;0.159976
3025.000000;0.160393
3024.000000;0.160708
3023.000000;0.161165
3022.000000;0.161878
3021.000000;0.162765
3020.000000;0.163626
3019.000000;0.164243
3018.000000;0.164506
3017.000000;0.164529
3016.000000;0.164588
3015.000000;0.164863
3014.000000;0.165249
3013.000000;0.165478
3012.000000;0.165456
3011.000000;0.165425
3010.000000;0.165723
3009.000000;0.166365
3008.000000;0.167001
3007.000000;0.167358
3006.000000;0.167594
3005.000000;0.168062
3004.000000;0.168822
3003.000000;0.169639
3002.000000;0.170398
3001.000000;0.171213
3000.000000;0.172071
2999.000000;0.172672
2998.000000;0.172811
2997.000000;0.172661
2996.000000;0.172514
2995.000000;0.172464
2994.000000;0.172546
2993.000000;0.172937
2992.000000;0.173716
2991.000000;0.174562
2990.000000;0.175007
2989.000000;0.174972
2988.000000;0.174794
2987.000000;0.174793
2986.000000;0.175006
2985.000000;0.175331
2984.000000;0.175723
2983.000000;0.176236
2982.000000;0.176984
2981.000000;0.177997
2980.000000;0.179017
2979.000000;0.179590
2978.000000;0.179544
2977.000000;0.179310
2976.000000;0.179574
2975.000000;0.180651
2974.000000;0.182277
2973.000000;0.183817
2972.000000;0.184572
2971.000000;0.184190
2970.000000;0.183106
2969.000000;0.182378
2968.000000;0.182712
2967.000000;0.183737
2966.000000;0.184533
2965.000000;0.184741
2964.000000;0.184774
2963.000000;0.185088
2962.000000;0.185763
2961.000000;0.186800
2960.000000;0.188244
2959.000000;0.189802
2958.000000;0.190825
2957.000000;0.190962
2956.000000;0.190586
2955.000000;0.190341
2954.000000;0.190515
2953.000000;0.191032
2952.000000;0.191727
2951.000000;0.192359
2950.000000;0.192624
2949.000000;0.192463
2948.000000;0.192256
2947.000000;0.192446
2946.000000;0.193062
2945.000000;0.193785
2944.000000;0.194353
2943.000000;0.194746
2942.000000;0.195091
2941.000000;0.195548
2940.000000;0.196200
2939.000000;0.196885
2938.000000;0.197213
2937.000000;0.196939
2936.000000;0.196321
2935.000000;0.195963
2934.000000;0.196312
2933.000000;0.197338
2932.000000;0.198633
2931.000000;0.199704
2930.000000;0.200247
2929.000000;0.200299
2928.000000;0.200219
2927.000000;0.200492
2926.000000;0.201433
2925.000000;0.202915
2924.000000;0.204353
2923.000000;0.205093
2922.000000;0.204998
2921.000000;0.204592
2920.000000;0.204487
2919.000000;0.204763
2918.000000;0.205094
2917.000000;0.205318
2916.000000;0.205592
2915.000000;0.206034
2914.000000;0.206592
2913.000000;0.207257
2912.000000;0.208087
2911.000000;0.208883
2910.000000;0.209240
2909.000000;0.209114
2908.000000;0.209031
2907.000000;0.209459
2906.000000;0.210234
2905.000000;0.210869
2904.000000;0.211224
2903.000000;0.211548
2902.000000;0.212014
2901.000000;0.212600
2900.000000;0.213389
2899.000000;0.214597
2898.000000;0.216124
2897.000000;0.217347
2896.000000;0.217616
2895.000000;0.216984
2894.000000;0.216282
2893.000000;0.216372
2892.000000;0.217352
2891.000000;0.218529
2890.000000;0.219188
2889.000000;0.219277
2888.000000;0.219225
2887.000000;0.219280
2886.000000;0.219349
2885.000000;0.219426
2884.000000;0.219785
2883.000000;0.220576
2882.000000;0.221512
2881.000000;0.222225
2880.000000;0.222757
2879.000000;0.223413
2878.000000;0.224251
2877.000000;0.224972
2876.000000;0.225327
2875.000000;0.225420
2874.000000;0.225582
2873.000000;0.226047
2872.000000;0.226762
2871.000000;0.227421
2870.000000;0.227736
2869.000000;0.227729
2868.000000;0.227711
2867.000000;0.227916
2866.000000;0.228286
2865.000000;0.228667
2864.000000;0.229092
2863.000000;0.229713
2862.000000;0.230561
2861.000000;0.231492
2860.000000;0.232335
2859.000000;0.232973
2858.000000;0.233350
2857.000000;0.233547
2856.000000;0.233803
2855.000000;0.234314
2854.000000;0.235042
2853.000000;0.235791
2852.000000;0.236397
2851.000000;0.236743
2850.000000;0.236705
2849.000000;0.236324
2848.000000;0.235997
2847.000000;0.236266
2846.000000;0.237338
2845.000000;0.238883
2844.000000;0.240339
2843.000000;0.241357
2842.000000;0.241963
2841.000000;0.242397
2840.000000;0.242852
2839.000000;0.243322
2838.000000;0.243650
2837.000000;0.243766
2836.000000;0.243839
2835.000000;0.244141
2834.000000;0.244756
2833.000000;0.245504
2832.000000;0.246171
2831.000000;0.246724
2830.000000;0.247245
2829.000000;0.247689
2828.000000;0.247845
2827.000000;0.247607
2826.000000;0.247231
2825.000000;0.247239
2824.000000;0.247987
2823.000000;0.249327
2822.000000;0.250698
2821.000000;0.251552
2820.000000;0.251743
2819.000000;0.251599
2818.000000;0.251668
2817.000000;0.252294
2816.000000;0.253344
2815.000000;0.254348
2814.000000;0.254968
2813.000000;0.255306
2812.000000;0.255698
2811.000000;0.256315
2810.000000;0.257065
2809.000000;0.257795
2808.000000;0.258397
2807.000000;0.258752
2806.000000;0.258804
2805.000000;0.258742
2804.000000;0.258932
2803.000000;0.259558
2802.000000;0.260397
2801.000000;0.261018
2800.000000;0.261169
2799.000000;0.260945
2798.000000;0.260688
2797.000000;0.260744
2796.000000;0.261221
2795.000000;0.261924
2794.000000;0.262569
2793.000000;0.263050
2792.000000;0.263459
2791.000000;0.263893
2790.000000;0.264394
2789.000000;0.265045
2788.000000;0.265946
2787.000000;0.267023
2786.000000;0.268039
2785.000000;0.268838
2784.000000;0.269487
2783.000000;0.270131
2782.000000;0.270841
2781.000000;0.271604
2780.000000;0.272325
2779.000000;0.272798
2778.000000;0.272857
2777.000000;0.272648
2776.000000;0.272568
2775.000000;0.272883
2774.000000;0.273538
2773.000000;0.274407
2772.000000;0.275501
2771.000000;0.276767
2770.000000;0.277871
2769.000000;0.278423
2768.000000;0.278368
2767.000000;0.278010
2766.000000;0.277693
2765.000000;0.277594
2764.000000;0.277770
2763.000000;0.278238
2762.000000;0.278973
2761.000000;0.279891
2760.000000;0.280832
2759.000000;0.281583
2758.000000;0.281992
2757.000000;0.282131
2756.000000;0.282268
2755.000000;0.282620
2754.000000;0.283181
2753.000000;0.283819
2752.000000;0.284449
2751.000000;0.285041
2750.000000;0.285534
2749.000000;0.285871
2748.000000;0.286116
2747.000000;0.286467
2746.000000;0.287122
2745.000000;0.288078
2744.000000;0.289024
2743.000000;0.289570
2742.000000;0.289727
2741.000000;0.290053
2740.000000;0.291052
2739.000000;0.292421
2738.000000;0.293225
2737.000000;0.292964
2736.000000;0.292207
2735.000000;0.291997
2734.000000;0.292817
2733.000000;0.294335
2732.000000;0.295913
2731.000000;0.297091
2730.000000;0.297673
2729.000000;0.297713
2728.000000;0.297498
2727.000000;0.297389
2726.000000;0.297607
2725.000000;0.298188
2724.000000;0.299080
2723.000000;0.300172
2722.000000;0.301287
2721.000000;0.302285
2720.000000;0.303181
2719.000000;0.304026
2718.000000;0.304705
2717.000000;0.305003
2716.000000;0.304893
2715.000000;0.304653
2714.000000;0.304648
2713.000000;0.305053
2712.000000;0.305765
2711.000000;0.306510
2710.000000;0.307052
2709.000000;0.307386
2708.000000;0.307757
2707.000000;0.308427
2706.000000;0.309408
2705.000000;0.310441
2704.000000;0.311222
2703.000000;0.311650
2702.000000;0.311894
2701.000000;0.312255
2700.000000;0.312940
2699.000000;0.313911
2698.000000;0.314940
2697.000000;0.315829
2696.000000;0.316529
2695.000000;0.317085
2694.000000;0.317540
2693.000000;0.317918
2692.000000;0.318224
2691.000000;0.318423
2690.000000;0.318505
2689.000000;0.318557
2688.000000;0.318689
2687.000000;0.318885
2686.000000;0.319074
2685.000000;0.319354
2684.000000;0.319939
2683.000000;0.320835
2682.000000;0.321755
2681.000000;0.322494
2680.000000;0.323195
2679.000000;0.324023
2678.000000;0.324759
2677.000000;0.325020
2676.000000;0.324868
2675.000000;0.324900
2674.000000;0.325595
2673.000000;0.326753
2672.000000;0.327727
2671.000000;0.328151
2670.000000;0.328304
2669.000000;0.328726
2668.000000;0.329591
2667.000000;0.330553
2666.000000;0.331165
2665.000000;0.331339
2664.000000;0.331318
2663.000000;0.331350
2662.000000;0.331563
2661.000000;0.332107
2660.000000;0.333127
2659.000000;0.334520
2658.000000;0.335870
2657.000000;0.336806
2656.000000;0.337335
2655.000000;0.337714
2654.000000;0.338092
2653.000000;0.338393
2652.000000;0.338507
2651.000000;0.338500
2650.000000;0.338623
2649.000000;0.339150
2648.000000;0.340132
2647.000000;0.341316
2646.000000;0.342360
2645.000000;0.343135
2644.000000;0.343686
2643.000000;0.343940
2642.000000;0.343697
2641.000000;0.343024
2640.000000;0.342412
2639.000000;0.342374
2638.000000;0.342990
2637.000000;0.343987
2636.000000;0.345118
2635.000000;0.346252
2634.000000;0.347216
2633.000000;0.347815
2632.000000;0.348065
2631.000000;0.348234
2630.000000;0.348582
2629.000000;0.349129
2628.000000;0.349676
2627.000000;0.350013
2626.000000;0.350120
2625.000000;0.350226
2624.000000;0.350605
2623.000000;0.351279
2622.000000;0.352023
2621.000000;0.352700
2620.000000;0.353438
2619.000000;0.354362
2618.000000;0.355306
2617.000000;0.355996
2616.000000;0.356425
2615.000000;0.356823
2614.000000;0.357305
2613.000000;0.357764
2612.000000;0.358128
2611.000000;0.358493
2610.000000;0.358952
2609.000000;0.359466
2608.000000;0.359967
2607.000000;0.360483
2606.000000;0.361061
2605.000000;0.361667
2604.000000;0.362251
2603.000000;0.362849
2602.000000;0.363565
2601.000000;0.364454
2600.000000;0.365435
2599.000000;0.366303
2598.000000;0.366823
2597.000000;0.366912
2596.000000;0.366771
2595.000000;0.366800
2594.000000;0.367306
2593.000000;0.368256
2592.000000;0.369301
2591.000000;0.370094
2590.000000;0.370619
2589.000000;0.371176
2588.000000;0.371962
2587.000000;0.372748
2586.000000;0.373147
2585.000000;0.373179
2584.000000;0.373313
2583.000000;0.373833
2582.000000;0.374436
2581.000000;0.374662
2580.000000;0.374540
2579.000000;0.374507
2578.000000;0.374789
2577.000000;0.375208
2576.000000;0.375621
2575.000000;0.376240
2574.000000;0.377344
2573.000000;0.378843
2572.000000;0.380297
2571.000000;0.381317
2570.000000;0.381854
2569.000000;0.382130
2568.000000;0.382367
2567.000000;0.382602
2566.000000;0.382784
2565.000000;0.383006
2564.000000;0.383541
2563.000000;0.384508
2562.000000;0.385619
2561.000000;0.386435
2560.000000;0.386874
2559.000000;0.387280
2558.000000;0.387924
2557.000000;0.388633
2556.000000;0.389045
2555.000000;0.389126
2554.000000;0.389230
2553.000000;0.389699
2552.000000;0.390533
2551.000000;0.391467
2550.000000;0.392279
2549.000000;0.392942
2548.000000;0.393526
2547.000000;0.394076
2546.000000;0.394591
2545.000000;0.395054
2544.000000;0.395424
2543.000000;0.395646
2542.000000;0.395787
2541.000000;0.396113
2540.000000;0.396891
2539.000000;0.398087
2538.000000;0.399375
2537.000000;0.400466
2536.000000;0.401298
2535.000000;0.401856
2534.000000;0.402042
2533.000000;0.401883
2532.000000;0.401704
2531.000000;0.401861
2530.000000;0.402392
2529.000000;0.403115
2528.000000;0.403960
2527.000000;0.404959
2526.000000;0.405932
2525.000000;0.406482
2524.000000;0.406421
2523.000000;0.406018
2522.000000;0.405740
2521.000000;0.405863
2520.000000;0.406355
2519.000000;0.406963
2518.000000;0.407370
2517.000000;0.407439
2516.000000;0.407447
2515.000000;0.407932
2514.000000;0.409176
2513.000000;0.410874
2512.000000;0.412382
2511.000000;0.413244
2510.000000;0.413472
2509.000000;0.413432
2508.000000;0.413536
2507.000000;0.413965
2506.000000;0.414579
2505.000000;0.415097
2504.000000;0.415435
2503.000000;0.415811
2502.000000;0.416464
2501.000000;0.417321
2500.000000;0.418019
2499.000000;0.418248
2498.000000;0.418038
2497.000000;0.417751
2496.000000;0.417818
2495.000000;0.418417
2494.000000;0.419353
2493.000000;0.420239
2492.000000;0.420836
2491.000000;0.421229
2490.000000;0.421690
2489.000000;0.422436
2488.000000;0.423513
2487.000000;0.424775
2486.000000;0.425926
2485.000000;0.426673
2484.000000;0.426972
2483.000000;0.427129
2482.000000;0.427534
2481.000000;0.428280
2480.000000;0.429097
2479.000000;0.429683
2478.000000;0.430026
2477.000000;0.430355
2476.000000;0.430800
2475.000000;0.431216
2474.000000;0.431381
2473.000000;0.431297
2472.000000;0.431221
2471.000000;0.431426
2470.000000;0.432011
2469.000000;0.432921
2468.000000;0.434008
2467.000000;0.435056
2466.000000;0.435888
2465.000000;0.436542
2464.000000;0.437255
2463.000000;0.438135
2462.000000;0.438986
2461.000000;0.439575
2460.000000;0.439974
2459.000000;0.440423
2458.000000;0.440924
2457.000000;0.441193
2456.000000;0.441065
2455.000000;0.440770
2454.000000;0.440741
2453.000000;0.441281
2452.000000;0.442402
2451.000000;0.443817
2450.000000;0.445066
2449.000000;0.445824
2448.000000;0.446166
2447.000000;0.446385
2446.000000;0.446559
2445.000000;0.446516
2444.000000;0.446284
2443.000000;0.446258
2442.000000;0.446726
2441.000000;0.447491
2440.000000;0.448209
2439.000000;0.448897
2438.000000;0.449781
2437.000000;0.450785
2436.000000;0.451526
2435.000000;0.451836
2434.000000;0.451978
2433.000000;0.452274
2432.000000;0.452808
2431.000000;0.453566
2430.000000;0.454584
2429.000000;0.455706
2428.000000;0.456435
2427.000000;0.456336
2426.000000;0.455594
2425.000000;0.454949
2424.000000;0.455007
2423.000000;0.455750
2422.000000;0.456752
2421.000000;0.457748
2420.000000;0.458830
2419.000000;0.460077
2418.000000;0.461160
2417.000000;0.461530
2416.000000;0.461091
2415.000000;0.460525
2414.000000;0.460750
2413.000000;0.462014
2412.000000;0.463640
2411.000000;0.464746
2410.000000;0.465157
2409.000000;0.465446
2408.000000;0.466115
2407.000000;0.466980
2406.000000;0.467468
2405.000000;0.467407
2404.000000;0.467239
2403.000000;0.467433
2402.000000;0.467919
2401.000000;0.468290
2400.000000;0.468424
2399.000000;0.468641
2398.000000;0.469268
2397.000000;0.470245
2396.000000;0.471255
2395.000000;0.472055
2394.000000;0.472572
2393.000000;0.472856
2392.000000;0.473066
2391.000000;0.473434
2390.000000;0.474059
2389.000000;0.474782
2388.000000;0.475383
2387.000000;0.475858
2386.000000;0.476372
2385.000000;0.476988
2384.000000;0.477581
2383.000000;0.477994
2382.000000;0.478204
2381.000000;0.478325
2380.000000;0.478570
2379.000000;0.479139
2378.000000;0.480005
2377.000000;0.480837
2376.000000;0.481329
2375.000000;0.481589
2374.000000;0.482038
2373.000000;0.482903
2372.000000;0.483980
2371.000000;0.484935
2370.000000;0.485636
2369.000000;0.486075
2368.000000;0.486201
2367.000000;0.486050
2366.000000;0.485921
2365.000000;0.486222
2364.000000;0.487100
2363.000000;0.488327
2362.000000;0.489497
2361.000000;0.490278
2360.000000;0.490488
2359.000000;0.490156
2358.000000;0.489641
2357.000000;0.489477
2356.000000;0.489953
2355.000000;0.490887
2354.000000;0.491830
2353.000000;0.492573
2352.000000;0.493242
2351.000000;0.493997
2350.000000;0.494756
2349.000000;0.495318
2348.000000;0.495705
2347.000000;0.496093
2346.000000;0.496621
2345.000000;0.497297
2344.000000;0.498028
2343.000000;0.498713
2342.000000;0.499196
2341.000000;0.499459
2340.000000;0.499670
2339.000000;0.500039
2338.000000;0.500535
2337.000000;0.500901
2336.000000;0.501118
2335.000000;0.501497
2334.000000;0.502291
2333.000000;0.503314
2332.000000;0.504262
2331.000000;0.505062
2330.000000;0.505838
2329.000000;0.506492
2328.000000;0.506866
2327.000000;0.506920
2326.000000;0.506836
2325.000000;0.506741
2324.000000;0.506757
2323.000000;0.507120
2322.000000;0.507929
2321.000000;0.508896
2320.000000;0.509581
2319.000000;0.509971
2318.000000;0.510471
2317.000000;0.511260
2316.000000;0.512097
2315.000000;0.512743
2314.000000;0.513373
2313.000000;0.514158
2312.000000;0.514982
2311.000000;0.515597
2310.000000;0.516053
2309.000000;0.516482
2308.000000;0.516861
2307.000000;0.517103
2306.000000;0.517367
2305.000000;0.517854
2304.000000;0.518518
2303.000000;0.519120
2302.000000;0.519596
2301.000000;0.520061
2300.000000;0.520606
2299.000000;0.521232
2298.000000;0.521977
2297.000000;0.522787
2296.000000;0.523404
2295.000000;0.523579
2294.000000;0.523495
2293.000000;0.523675
2292.000000;0.524477
2291.000000;0.525757
2290.000000;0.527040
2289.000000;0.527884
2288.000000;0.528142
2287.000000;0.528033
2286.000000;0.527945
2285.000000;0.528074
2284.000000;0.528342
2283.000000;0.528750
2282.000000;0.529548
2281.000000;0.530793
2280.000000;0.531896
2279.000000;0.532072
2278.000000;0.531275
2277.000000;0.530314
2276.000000;0.530026
2275.000000;0.530614
2274.000000;0.531787
2273.000000;0.533154
2272.000000;0.534375
2271.000000;0.535240
2270.000000;0.535830
2269.000000;0.536399
2268.000000;0.536996
2267.000000;0.537426
2266.000000;0.537671
2265.000000;0.538013
2264.000000;0.538566
2263.000000;0.539004
2262.000000;0.539048
2261.000000;0.538987
2260.000000;0.539384
2259.000000;0.540388
2258.000000;0.541637
2257.000000;0.542738
2256.000000;0.543563
2255.000000;0.544099
2254.000000;0.544338
2253.000000;0.544392
2252.000000;0.544509
2251.000000;0.544842
2250.000000;0.545324
2249.000000;0.545833
2248.000000;0.546359
2247.000000;0.546962
2246.000000;0.547662
2245.000000;0.548435
2244.000000;0.549246
2243.000000;0.550012
2242.000000;0.550563
2241.000000;0.550695
2240.000000;0.550325
2239.000000;0.549658
2238.000000;0.549188
2237.000000;0.549409
2236.000000;0.550421
2235.000000;0.551848
2234.000000;0.553189
2233.000000;0.554183
2232.000000;0.554833
2231.000000;0.555240
2230.000000;0.555586
2229.000000;0.556140
2228.000000;0.557030
2227.000000;0.557981
2226.000000;0.558494
2225.000000;0.558394
2224.000000;0.558086
2223.000000;0.558148
2222.000000;0.558767
2221.000000;0.559631
2220.000000;0.560307
2219.000000;0.560605
2218.000000;0.560616
2217.000000;0.560566
2216.000000;0.560707
2215.000000;0.561253
2214.000000;0.562257
2213.000000;0.563491
2212.000000;0.564505
2211.000000;0.564960
2210.000000;0.564939
2209.000000;0.564905
2208.000000;0.565285
2207.000000;0.566098
2206.000000;0.567004
2205.000000;0.567691
2204.000000;0.568164
2203.000000;0.568635
2202.000000;0.569166
2201.000000;0.569569
2200.000000;0.569758
2199.000000;0.570066
2198.000000;0.570994
2197.000000;0.572561
2196.000000;0.574092
2195.000000;0.574841
2194.000000;0.574753
2193.000000;0.574417
2192.000000;0.574330
2191.000000;0.574473
2190.000000;0.574612
2189.000000;0.574726
2188.000000;0.574964
2187.000000;0.575354
2186.000000;0.575808
2185.000000;0.576332
2184.000000;0.577020
2183.000000;0.577865
2182.000000;0.578746
2181.000000;0.579652
2180.000000;0.580758
2179.000000;0.582152
2178.000000;0.583597
2177.000000;0.584685
2176.000000;0.585204
2175.000000;0.585256
2174.000000;0.585039
2173.000000;0.584657
2172.000000;0.584224
2171.000000;0.584027
2170.000000;0.584402
2169.000000;0.585423
2168.000000;0.586791
2167.000000;0.588079
2166.000000;0.589021
2165.000000;0.589584
2164.000000;0.589883
2163.000000;0.590090
2162.000000;0.590314
2161.000000;0.590495
2160.000000;0.590490
2159.000000;0.590344
2158.000000;0.590381
2157.000000;0.590903
2156.000000;0.591880
2155.000000;0.593031
2154.000000;0.594161
2153.000000;0.595254
2152.000000;0.596282
2151.000000;0.597061
2150.000000;0.597344
2149.000000;0.597021
2148.000000;0.596274
2147.000000;0.595605
2146.000000;0.595593
2145.000000;0.596453
2144.000000;0.597851
2143.000000;0.599269
2142.000000;0.600483
2141.000000;0.601554
2140.000000;0.602431
2139.000000;0.602842
2138.000000;0.602636
2137.000000;0.602030
2136.000000;0.601483
2135.000000;0.601389
2134.000000;0.601895
2133.000000;0.602811
2132.000000;0.603732
2131.000000;0.604417
2130.000000;0.605064
2129.000000;0.606018
2128.000000;0.607225
2127.000000;0.608227
2126.000000;0.608739
2125.000000;0.608923
2124.000000;0.609018
2123.000000;0.609024
2122.000000;0.608946
2121.000000;0.609079
2120.000000;0.609740
2119.000000;0.610825
2118.000000;0.611906
2117.000000;0.612732
2116.000000;0.613398
2115.000000;0.614046
2114.000000;0.614585
2113.000000;0.614800
2112.000000;0.614629
2111.000000;0.614313
2110.000000;0.614290
2109.000000;0.614898
2108.000000;0.616070
2107.000000;0.617323
2106.000000;0.618154
2105.000000;0.618488
2104.000000;0.618694
2103.000000;0.619175
2102.000000;0.620004
2101.000000;0.620911
2100.000000;0.621593
2099.000000;0.621981
2098.000000;0.622255
2097.000000;0.622637
2096.000000;0.623244
2095.000000;0.624096
2094.000000;0.625135
2093.000000;0.626154
2092.000000;0.626846
2091.000000;0.627125
2090.000000;0.627294
2089.000000;0.627725
2088.000000;0.628423
2087.000000;0.629109
2086.000000;0.629649
2085.000000;0.630103
2084.000000;0.630390
2083.000000;0.630299
2082.000000;0.629934
2081.000000;0.629789
2080.000000;0.630194
2079.000000;0.630957
2078.000000;0.631773
2077.000000;0.632645
2076.000000;0.633621
2075.000000;0.634381
2074.000000;0.634562
2073.000000;0.634417
2072.000000;0.634696
2071.000000;0.635779
2070.000000;0.637248
2069.000000;0.638439
2068.000000;0.639187
2067.000000;0.639819
2066.000000;0.640553
2065.000000;0.641195
2064.000000;0.641499
2063.000000;0.641627
2062.000000;0.642035
2061.000000;0.642891
2060.000000;0.643820
2059.000000;0.644346
2058.000000;0.644469
2057.000000;0.644549
2056.000000;0.644751
2055.000000;0.644901
2054.000000;0.644947
2053.000000;0.645198
2052.000000;0.645920
2051.000000;0.646918
2050.000000;0.647751
2049.000000;0.648251
2048.000000;0.648609
2047.000000;0.649028
2046.000000;0.649488
2045.000000;0.649830
2044.000000;0.649967
2043.000000;0.650038
2042.000000;0.650388
2041.000000;0.651268
2040.000000;0.652468
2039.000000;0.653420
2038.000000;0.653780
2037.000000;0.653800
2036.000000;0.653990
2035.000000;0.654582
2034.000000;0.655471
2033.000000;0.656475
2032.000000;0.657427
2031.000000;0.658124
2030.000000;0.658453
2029.000000;0.658553
2028.000000;0.658712
2027.000000;0.659135
2026.000000;0.659902
2025.000000;0.661018
2024.000000;0.662306
2023.000000;0.663388
2022.000000;0.663979
2021.000000;0.664160
2020.000000;0.664208
2019.000000;0.664265
2018.000000;0.664331
2017.000000;0.664439
2016.000000;0.664607
2015.000000;0.664766
2014.000000;0.664956
2013.000000;0.665448
2012.000000;0.666407
2011.000000;0.667522
2010.000000;0.668320
2009.000000;0.668779
2008.000000;0.669267
2007.000000;0.669929
2006.000000;0.670535
2005.000000;0.670994
2004.000000;0.671578
2003.000000;0.672460
2002.000000;0.673348
2001.000000;0.673857
2000.000000;0.674023
1999.000000;0.674219
1998.000000;0.674719
1997.000000;0.675526
1996.000000;0.676506
1995.000000;0.677456
1994.000000;0.678109
1993.000000;0.678297
1992.000000;0.678159
1991.000000;0.678042
1990.000000;0.678183
1989.000000;0.678542
1988.000000;0.678961
1987.000000;0.679428
1986.000000;0.680121
1985.000000;0.681194
1984.000000;0.682531
1983.000000;0.683747
1982.000000;0.684507
1981.000000;0.684806
1980.000000;0.684893
1979.000000;0.684970
1978.000000;0.685090
1977.000000;0.685314
1976.000000;0.685775
1975.000000;0.686510
1974.000000;0.687306
1973.000000;0.687860
1972.000000;0.688096
1971.000000;0.688290
1970.000000;0.688853
1969.000000;0.689948
1968.000000;0.691304
1967.000000;0.692426
1966.000000;0.693044
1965.000000;0.693342
1964.000000;0.693714
1963.000000;0.694353
1962.000000;0.695117
1961.000000;0.695757
1960.000000;0.696180
1959.000000;0.696510
1958.000000;0.696935
1957.000000;0.697514
1956.000000;0.698107
1955.000000;0.698520
1954.000000;0.698727
1953.000000;0.698894
1952.000000;0.699176
1951.000000;0.699578
1950.000000;0.700060
1949.000000;0.700661
1948.000000;0.701437
1947.000000;0.702366
1946.000000;0.703345
1945.000000;0.704190
1944.000000;0.704610
1943.000000;0.704403
1942.000000;0.703792
1941.000000;0.703381
1940.000000;0.703592
1939.000000;0.704266
1938.000000;0.704964
1937.000000;0.705528
1936.000000;0.706089
1935.000000;0.706708
1934.000000;0.707291
1933.000000;0.707833
1932.000000;0.708457
1931.000000;0.709200
1930.000000;0.709960
1929.000000;0.710682
1928.000000;0.711410
1927.000000;0.712161
1926.000000;0.712914
1925.000000;0.713672
1924.000000;0.714372
1923.000000;0.714788
1922.000000;0.714807
1921.000000;0.714728
1920.000000;0.715027
1919.000000;0.715821
1918.000000;0.716812
1917.000000;0.717748
1916.000000;0.718661
1915.000000;0.719598
1914.000000;0.720380
1913.000000;0.720812
1912.000000;0.720945
1911.000000;0.721017
1910.000000;0.721234
1909.000000;0.721700
1908.000000;0.722407
1907.000000;0.723214
1906.000000;0.723914
1905.000000;0.724381
1904.000000;0.724605
1903.000000;0.724632
1902.000000;0.724639
1901.000000;0.724976
1900.000000;0.725861
1899.000000;0.727021
1898.000000;0.727888
1897.000000;0.728253
1896.000000;0.728524
1895.000000;0.729199
1894.000000;0.730287
1893.000000;0.731402
1892.000000;0.732264
1891.000000;0.732929
1890.000000;0.733610
1889.000000;0.734382
1888.000000;0.735090
1887.000000;0.735490
1886.000000;0.735494
1885.000000;0.735282
1884.000000;0.735103
1883.000000;0.735007
1882.000000;0.734942
1881.000000;0.735071
1880.000000;0.735763
1879.000000;0.737167
1878.000000;0.738930
1877.000000;0.740410
1876.000000;0.741157
1875.000000;0.741194
1874.000000;0.740962
1873.000000;0.740949
1872.000000;0.741212
1871.000000;0.741302
1870.000000;0.740901
1869.000000;0.740484
1868.000000;0.741003
1867.000000;0.742828
1866.000000;0.745260
1865.000000;0.747236
1864.000000;0.748296
1863.000000;0.748616
1862.000000;0.748440
1861.000000;0.747915
1860.000000;0.747379
1859.000000;0.747341
1858.000000;0.748069
1857.000000;0.749380
1856.000000;0.750855
1855.000000;0.752102
1854.000000;0.752863
1853.000000;0.753102
1852.000000;0.753104
1851.000000;0.753339
1850.000000;0.754108
1849.000000;0.755268
1848.000000;0.756302
1847.000000;0.756629
1846.000000;0.756048
1845.000000;0.755044
1844.000000;0.754537
1843.000000;0.755099
1842.000000;0.756442
1841.000000;0.757839
1840.000000;0.758980
1839.000000;0.760173
1838.000000;0.761693
1837.000000;0.763302
1836.000000;0.764580
1835.000000;0.765423
1834.000000;0.766002
1833.000000;0.766392
1832.000000;0.766507
1831.000000;0.766362
1830.000000;0.766141
1829.000000;0.766010
1828.000000;0.766072
1827.000000;0.766427
1826.000000;0.767107
1825.000000;0.767989
1824.000000;0.768857
1823.000000;0.769639
1822.000000;0.770472
1821.000000;0.771460
1820.000000;0.772445
1819.000000;0.773141
1818.000000;0.773468
1817.000000;0.773640
1816.000000;0.773898
1815.000000;0.774253
1814.000000;0.774594
1813.000000;0.774913
1812.000000;0.775363
1811.000000;0.776087
1810.000000;0.777033
1809.000000;0.777921
1808.000000;0.778375
1807.000000;0.778239
1806.000000;0.777844
1805.000000;0.777806
1804.000000;0.778461
1803.000000;0.779588
1802.000000;0.780732
1801.000000;0.781653
1800.000000;0.782352
1799.000000;0.782832
1798.000000;0.783070
1797.000000;0.783212
1796.000000;0.783488
1795.000000;0.783868
1794.000000;0.784024
1793.000000;0.783792
1792.000000;0.783536
1791.000000;0.783880
1790.000000;0.785087
1789.000000;0.786770
1788.000000;0.788142
1787.000000;0.788605
1786.000000;0.788184
1785.000000;0.787484
1784.000000;0.787224
1783.000000;0.787701
1782.000000;0.788694
1781.000000;0.789827
1780.000000;0.790975
1779.000000;0.792222
1778.000000;0.793458
1777.000000;0.794350
1776.000000;0.794764
1775.000000;0.795049
1774.000000;0.795641
1773.000000;0.796502
1772.000000;0.797166
1771.000000;0.797342
1770.000000;0.797244
1769.000000;0.797239
1768.000000;0.797408
1767.000000;0.797640
1766.000000;0.797992
1765.000000;0.798694
1764.000000;0.799775
1763.000000;0.800944
1762.000000;0.801883
1761.000000;0.802521
1760.000000;0.802972
1759.000000;0.803388
1758.000000;0.803959
1757.000000;0.804864
1756.000000;0.805976
1755.000000;0.806861
1754.000000;0.807203
1753.000000;0.807184
1752.000000;0.807312
1751.000000;0.807962
1750.000000;0.809181
1749.000000;0.810749
1748.000000;0.812119
1747.000000;0.812554
1746.000000;0.811833
1745.000000;0.810728
1744.000000;0.810421
1743.000000;0.811364
1742.000000;0.812962
1741.000000;0.814379
1740.000000;0.815255
1739.000000;0.815666
1738.000000;0.815857
1737.000000;0.816152
1736.000000;0.816710
1735.000000;0.817276
1734.000000;0.817459
1733.000000;0.817279
1732.000000;0.817200
1731.000000;0.817511
1730.000000;0.818048
1729.000000;0.818719
1728.000000;0.819728
1727.000000;0.821035
1726.000000;0.822076
1725.000000;0.822444
1724.000000;0.822523
1723.000000;0.822887
1722.000000;0.823447
1721.000000;0.823747
1720.000000;0.823775
1719.000000;0.823924
1718.000000;0.824266
1717.000000;0.824490
1716.000000;0.824691
1715.000000;0.825533
1714.000000;0.827317
1713.000000;0.829406
1712.000000;0.830790
1711.000000;0.831074
1710.000000;0.830800
1709.000000;0.830839
1708.000000;0.831641
1707.000000;0.832986
1706.000000;0.834248
1705.000000;0.834930
1704.000000;0.835017
1703.000000;0.834755
1702.000000;0.834314
1701.000000;0.833937
1700.000000;0.834208
1699.000000;0.835539
1698.000000;0.837456
1697.000000;0.838870
1696.000000;0.839076
1695.000000;0.838483
1694.000000;0.838255
1693.000000;0.839083
1692.000000;0.840676
1691.000000;0.842294
1690.000000;0.843307
1689.000000;0.843543
1688.000000;0.843270
1687.000000;0.842953
1686.000000;0.842906
1685.000000;0.843234
1684.000000;0.844005
1683.000000;0.845228
1682.000000;0.846808
1681.000000;0.848284
1680.000000;0.849106
1679.000000;0.849142
1678.000000;0.848554
1677.000000;0.847678
1676.000000;0.846992
1675.000000;0.846968
1674.000000;0.847792
1673.000000;0.849269
1672.000000;0.851040
1671.000000;0.852753
1670.000000;0.854126
1669.000000;0.855145
1668.000000;0.856095
1667.000000;0.857150
1666.000000;0.857960
1665.000000;0.858014
1664.000000;0.857415
1663.000000;0.856905
1662.000000;0.857023
1661.000000;0.857502
1660.000000;0.857766
1659.000000;0.857747
1658.000000;0.857871
1657.000000;0.858434
1656.000000;0.859293
1655.000000;0.860078
1654.000000;0.860574
1653.000000;0.860919
1652.000000;0.861529
1651.000000;0.862771
1650.000000;0.864442
1649.000000;0.865940
1648.000000;0.866767
1647.000000;0.866962
1646.000000;0.867117
1645.000000;0.867657
1644.000000;0.868467
1643.000000;0.869315
1642.000000;0.870287
1641.000000;0.871384
1640.000000;0.872310
1639.000000;0.872806
1638.000000;0.872843
1637.000000;0.872537
1636.000000;0.872070
1635.000000;0.871749
1634.000000;0.871946
1633.000000;0.872702
1632.000000;0.873650
1631.000000;0.874410
1630.000000;0.874903
1629.000000;0.875357
1628.000000;0.876017
1627.000000;0.876897
1626.000000;0.877886
1625.000000;0.878925
1624.000000;0.880042
1623.000000;0.881203
1622.000000;0.882159
1621.000000;0.882574
1620.000000;0.882353
1619.000000;0.881821
1618.000000;0.881474
1617.000000;0.881578
1616.000000;0.882038
1615.000000;0.882621
1614.000000;0.883178
1613.000000;0.883683
1612.000000;0.884203
1611.000000;0.884787
1610.000000;0.885395
1609.000000;0.885979
1608.000000;0.886640
1607.000000;0.887587
1606.000000;0.888793
1605.000000;0.889827
1604.000000;0.890301
1603.000000;0.890401
1602.000000;0.890676
1601.000000;0.891354
1600.000000;0.892089
1599.000000;0.892426
1598.000000;0.892334
1597.000000;0.892176
1596.000000;0.892335
1595.000000;0.893014
1594.000000;0.894237
1593.000000;0.895825
1592.000000;0.897398
1591.000000;0.898597
1590.000000;0.899341
1589.000000;0.899781
1588.000000;0.900033
1587.000000;0.900095
1586.000000;0.900008
1585.000000;0.899940
1584.000000;0.900031
1583.000000;0.900284
1582.000000;0.900588
1581.000000;0.900877
1580.000000;0.901268
1579.000000;0.901976
1578.000000;0.903041
1577.000000;0.904194
1576.000000;0.905053
1575.000000;0.905490
1574.000000;0.905795
1573.000000;0.906386
1572.000000;0.907476
1571.000000;0.908924
1570.000000;0.910282
1569.000000;0.911024
1568.000000;0.910870
1567.000000;0.910104
1566.000000;0.909441
1565.000000;0.909522
1564.000000;0.910413
1563.000000;0.911630
1562.000000;0.912642
1561.000000;0.913310
1560.000000;0.913834
1559.000000;0.914431
1558.000000;0.914882
1557.000000;0.915239
1556.000000;0.915687
1555.000000;0.916154
1554.000000;0.916713
1553.000000;0.917310
1552.000000;0.917989
1551.000000;0.918819
1550.000000;0.919630
1549.000000;0.920131
1548.000000;0.920239
1547.000000;0.920218
1546.000000;0.920407
1545.000000;0.920875
1544.000000;0.921420
1543.000000;0.921948
1542.000000;0.922593
1541.000000;0.923386
1540.000000;0.924030
1539.000000;0.924291
1538.000000;0.924514
1537.000000;0.925187
1536.000000;0.926443
1535.000000;0.928009
1534.000000;0.929458
1533.000000;0.930617
1532.000000;0.931576
1531.000000;0.932412
1530.000000;0.933066
1529.000000;0.933527
1528.000000;0.933864
1527.000000;0.934108
1526.000000;0.934272
1525.000000;0.934410
1524.000000;0.934603
1523.000000;0.934911
1522.000000;0.935340
1521.000000;0.935844
1520.000000;0.936373
1519.000000;0.936895
1518.000000;0.937327
1517.000000;0.937625
1516.000000;0.937887
1515.000000;0.938362
1514.000000;0.939276
1513.000000;0.940530
1512.000000;0.941750
1511.000000;0.942609
1510.000000;0.943142
1509.000000;0.943661
1508.000000;0.944319
1507.000000;0.944979
1506.000000;0.945548
1505.000000;0.946285
1504.000000;0.947064
1503.000000;0.947509
1502.000000;0.947567
1501.000000;0.947315
1500.000000;0.947092
1499.000000;0.947365
1498.000000;0.948295
1497.000000;0.949593
1496.000000;0.950790
1495.000000;0.951596
1494.000000;0.952042
1493.000000;0.952322
1492.000000;0.952631
1491.000000;0.953176
1490.000000;0.954132
1489.000000;0.955413
1488.000000;0.956605
1487.000000;0.957298
1486.000000;0.957573
1485.000000;0.957916
1484.000000;0.958504
1483.000000;0.958976
1482.000000;0.958959
1481.000000;0.958610
1480.000000;0.958418
1479.000000;0.958622
1478.000000;0.959114
1477.000000;0.959757
1476.000000;0.960498
1475.000000;0.961193
1474.000000;0.961666
1473.000000;0.961955
1472.000000;0.962368
1471.000000;0.963148
1470.000000;0.964130
1469.000000;0.964893
1468.000000;0.965237
1467.000000;0.965330
1466.000000;0.965543
1465.000000;0.966197
1464.000000;0.967344
1463.000000;0.968699
1462.000000;0.969777
1461.000000;0.970328
1460.000000;0.970579
1459.000000;0.970957
1458.000000;0.971605
1457.000000;0.972240
1456.000000;0.972563
1455.000000;0.972678
1454.000000;0.972977
1453.000000;0.973773
1452.000000;0.974907
1451.000000;0.975822
1450.000000;0.976190
1449.000000;0.976243
1448.000000;0.976519
1447.000000;0.977307
1446.000000;0.978446
1445.000000;0.979553
1444.000000;0.980450
1443.000000;0.981202
1442.000000;0.981822
1441.000000;0.982211
1440.000000;0.982415
1439.000000;0.982751
1438.000000;0.983488
1437.000000;0.984472
1436.000000;0.985215
1435.000000;0.985484
1434.000000;0.985660
1433.000000;0.986314
1432.000000;0.987550
1431.000000;0.988905
1430.000000;0.989822
1429.000000;0.990053
1428.000000;0.989715
1427.000000;0.989143
1426.000000;0.988737
1425.000000;0.988702
1424.000000;0.988931
1423.000000;0.989188
1422.000000;0.989396
1421.000000;0.989732
1420.000000;0.990442
1419.000000;0.991606
1418.000000;0.992966
1417.000000;0.994034
1416.000000;0.994388
1415.000000;0.994072
1414.000000;0.993757
1413.000000;0.994184
1412.000000;0.995475
1411.000000;0.997161
1410.000000;0.998749
1409.000000;1.000008
1408.000000;1.000750
1407.000000;1.000788
1406.000000;1.000304
1405.000000;0.999859
1404.000000;0.999907
1403.000000;1.000489
1402.000000;1.001475
1401.000000;1.002842
1400.000000;1.004471
1399.000000;1.005882
1398.000000;1.006522
1397.000000;1.006320
1396.000000;1.005767
1395.000000;1.005519
1394.000000;1.005960
1393.000000;1.006934
1392.000000;1.007881
1391.000000;1.008393
1390.000000;1.008679
1389.000000;1.009250
1388.000000;1.010154
1387.000000;1.010855
1386.000000;1.010998
1385.000000;1.010927
1384.000000;1.011177
1383.000000;1.011824
1382.000000;1.012612
1381.000000;1.013453
1380.000000;1.014400
1379.000000;1.015314
1378.000000;1.015992
1377.000000;1.016525
1376.000000;1.017188
1375.000000;1.017995
1374.000000;1.018670
1373.000000;1.019062
1372.000000;1.019300
1371.000000;1.019536
1370.000000;1.019837
1369.000000;1.020265
1368.000000;1.020802
1367.000000;1.021247
1366.000000;1.021434
1365.000000;1.021534
1364.000000;1.021875
1363.000000;1.022476
1362.000000;1.023046
1361.000000;1.023446
1360.000000;1.023843
1359.000000;1.024374
1358.000000;1.024963
1357.000000;1.025506
1356.000000;1.026013
1355.000000;1.026504
1354.000000;1.026978
1353.000000;1.027544
1352.000000;1.028414
1351.000000;1.029656
1350.000000;1.031111
1349.000000;1.032571
1348.000000;1.033949
1347.000000;1.035202
1346.000000;1.036243
1345.000000;1.036977
1344.000000;1.037316
1343.000000;1.037172
1342.000000;1.036604
1341.000000;1.035934
1340.000000;1.035549
1339.000000;1.035575
1338.000000;1.035884
1337.000000;1.036367
1336.000000;1.037026
1335.000000;1.037791
1334.000000;1.038455
1333.000000;1.038861
1332.000000;1.039063
1331.000000;1.039270
1330.000000;1.039725
1329.000000;1.040634
1328.000000;1.042021
1327.000000;1.043612
1326.000000;1.044989
1325.000000;1.045854
1324.000000;1.046138
1323.000000;1.046015
1322.000000;1.045971
1321.000000;1.046543
1320.000000;1.047624
1319.000000;1.048190
1318.000000;1.047365
1317.000000;1.045749
1316.000000;1.045104
1315.000000;1.046476
1314.000000;1.049038
1313.000000;1.051083
1312.000000;1.051773
1311.000000;1.051559
1310.000000;1.051287
1309.000000;1.051450
1308.000000;1.052127
1307.000000;1.053115
1306.000000;1.054029
1305.000000;1.054536
1304.000000;1.054604
1303.000000;1.054458
1302.000000;1.054404
1301.000000;1.054766
1300.000000;1.055764
1299.000000;1.057207
1298.000000;1.058474
1297.000000;1.059070
1296.000000;1.059174
1295.000000;1.059398
1294.000000;1.060083
1293.000000;1.061016
1292.000000;1.061783
1291.000000;1.062180
1290.000000;1.062293
1289.000000;1.062369
1288.000000;1.062640
1287.000000;1.063168
1286.000000;1.063835
1285.000000;1.064540
1284.000000;1.065308
1283.000000;1.066155
1282.000000;1.066952
1281.000000;1.067601
1280.000000;1.068230
1279.000000;1.069040
1278.000000;1.069963
1277.000000;1.070678
1276.000000;1.070983
1275.000000;1.071021
1274.000000;1.071120
1273.000000;1.071510
1272.000000;1.072189
1271.000000;1.072986
1270.000000;1.073730
1269.000000;1.074372
1268.000000;1.074973
1267.000000;1.075608
1266.000000;1.076328
1265.000000;1.077136
1264.000000;1.077864
1263.000000;1.078129
1262.000000;1.077694
1261.000000;1.076935
1260.000000;1.076681
1259.000000;1.077434
1258.000000;1.078853
1257.000000;1.080143
1256.000000;1.080808
1255.000000;1.080929
1254.000000;1.080907
1253.000000;1.081128
1252.000000;1.081735
1251.000000;1.082536
1250.000000;1.083241
1249.000000;1.083880
1248.000000;1.084784
1247.000000;1.085976
1246.000000;1.086898
1245.000000;1.087072
1244.000000;1.086829
1243.000000;1.086938
1242.000000;1.087653
1241.000000;1.088494
1240.000000;1.088960
1239.000000;1.089069
1238.000000;1.089168
1237.000000;1.089583
1236.000000;1.090533
1235.000000;1.092035
1234.000000;1.093708
1233.000000;1.094973
1232.000000;1.095621
1231.000000;1.095958
1230.000000;1.096246
1229.000000;1.096316
1228.000000;1.095932
1227.000000;1.095297
1226.000000;1.094893
1225.000000;1.094960
1224.000000;1.095375
1223.000000;1.095959
1222.000000;1.096630
1221.000000;1.097302
1220.000000;1.097896
1219.000000;1.098458
1218.000000;1.099056
1217.000000;1.099547
1216.000000;1.099683
1215.000000;1.099538
1214.000000;1.099655
1213.000000;1.100561
1212.000000;1.102206
1211.000000;1.103988
1210.000000;1.105333
1209.000000;1.106107
1208.000000;1.106454
1207.000000;1.106459
1206.000000;1.106194
1205.000000;1.106014
1204.000000;1.106491
1203.000000;1.107810
1202.000000;1.109438
1201.000000;1.110496
1200.000000;1.110643
