Criado como novo conjunto de dados;"0307_DANIEL.spp","44644.1 Secs"
cm-1;Abs
10000.000000;1.095540
9999.000000;1.093652
9998.000000;1.091586
9997.000000;1.089790
9996.000000;1.088623
9995.000000;1.088177
9994.000000;1.088254
9993.000000;1.088197
9992.000000;1.087481
9991.000000;1.086197
9990.000000;1.084843
9989.000000;1.083597
9988.000000;1.082232
9987.000000;1.080638
9986.000000;1.079057
9985.000000;1.077731
9984.000000;1.076642
9983.000000;1.075666
9982.000000;1.074738
9981.000000;1.073808
9980.000000;1.072811
9979.000000;1.071667
9978.000000;1.070227
9977.000000;1.068388
9976.000000;1.066407
9975.000000;1.064859
9974.000000;1.063971
9973.000000;1.063206
9972.000000;1.061879
9971.000000;1.060046
9970.000000;1.058379
9969.000000;1.057271
9968.000000;1.056488
9967.000000;1.055647
9966.000000;1.054598
9965.000000;1.053310
9964.000000;1.051797
9963.000000;1.050247
9962.000000;1.048900
9961.000000;1.047702
9960.000000;1.046368
9959.000000;1.044821
9958.000000;1.043333
9957.000000;1.042202
9956.000000;1.041503
9955.000000;1.041066
9954.000000;1.040497
9953.000000;1.039367
9952.000000;1.037719
9951.000000;1.036222
9950.000000;1.035402
9949.000000;1.034887
9948.000000;1.033895
9947.000000;1.032359
9946.000000;1.030934
9945.000000;1.029847
9944.000000;1.028454
9943.000000;1.026201
9942.000000;1.023502
9941.000000;1.021275
9940.000000;1.019991
9939.000000;1.019463
9938.000000;1.019270
9937.000000;1.019042
9936.000000;1.018527
9935.000000;1.017650
9934.000000;1.016457
9933.000000;1.014968
9932.000000;1.013285
9931.000000;1.011746
9930.000000;1.010595
9929.000000;1.009451
9928.000000;1.007614
9927.000000;1.005079
9926.000000;1.002715
9925.000000;1.001186
9924.000000;1.000202
9923.000000;0.999177
9922.000000;0.998124
9921.000000;0.997349
9920.000000;0.996608
9919.000000;0.995303
9918.000000;0.993402
9917.000000;0.991557
9916.000000;0.990206
9915.000000;0.989104
9914.000000;0.987866
9913.000000;0.986535
9912.000000;0.985389
9911.000000;0.984494
9910.000000;0.983673
9909.000000;0.982748
9908.000000;0.981615
9907.000000;0.980241
9906.000000;0.978720
9905.000000;0.977273
9904.000000;0.976080
9903.000000;0.975120
9902.000000;0.974190
9901.000000;0.973010
9900.000000;0.971343
9899.000000;0.969175
9898.000000;0.966801
9897.000000;0.964598
9896.000000;0.962671
9895.000000;0.960851
9894.000000;0.959079
9893.000000;0.957618
9892.000000;0.956782
9891.000000;0.956505
9890.000000;0.956327
9889.000000;0.955782
9888.000000;0.954736
9887.000000;0.953350
9886.000000;0.951783
9885.000000;0.949985
9884.000000;0.947829
9883.000000;0.945440
9882.000000;0.943313
9881.000000;0.941932
9880.000000;0.941270
9879.000000;0.940749
9878.000000;0.939753
9877.000000;0.938116
9876.000000;0.936110
9875.000000;0.934120
9874.000000;0.932467
9873.000000;0.931336
9872.000000;0.930638
9871.000000;0.929943
9870.000000;0.928769
9869.000000;0.927032
9868.000000;0.925089
9867.000000;0.923281
9866.000000;0.921579
9865.000000;0.919765
9864.000000;0.917834
9863.000000;0.916097
9862.000000;0.914900
9861.000000;0.914294
9860.000000;0.913937
9859.000000;0.913292
9858.000000;0.911982
9857.000000;0.910073
9856.000000;0.907969
9855.000000;0.906029
9854.000000;0.904336
9853.000000;0.902826
9852.000000;0.901456
9851.000000;0.900125
9850.000000;0.898624
9849.000000;0.896870
9848.000000;0.895124
9847.000000;0.893740
9846.000000;0.892702
9845.000000;0.891611
9844.000000;0.890184
9843.000000;0.888582
9842.000000;0.887161
9841.000000;0.886036
9840.000000;0.884976
9839.000000;0.883684
9838.000000;0.882085
9837.000000;0.880388
9836.000000;0.878864
9835.000000;0.877547
9834.000000;0.876160
9833.000000;0.874424
9832.000000;0.872392
9831.000000;0.870392
9830.000000;0.868652
9829.000000;0.867129
9828.000000;0.865671
9827.000000;0.864188
9826.000000;0.862612
9825.000000;0.860876
9824.000000;0.859023
9823.000000;0.857251
9822.000000;0.855734
9821.000000;0.854422
9820.000000;0.853096
9819.000000;0.851566
9818.000000;0.849835
9817.000000;0.848087
9816.000000;0.846552
9815.000000;0.845327
9814.000000;0.844318
9813.000000;0.843343
9812.000000;0.842283
9811.000000;0.841078
9810.000000;0.839688
9809.000000;0.838123
9808.000000;0.836460
9807.000000;0.834714
9806.000000;0.832757
9805.000000;0.830493
9804.000000;0.828054
9803.000000;0.825685
9802.000000;0.823541
9801.000000;0.821739
9800.000000;0.820465
9799.000000;0.819751
9798.000000;0.819194
9797.000000;0.818198
9796.000000;0.816563
9795.000000;0.814582
9794.000000;0.812542
9793.000000;0.810440
9792.000000;0.808291
9791.000000;0.806366
9790.000000;0.804878
9789.000000;0.803665
9788.000000;0.802417
9787.000000;0.801111
9786.000000;0.799960
9785.000000;0.798995
9784.000000;0.797911
9783.000000;0.796373
9782.000000;0.794358
9781.000000;0.792164
9780.000000;0.790116
9779.000000;0.788297
9778.000000;0.786543
9777.000000;0.784714
9776.000000;0.782893
9775.000000;0.781263
9774.000000;0.779833
9773.000000;0.778433
9772.000000;0.776906
9771.000000;0.775175
9770.000000;0.773189
9769.000000;0.771010
9768.000000;0.768942
9767.000000;0.767294
9766.000000;0.766007
9765.000000;0.764726
9764.000000;0.763310
9763.000000;0.761973
9762.000000;0.760846
9761.000000;0.759648
9760.000000;0.758005
9759.000000;0.755871
9758.000000;0.753449
9757.000000;0.750877
9756.000000;0.748221
9755.000000;0.745651
9754.000000;0.743416
9753.000000;0.741674
9752.000000;0.740423
9751.000000;0.739505
9750.000000;0.738563
9749.000000;0.737159
9748.000000;0.735123
9747.000000;0.732734
9746.000000;0.730437
9745.000000;0.728435
9744.000000;0.726644
9743.000000;0.724915
9742.000000;0.723197
9741.000000;0.721519
9740.000000;0.719913
9739.000000;0.718320
9738.000000;0.716559
9737.000000;0.714521
9736.000000;0.712372
9735.000000;0.710423
9734.000000;0.708784
9733.000000;0.707311
9732.000000;0.705914
9731.000000;0.704605
9730.000000;0.703179
9729.000000;0.701185
9728.000000;0.698488
9727.000000;0.695636
9726.000000;0.693355
9725.000000;0.691777
9724.000000;0.690444
9723.000000;0.688939
9722.000000;0.687224
9721.000000;0.685403
9720.000000;0.683472
9719.000000;0.681419
9718.000000;0.679353
9717.000000;0.677404
9716.000000;0.675562
9715.000000;0.673698
9714.000000;0.671710
9713.000000;0.669622
9712.000000;0.667557
9711.000000;0.665608
9710.000000;0.663746
9709.000000;0.661891
9708.000000;0.660058
9707.000000;0.658334
9706.000000;0.656698
9705.000000;0.655003
9704.000000;0.653167
9703.000000;0.651274
9702.000000;0.649424
9701.000000;0.647622
9700.000000;0.645847
9699.000000;0.644088
9698.000000;0.642226
9697.000000;0.640076
9696.000000;0.637674
9695.000000;0.635375
9694.000000;0.633485
9693.000000;0.631901
9692.000000;0.630265
9691.000000;0.628383
9690.000000;0.626350
9689.000000;0.624343
9688.000000;0.622425
9687.000000;0.620516
9686.000000;0.618451
9685.000000;0.616132
9684.000000;0.613693
9683.000000;0.611435
9682.000000;0.609488
9681.000000;0.607652
9680.000000;0.605689
9679.000000;0.603639
9678.000000;0.601703
9677.000000;0.599901
9676.000000;0.598068
9675.000000;0.596145
9674.000000;0.594273
9673.000000;0.592537
9672.000000;0.590765
9671.000000;0.588663
9670.000000;0.586133
9669.000000;0.583421
9668.000000;0.580936
9667.000000;0.578869
9666.000000;0.576982
9665.000000;0.574842
9664.000000;0.572270
9663.000000;0.569521
9662.000000;0.567007
9661.000000;0.564975
9660.000000;0.563418
9659.000000;0.562118
9658.000000;0.560674
9657.000000;0.558696
9656.000000;0.556145
9655.000000;0.553402
9654.000000;0.550850
9653.000000;0.548517
9652.000000;0.546242
9651.000000;0.544040
9650.000000;0.542084
9649.000000;0.540376
9648.000000;0.538622
9647.000000;0.536493
9646.000000;0.533930
9645.000000;0.531213
9644.000000;0.528781
9643.000000;0.526902
9642.000000;0.525381
9641.000000;0.523668
9640.000000;0.521389
9639.000000;0.518755
9638.000000;0.516324
9637.000000;0.514406
9636.000000;0.512810
9635.000000;0.511134
9634.000000;0.509138
9633.000000;0.506846
9632.000000;0.504460
9631.000000;0.502253
9630.000000;0.500382
9629.000000;0.498693
9628.000000;0.496757
9627.000000;0.494233
9626.000000;0.491218
9625.000000;0.488190
9624.000000;0.485595
9623.000000;0.483521
9622.000000;0.481749
9621.000000;0.480030
9620.000000;0.478205
9619.000000;0.476133
9618.000000;0.473680
9617.000000;0.470870
9616.000000;0.467944
9615.000000;0.465159
9614.000000;0.462593
9613.000000;0.460223
9612.000000;0.458069
9611.000000;0.456123
9610.000000;0.454198
9609.000000;0.452070
9608.000000;0.449752
9607.000000;0.447435
9606.000000;0.445177
9605.000000;0.442819
9604.000000;0.440252
9603.000000;0.437574
9602.000000;0.434926
9601.000000;0.432349
9600.000000;0.429879
9599.000000;0.427626
9598.000000;0.425647
9597.000000;0.423842
9596.000000;0.422035
9595.000000;0.420068
9594.000000;0.417811
9593.000000;0.415254
9592.000000;0.412632
9591.000000;0.410280
9590.000000;0.408244
9589.000000;0.406212
9588.000000;0.403910
9587.000000;0.401427
9586.000000;0.399013
9585.000000;0.396709
9584.000000;0.394343
9583.000000;0.391793
9582.000000;0.389133
9581.000000;0.386559
9580.000000;0.384277
9579.000000;0.382388
9578.000000;0.380759
9577.000000;0.379063
9576.000000;0.377020
9575.000000;0.374584
9574.000000;0.371886
9573.000000;0.369086
9572.000000;0.366352
9571.000000;0.363821
9570.000000;0.361476
9569.000000;0.359126
9568.000000;0.356600
9567.000000;0.353934
9566.000000;0.351323
9565.000000;0.348970
9564.000000;0.346983
9563.000000;0.345285
9562.000000;0.343542
9561.000000;0.341336
9560.000000;0.338544
9559.000000;0.335511
9558.000000;0.332732
9557.000000;0.330421
9556.000000;0.328414
9555.000000;0.326405
9554.000000;0.324196
9553.000000;0.321796
9552.000000;0.319381
9551.000000;0.317113
9550.000000;0.314964
9549.000000;0.312772
9548.000000;0.310482
9547.000000;0.308216
9546.000000;0.306071
9545.000000;0.303951
9544.000000;0.301698
9543.000000;0.299302
9542.000000;0.296908
9541.000000;0.294673
9540.000000;0.292654
9539.000000;0.290759
9538.000000;0.288785
9537.000000;0.286599
9536.000000;0.284310
9535.000000;0.282140
9534.000000;0.280106
9533.000000;0.277960
9532.000000;0.275515
9531.000000;0.272901
9530.000000;0.270444
9529.000000;0.268365
9528.000000;0.266630
9527.000000;0.264969
9526.000000;0.263028
9525.000000;0.260650
9524.000000;0.258065
9523.000000;0.255692
9522.000000;0.253733
9521.000000;0.252050
9520.000000;0.250410
9519.000000;0.248640
9518.000000;0.246569
9517.000000;0.244118
9516.000000;0.241577
9515.000000;0.239517
9514.000000;0.238203
9513.000000;0.237238
9512.000000;0.235930
9511.000000;0.233891
9510.000000;0.231188
9509.000000;0.228176
9508.000000;0.225387
9507.000000;0.223345
9506.000000;0.222167
9505.000000;0.221374
9504.000000;0.220312
9503.000000;0.218741
9502.000000;0.216877
9501.000000;0.214986
9500.000000;0.213170
9499.000000;0.211479
9498.000000;0.209961
9497.000000;0.208560
9496.000000;0.207121
9495.000000;0.205530
9494.000000;0.203767
9493.000000;0.201884
9492.000000;0.200035
9491.000000;0.198454
9490.000000;0.197257
9489.000000;0.196294
9488.000000;0.195346
9487.000000;0.194412
9486.000000;0.193628
9485.000000;0.192930
9484.000000;0.192023
9483.000000;0.190731
9482.000000;0.189205
9481.000000;0.187720
9480.000000;0.186362
9479.000000;0.185026
9478.000000;0.183606
9477.000000;0.182125
9476.000000;0.180702
9475.000000;0.179453
9474.000000;0.178428
9473.000000;0.177577
9472.000000;0.176774
9471.000000;0.175859
9470.000000;0.174715
9469.000000;0.173375
9468.000000;0.172062
9467.000000;0.171055
9466.000000;0.170496
9465.000000;0.170317
9464.000000;0.170303
9463.000000;0.170142
9462.000000;0.169514
9461.000000;0.168346
9460.000000;0.166999
9459.000000;0.166014
9458.000000;0.165577
9457.000000;0.165360
9456.000000;0.164969
9455.000000;0.164354
9454.000000;0.163694
9453.000000;0.163090
9452.000000;0.162569
9451.000000;0.162255
9450.000000;0.162282
9449.000000;0.162577
9448.000000;0.162906
9447.000000;0.163130
9446.000000;0.163255
9445.000000;0.163259
9444.000000;0.163039
9443.000000;0.162582
9442.000000;0.162067
9441.000000;0.161721
9440.000000;0.161627
9439.000000;0.161676
9438.000000;0.161686
9437.000000;0.161571
9436.000000;0.161424
9435.000000;0.161401
9434.000000;0.161556
9433.000000;0.161845
9432.000000;0.162270
9431.000000;0.162868
9430.000000;0.163495
9429.000000;0.163838
9428.000000;0.163760
9427.000000;0.163542
9426.000000;0.163612
9425.000000;0.164121
9424.000000;0.164876
9423.000000;0.165601
9422.000000;0.166101
9421.000000;0.166310
9420.000000;0.166368
9419.000000;0.166631
9418.000000;0.167378
9417.000000;0.168465
9416.000000;0.169391
9415.000000;0.169757
9414.000000;0.169626
9413.000000;0.169448
9412.000000;0.169721
9411.000000;0.170663
9410.000000;0.172081
9409.000000;0.173492
9408.000000;0.174458
9407.000000;0.174876
9406.000000;0.174966
9405.000000;0.175037
9404.000000;0.175301
9403.000000;0.175833
9402.000000;0.176620
9401.000000;0.177632
9400.000000;0.178871
9399.000000;0.180304
9398.000000;0.181734
9397.000000;0.182865
9396.000000;0.183566
9395.000000;0.184015
9394.000000;0.184516
9393.000000;0.185237
9392.000000;0.186172
9391.000000;0.187232
9390.000000;0.188274
9389.000000;0.189130
9388.000000;0.189767
9387.000000;0.190374
9386.000000;0.191191
9385.000000;0.192254
9384.000000;0.193416
9383.000000;0.194550
9382.000000;0.195658
9381.000000;0.196798
9380.000000;0.197999
9379.000000;0.199211
9378.000000;0.200318
9377.000000;0.201271
9376.000000;0.202246
9375.000000;0.203515
9374.000000;0.205071
9373.000000;0.206511
9372.000000;0.207461
9371.000000;0.208021
9370.000000;0.208609
9369.000000;0.209470
9368.000000;0.210542
9367.000000;0.211736
9366.000000;0.213070
9365.000000;0.214474
9364.000000;0.215696
9363.000000;0.216574
9362.000000;0.217285
9361.000000;0.218196
9360.000000;0.219523
9359.000000;0.221160
9358.000000;0.222798
9357.000000;0.224169
9356.000000;0.225235
9355.000000;0.226209
9354.000000;0.227365
9353.000000;0.228790
9352.000000;0.230337
9351.000000;0.231787
9350.000000;0.233015
9349.000000;0.234006
9348.000000;0.234800
9347.000000;0.235510
9346.000000;0.236311
9345.000000;0.237346
9344.000000;0.238607
9343.000000;0.239950
9342.000000;0.241250
9341.000000;0.242489
9340.000000;0.243691
9339.000000;0.244822
9338.000000;0.245840
9337.000000;0.246835
9336.000000;0.247996
9335.000000;0.249400
9334.000000;0.250930
9333.000000;0.252465
9332.000000;0.254056
9331.000000;0.255750
9330.000000;0.257319
9329.000000;0.258385
9328.000000;0.258882
9327.000000;0.259239
9326.000000;0.260003
9325.000000;0.261340
9324.000000;0.262953
9323.000000;0.264376
9322.000000;0.265337
9321.000000;0.265917
9320.000000;0.266446
9319.000000;0.267197
9318.000000;0.268155
9317.000000;0.269137
9316.000000;0.270100
9315.000000;0.271193
9314.000000;0.272501
9313.000000;0.273896
9312.000000;0.275211
9311.000000;0.276418
9310.000000;0.277565
9309.000000;0.278661
9308.000000;0.279736
9307.000000;0.280907
9306.000000;0.282258
9305.000000;0.283714
9304.000000;0.285109
9303.000000;0.286351
9302.000000;0.287438
9301.000000;0.288383
9300.000000;0.289213
9299.000000;0.290014
9298.000000;0.290915
9297.000000;0.292011
9296.000000;0.293281
9295.000000;0.294518
9294.000000;0.295405
9293.000000;0.295813
9292.000000;0.296040
9291.000000;0.296603
9290.000000;0.297740
9289.000000;0.299243
9288.000000;0.300812
9287.000000;0.302367
9286.000000;0.303930
9285.000000;0.305396
9284.000000;0.306616
9283.000000;0.307610
9282.000000;0.308541
9281.000000;0.309530
9280.000000;0.310588
9279.000000;0.311677
9278.000000;0.312724
9277.000000;0.313685
9276.000000;0.314669
9275.000000;0.315900
9274.000000;0.317413
9273.000000;0.318902
9272.000000;0.320000
9271.000000;0.320667
9270.000000;0.321172
9269.000000;0.321758
9268.000000;0.322492
9267.000000;0.323375
9266.000000;0.324409
9265.000000;0.325522
9264.000000;0.326553
9263.000000;0.327405
9262.000000;0.328162
9261.000000;0.328996
9260.000000;0.329979
9259.000000;0.330984
9258.000000;0.331799
9257.000000;0.332348
9256.000000;0.332789
9255.000000;0.333342
9254.000000;0.334088
9253.000000;0.334999
9252.000000;0.336104
9251.000000;0.337445
9250.000000;0.338877
9249.000000;0.340099
9248.000000;0.340967
9247.000000;0.341645
9246.000000;0.342397
9245.000000;0.343355
9244.000000;0.344524
9243.000000;0.345790
9242.000000;0.346844
9241.000000;0.347327
9240.000000;0.347251
9239.000000;0.347153
9238.000000;0.347628
9237.000000;0.348779
9236.000000;0.350243
9235.000000;0.351632
9234.000000;0.352785
9233.000000;0.353689
9232.000000;0.354374
9231.000000;0.354909
9230.000000;0.355380
9229.000000;0.355862
9228.000000;0.356469
9227.000000;0.357336
9226.000000;0.358442
9225.000000;0.359541
9224.000000;0.360411
9223.000000;0.361115
9222.000000;0.361891
9221.000000;0.362831
9220.000000;0.363812
9219.000000;0.364691
9218.000000;0.365445
9217.000000;0.366130
9216.000000;0.366817
9215.000000;0.367552
9214.000000;0.368277
9213.000000;0.368851
9212.000000;0.369241
9211.000000;0.369623
9210.000000;0.370203
9209.000000;0.370975
9208.000000;0.371813
9207.000000;0.372719
9206.000000;0.373806
9205.000000;0.375056
9204.000000;0.376235
9203.000000;0.377114
9202.000000;0.377663
9201.000000;0.378019
9200.000000;0.378372
9199.000000;0.378884
9198.000000;0.379621
9197.000000;0.380503
9196.000000;0.381380
9195.000000;0.382190
9194.000000;0.382990
9193.000000;0.383841
9192.000000;0.384714
9191.000000;0.385519
9190.000000;0.386185
9189.000000;0.386710
9188.000000;0.387172
9187.000000;0.387670
9186.000000;0.388243
9185.000000;0.388848
9184.000000;0.389428
9183.000000;0.389955
9182.000000;0.390405
9181.000000;0.390761
9180.000000;0.391064
9179.000000;0.391387
9178.000000;0.391739
9177.000000;0.392100
9176.000000;0.392573
9175.000000;0.393366
9174.000000;0.394518
9173.000000;0.395772
9172.000000;0.396835
9171.000000;0.397658
9170.000000;0.398338
9169.000000;0.398851
9168.000000;0.399106
9167.000000;0.399216
9166.000000;0.399522
9165.000000;0.400268
9164.000000;0.401366
9163.000000;0.402504
9162.000000;0.403403
9161.000000;0.403962
9160.000000;0.404270
9159.000000;0.404524
9158.000000;0.404870
9157.000000;0.405302
9156.000000;0.405729
9155.000000;0.406137
9154.000000;0.406600
9153.000000;0.407147
9152.000000;0.407702
9151.000000;0.408193
9150.000000;0.408630
9149.000000;0.409060
9148.000000;0.409474
9147.000000;0.409848
9146.000000;0.410240
9145.000000;0.410774
9144.000000;0.411512
9143.000000;0.412347
9142.000000;0.413104
9141.000000;0.413721
9140.000000;0.414280
9139.000000;0.414835
9138.000000;0.415293
9137.000000;0.415545
9136.000000;0.415678
9135.000000;0.415927
9134.000000;0.416427
9133.000000;0.417079
9132.000000;0.417664
9131.000000;0.418026
9130.000000;0.418173
9129.000000;0.418297
9128.000000;0.418689
9127.000000;0.419490
9126.000000;0.420506
9125.000000;0.421361
9124.000000;0.421880
9123.000000;0.422231
9122.000000;0.422660
9121.000000;0.423202
9120.000000;0.423682
9119.000000;0.423920
9118.000000;0.423883
9117.000000;0.423745
9116.000000;0.423807
9115.000000;0.424244
9114.000000;0.424892
9113.000000;0.425430
9112.000000;0.425778
9111.000000;0.426179
9110.000000;0.426828
9109.000000;0.427598
9108.000000;0.428259
9107.000000;0.428781
9106.000000;0.429280
9105.000000;0.429774
9104.000000;0.430170
9103.000000;0.430434
9102.000000;0.430626
9101.000000;0.430814
9100.000000;0.431059
9099.000000;0.431438
9098.000000;0.431976
9097.000000;0.432555
9096.000000;0.433015
9095.000000;0.433324
9094.000000;0.433600
9093.000000;0.433976
9092.000000;0.434490
9091.000000;0.435064
9090.000000;0.435536
9089.000000;0.435780
9088.000000;0.435842
9087.000000;0.435896
9086.000000;0.436067
9085.000000;0.436369
9084.000000;0.436819
9083.000000;0.437467
9082.000000;0.438227
9081.000000;0.438825
9080.000000;0.439057
9079.000000;0.439019
9078.000000;0.438991
9077.000000;0.439147
9076.000000;0.439471
9075.000000;0.439863
9074.000000;0.440236
9073.000000;0.440558
9072.000000;0.440893
9071.000000;0.441330
9070.000000;0.441800
9069.000000;0.442075
9068.000000;0.442060
9067.000000;0.441987
9066.000000;0.442181
9065.000000;0.442711
9064.000000;0.443365
9063.000000;0.443931
9062.000000;0.444343
9061.000000;0.444611
9060.000000;0.444758
9059.000000;0.444833
9058.000000;0.444903
9057.000000;0.445007
9056.000000;0.445186
9055.000000;0.445505
9054.000000;0.445993
9053.000000;0.446567
9052.000000;0.447101
9051.000000;0.447514
9050.000000;0.447768
9049.000000;0.447850
9048.000000;0.447829
9047.000000;0.447871
9046.000000;0.448073
9045.000000;0.448345
9044.000000;0.448537
9043.000000;0.448636
9042.000000;0.448732
9041.000000;0.448843
9040.000000;0.448904
9039.000000;0.448923
9038.000000;0.449040
9037.000000;0.449387
9036.000000;0.449934
9035.000000;0.450462
9034.000000;0.450730
9033.000000;0.450703
9032.000000;0.450622
9031.000000;0.450743
9030.000000;0.451010
9029.000000;0.451126
9028.000000;0.450992
9027.000000;0.450907
9026.000000;0.451226
9025.000000;0.451948
9024.000000;0.452760
9023.000000;0.453364
9022.000000;0.453640
9021.000000;0.453597
9020.000000;0.453367
9019.000000;0.453185
9018.000000;0.453211
9017.000000;0.453401
9016.000000;0.453649
9015.000000;0.453982
9014.000000;0.454434
9013.000000;0.454822
9012.000000;0.454874
9011.000000;0.454596
9010.000000;0.454321
9009.000000;0.454339
9008.000000;0.454626
9007.000000;0.454976
9006.000000;0.455262
9005.000000;0.455482
9004.000000;0.455665
9003.000000;0.455827
9002.000000;0.455961
9001.000000;0.456038
9000.000000;0.456041
8999.000000;0.456034
8998.000000;0.456132
8997.000000;0.456388
8996.000000;0.456737
8995.000000;0.457053
8994.000000;0.457247
8993.000000;0.457304
8992.000000;0.457282
8991.000000;0.457265
8990.000000;0.457306
8989.000000;0.457415
8988.000000;0.457603
8987.000000;0.457880
8986.000000;0.458183
8985.000000;0.458366
8984.000000;0.458357
8983.000000;0.458264
8982.000000;0.458278
8981.000000;0.458460
8980.000000;0.458707
8979.000000;0.458876
8978.000000;0.458898
8977.000000;0.458798
8976.000000;0.458660
8975.000000;0.458570
8974.000000;0.458541
8973.000000;0.458525
8972.000000;0.458511
8971.000000;0.458563
8970.000000;0.458736
8969.000000;0.459012
8968.000000;0.459359
8967.000000;0.459756
8966.000000;0.460125
8965.000000;0.460307
8964.000000;0.460231
8963.000000;0.460045
8962.000000;0.460008
8961.000000;0.460256
8960.000000;0.460712
8959.000000;0.461152
8958.000000;0.461343
8957.000000;0.461209
8956.000000;0.460934
8955.000000;0.460795
8954.000000;0.460852
8953.000000;0.460880
8952.000000;0.460695
8951.000000;0.460412
8950.000000;0.460266
8949.000000;0.460292
8948.000000;0.460360
8947.000000;0.460416
8946.000000;0.460540
8945.000000;0.460784
8944.000000;0.461116
8943.000000;0.461500
8942.000000;0.461861
8941.000000;0.462027
8940.000000;0.461878
8939.000000;0.461559
8938.000000;0.461384
8937.000000;0.461495
8936.000000;0.461734
8935.000000;0.461849
8934.000000;0.461717
8933.000000;0.461342
8932.000000;0.460829
8931.000000;0.460400
8930.000000;0.460319
8929.000000;0.460692
8928.000000;0.461363
8927.000000;0.462018
8926.000000;0.462357
8925.000000;0.462217
8924.000000;0.461668
8923.000000;0.461014
8922.000000;0.460601
8921.000000;0.460534
8920.000000;0.460656
8919.000000;0.460789
8918.000000;0.460902
8917.000000;0.461038
8916.000000;0.461185
8915.000000;0.461299
8914.000000;0.461373
8913.000000;0.461431
8912.000000;0.461509
8911.000000;0.461659
8910.000000;0.461908
8909.000000;0.462173
8908.000000;0.462285
8907.000000;0.462150
8906.000000;0.461857
8905.000000;0.461585
8904.000000;0.461452
8903.000000;0.461474
8902.000000;0.461598
8901.000000;0.461747
8900.000000;0.461864
8899.000000;0.461944
8898.000000;0.462006
8897.000000;0.462017
8896.000000;0.461905
8895.000000;0.461676
8894.000000;0.461449
8893.000000;0.461332
8892.000000;0.461316
8891.000000;0.461347
8890.000000;0.461442
8889.000000;0.461664
8888.000000;0.461996
8887.000000;0.462316
8886.000000;0.462504
8885.000000;0.462516
8884.000000;0.462345
8883.000000;0.461977
8882.000000;0.461464
8881.000000;0.460980
8880.000000;0.460709
8879.000000;0.460657
8878.000000;0.460633
8877.000000;0.460465
8876.000000;0.460190
8875.000000;0.459974
8874.000000;0.459895
8873.000000;0.459882
8872.000000;0.459865
8871.000000;0.459874
8870.000000;0.459973
8869.000000;0.460153
8868.000000;0.460340
8867.000000;0.460433
8866.000000;0.460336
8865.000000;0.460019
8864.000000;0.459606
8863.000000;0.459324
8862.000000;0.459298
8861.000000;0.459432
8860.000000;0.459526
8859.000000;0.459476
8858.000000;0.459321
8857.000000;0.459164
8856.000000;0.459106
8855.000000;0.459210
8854.000000;0.459448
8853.000000;0.459693
8852.000000;0.459828
8851.000000;0.459849
8850.000000;0.459817
8849.000000;0.459755
8848.000000;0.459649
8847.000000;0.459502
8846.000000;0.459323
8845.000000;0.459093
8844.000000;0.458804
8843.000000;0.458526
8842.000000;0.458359
8841.000000;0.458339
8840.000000;0.458423
8839.000000;0.458558
8838.000000;0.458706
8837.000000;0.458836
8836.000000;0.458930
8835.000000;0.458988
8834.000000;0.458999
8833.000000;0.458939
8832.000000;0.458839
8831.000000;0.458792
8830.000000;0.458825
8829.000000;0.458818
8828.000000;0.458629
8827.000000;0.458281
8826.000000;0.457925
8825.000000;0.457670
8824.000000;0.457532
8823.000000;0.457558
8822.000000;0.457833
8821.000000;0.458336
8820.000000;0.458874
8819.000000;0.459218
8818.000000;0.459266
8817.000000;0.459075
8816.000000;0.458816
8815.000000;0.458721
8814.000000;0.458935
8813.000000;0.459327
8812.000000;0.459525
8811.000000;0.459288
8810.000000;0.458789
8809.000000;0.458429
8808.000000;0.458378
8807.000000;0.458427
8806.000000;0.458328
8805.000000;0.458138
8804.000000;0.458112
8803.000000;0.458341
8802.000000;0.458642
8801.000000;0.458814
8800.000000;0.458842
8799.000000;0.458800
8798.000000;0.458649
8797.000000;0.458281
8796.000000;0.457738
8795.000000;0.457259
8794.000000;0.457069
8793.000000;0.457175
8792.000000;0.457390
8791.000000;0.457525
8790.000000;0.457528
8789.000000;0.457485
8788.000000;0.457518
8787.000000;0.457671
8786.000000;0.457888
8785.000000;0.458082
8784.000000;0.458217
8783.000000;0.458297
8782.000000;0.458325
8781.000000;0.458313
8780.000000;0.458321
8779.000000;0.458398
8778.000000;0.458496
8777.000000;0.458516
8776.000000;0.458433
8775.000000;0.458310
8774.000000;0.458183
8773.000000;0.458051
8772.000000;0.457974
8771.000000;0.458062
8770.000000;0.458299
8769.000000;0.458505
8768.000000;0.458563
8767.000000;0.458599
8766.000000;0.458808
8765.000000;0.459172
8764.000000;0.459473
8763.000000;0.459551
8762.000000;0.459445
8761.000000;0.459261
8760.000000;0.459054
8759.000000;0.458849
8758.000000;0.458700
8757.000000;0.458651
8756.000000;0.458695
8755.000000;0.458809
8754.000000;0.458970
8753.000000;0.459106
8752.000000;0.459107
8751.000000;0.458950
8750.000000;0.458767
8749.000000;0.458713
8748.000000;0.458793
8747.000000;0.458884
8746.000000;0.458944
8745.000000;0.459071
8744.000000;0.459333
8743.000000;0.459605
8742.000000;0.459687
8741.000000;0.459540
8740.000000;0.459301
8739.000000;0.459077
8738.000000;0.458831
8737.000000;0.458516
8736.000000;0.458230
8735.000000;0.458151
8734.000000;0.458365
8733.000000;0.458818
8732.000000;0.459354
8731.000000;0.459758
8730.000000;0.459827
8729.000000;0.459518
8728.000000;0.459014
8727.000000;0.458576
8726.000000;0.458327
8725.000000;0.458236
8724.000000;0.458255
8723.000000;0.458364
8722.000000;0.458519
8721.000000;0.458661
8720.000000;0.458781
8719.000000;0.458881
8718.000000;0.458895
8717.000000;0.458784
8716.000000;0.458658
8715.000000;0.458660
8714.000000;0.458698
8713.000000;0.458480
8712.000000;0.457908
8711.000000;0.457286
8710.000000;0.457026
8709.000000;0.457234
8708.000000;0.457696
8707.000000;0.458155
8706.000000;0.458470
8705.000000;0.458571
8704.000000;0.458447
8703.000000;0.458207
8702.000000;0.458035
8701.000000;0.458029
8700.000000;0.458136
8699.000000;0.458233
8698.000000;0.458230
8697.000000;0.458078
8696.000000;0.457771
8695.000000;0.457381
8694.000000;0.457054
8693.000000;0.456903
8692.000000;0.456909
8691.000000;0.456935
8690.000000;0.456868
8689.000000;0.456717
8688.000000;0.456575
8687.000000;0.456484
8686.000000;0.456397
8685.000000;0.456264
8684.000000;0.456116
8683.000000;0.456012
8682.000000;0.455933
8681.000000;0.455811
8680.000000;0.455628
8679.000000;0.455435
8678.000000;0.455259
8677.000000;0.455083
8676.000000;0.454901
8675.000000;0.454727
8674.000000;0.454532
8673.000000;0.454257
8672.000000;0.453923
8671.000000;0.453638
8670.000000;0.453464
8669.000000;0.453348
8668.000000;0.453218
8667.000000;0.453081
8666.000000;0.452953
8665.000000;0.452753
8664.000000;0.452369
8663.000000;0.451816
8662.000000;0.451264
8661.000000;0.450913
8660.000000;0.450850
8659.000000;0.451021
8658.000000;0.451267
8657.000000;0.451402
8656.000000;0.451298
8655.000000;0.450939
8654.000000;0.450407
8653.000000;0.449831
8652.000000;0.449322
8651.000000;0.448923
8650.000000;0.448593
8649.000000;0.448275
8648.000000;0.447975
8647.000000;0.447767
8646.000000;0.447698
8645.000000;0.447716
8644.000000;0.447685
8643.000000;0.447469
8642.000000;0.447032
8641.000000;0.446491
8640.000000;0.446044
8639.000000;0.445824
8638.000000;0.445802
8637.000000;0.445856
8636.000000;0.445876
8635.000000;0.445773
8634.000000;0.445460
8633.000000;0.444911
8632.000000;0.444244
8631.000000;0.443641
8630.000000;0.443222
8629.000000;0.443006
8628.000000;0.442988
8627.000000;0.443135
8626.000000;0.443328
8625.000000;0.443403
8624.000000;0.443274
8623.000000;0.442961
8622.000000;0.442500
8621.000000;0.441912
8620.000000;0.441237
8619.000000;0.440538
8618.000000;0.439852
8617.000000;0.439228
8616.000000;0.438752
8615.000000;0.438454
8614.000000;0.438204
8613.000000;0.437848
8612.000000;0.437441
8611.000000;0.437202
8610.000000;0.437196
8609.000000;0.437222
8608.000000;0.437066
8607.000000;0.436746
8606.000000;0.436433
8605.000000;0.436223
8604.000000;0.436071
8603.000000;0.435851
8602.000000;0.435441
8601.000000;0.434809
8600.000000;0.434114
8599.000000;0.433610
8598.000000;0.433402
8597.000000;0.433324
8596.000000;0.433140
8595.000000;0.432773
8594.000000;0.432300
8593.000000;0.431811
8592.000000;0.431352
8591.000000;0.430963
8590.000000;0.430653
8589.000000;0.430382
8588.000000;0.430112
8587.000000;0.429844
8586.000000;0.429574
8585.000000;0.429268
8584.000000;0.428922
8583.000000;0.428581
8582.000000;0.428242
8581.000000;0.427819
8580.000000;0.427273
8579.000000;0.426718
8578.000000;0.426283
8577.000000;0.425944
8576.000000;0.425588
8575.000000;0.425200
8574.000000;0.424884
8573.000000;0.424687
8572.000000;0.424511
8571.000000;0.424238
8570.000000;0.423866
8569.000000;0.423497
8568.000000;0.423202
8567.000000;0.422931
8566.000000;0.422564
8565.000000;0.422058
8564.000000;0.421529
8563.000000;0.421162
8562.000000;0.421017
8561.000000;0.420957
8560.000000;0.420752
8559.000000;0.420257
8558.000000;0.419500
8557.000000;0.418666
8556.000000;0.417992
8555.000000;0.417603
8554.000000;0.417414
8553.000000;0.417246
8552.000000;0.417031
8551.000000;0.416847
8550.000000;0.416737
8549.000000;0.416586
8548.000000;0.416231
8547.000000;0.415644
8546.000000;0.414965
8545.000000;0.414398
8544.000000;0.414077
8543.000000;0.413984
8542.000000;0.413949
8541.000000;0.413786
8540.000000;0.413443
8539.000000;0.412981
8538.000000;0.412440
8537.000000;0.411815
8536.000000;0.411173
8535.000000;0.410680
8534.000000;0.410430
8533.000000;0.410344
8532.000000;0.410254
8531.000000;0.410037
8530.000000;0.409645
8529.000000;0.409095
8528.000000;0.408517
8527.000000;0.408087
8526.000000;0.407856
8525.000000;0.407688
8524.000000;0.407459
8523.000000;0.407215
8522.000000;0.407054
8521.000000;0.406910
8520.000000;0.406584
8519.000000;0.405968
8518.000000;0.405165
8517.000000;0.404403
8516.000000;0.403881
8515.000000;0.403651
8514.000000;0.403572
8513.000000;0.403409
8512.000000;0.403061
8511.000000;0.402666
8510.000000;0.402430
8509.000000;0.402375
8508.000000;0.402324
8507.000000;0.402101
8506.000000;0.401682
8505.000000;0.401169
8504.000000;0.400678
8503.000000;0.400253
8502.000000;0.399839
8501.000000;0.399364
8500.000000;0.398857
8499.000000;0.398464
8498.000000;0.398295
8497.000000;0.398286
8496.000000;0.398247
8495.000000;0.398023
8494.000000;0.397571
8493.000000;0.396950
8492.000000;0.396292
8491.000000;0.395743
8490.000000;0.395362
8489.000000;0.395063
8488.000000;0.394710
8487.000000;0.394252
8486.000000;0.393754
8485.000000;0.393327
8484.000000;0.393040
8483.000000;0.392874
8482.000000;0.392713
8481.000000;0.392421
8480.000000;0.391981
8479.000000;0.391527
8478.000000;0.391205
8477.000000;0.391033
8476.000000;0.390922
8475.000000;0.390798
8474.000000;0.390635
8473.000000;0.390425
8472.000000;0.390159
8471.000000;0.389842
8470.000000;0.389456
8469.000000;0.388947
8468.000000;0.388302
8467.000000;0.387632
8466.000000;0.387099
8465.000000;0.386752
8464.000000;0.386477
8463.000000;0.386151
8462.000000;0.385793
8461.000000;0.385528
8460.000000;0.385400
8459.000000;0.385293
8458.000000;0.385050
8457.000000;0.384644
8456.000000;0.384192
8455.000000;0.383797
8454.000000;0.383458
8453.000000;0.383152
8452.000000;0.382907
8451.000000;0.382727
8450.000000;0.382522
8449.000000;0.382210
8448.000000;0.381850
8447.000000;0.381538
8446.000000;0.381213
8445.000000;0.380699
8444.000000;0.379982
8443.000000;0.379290
8442.000000;0.378850
8441.000000;0.378677
8440.000000;0.378649
8439.000000;0.378658
8438.000000;0.378617
8437.000000;0.378425
8436.000000;0.378049
8435.000000;0.377584
8434.000000;0.377137
8433.000000;0.376720
8432.000000;0.376315
8431.000000;0.375969
8430.000000;0.375723
8429.000000;0.375502
8428.000000;0.375187
8427.000000;0.374771
8426.000000;0.374363
8425.000000;0.374048
8424.000000;0.373829
8423.000000;0.373675
8422.000000;0.373559
8421.000000;0.373436
8420.000000;0.373255
8419.000000;0.373007
8418.000000;0.372718
8417.000000;0.372398
8416.000000;0.372053
8415.000000;0.371695
8414.000000;0.371335
8413.000000;0.370964
8412.000000;0.370590
8411.000000;0.370267
8410.000000;0.370040
8409.000000;0.369883
8408.000000;0.369728
8407.000000;0.369528
8406.000000;0.369264
8405.000000;0.368936
8404.000000;0.368571
8403.000000;0.368206
8402.000000;0.367839
8401.000000;0.367422
8400.000000;0.366967
8399.000000;0.366578
8398.000000;0.366347
8397.000000;0.366245
8396.000000;0.366163
8395.000000;0.366016
8394.000000;0.365747
8393.000000;0.365312
8392.000000;0.364736
8391.000000;0.364163
8390.000000;0.363757
8389.000000;0.363545
8388.000000;0.363407
8387.000000;0.363217
8386.000000;0.362948
8385.000000;0.362679
8384.000000;0.362513
8383.000000;0.362473
8382.000000;0.362432
8381.000000;0.362204
8380.000000;0.361756
8379.000000;0.361261
8378.000000;0.360900
8377.000000;0.360652
8376.000000;0.360362
8375.000000;0.359953
8374.000000;0.359482
8373.000000;0.359028
8372.000000;0.358618
8371.000000;0.358260
8370.000000;0.357953
8369.000000;0.357673
8368.000000;0.357403
8367.000000;0.357183
8366.000000;0.357065
8365.000000;0.357016
8364.000000;0.356927
8363.000000;0.356719
8362.000000;0.356400
8361.000000;0.356032
8360.000000;0.355687
8359.000000;0.355431
8358.000000;0.355271
8357.000000;0.355122
8356.000000;0.354885
8355.000000;0.354559
8354.000000;0.354228
8353.000000;0.353930
8352.000000;0.353611
8351.000000;0.353217
8350.000000;0.352775
8349.000000;0.352351
8348.000000;0.351975
8347.000000;0.351641
8346.000000;0.351367
8345.000000;0.351201
8344.000000;0.351171
8343.000000;0.351219
8342.000000;0.351214
8341.000000;0.351043
8340.000000;0.350690
8339.000000;0.350207
8338.000000;0.349639
8337.000000;0.349020
8336.000000;0.348436
8335.000000;0.347990
8334.000000;0.347673
8333.000000;0.347355
8332.000000;0.346975
8331.000000;0.346667
8330.000000;0.346620
8329.000000;0.346845
8328.000000;0.347153
8327.000000;0.347338
8326.000000;0.347296
8325.000000;0.346996
8324.000000;0.346483
8323.000000;0.345921
8322.000000;0.345528
8321.000000;0.345378
8320.000000;0.345337
8319.000000;0.345221
8318.000000;0.344985
8317.000000;0.344690
8316.000000;0.344346
8315.000000;0.343882
8314.000000;0.343292
8313.000000;0.342735
8312.000000;0.342426
8311.000000;0.342417
8310.000000;0.342539
8309.000000;0.342551
8308.000000;0.342344
8307.000000;0.341984
8306.000000;0.341591
8305.000000;0.341245
8304.000000;0.340954
8303.000000;0.340670
8302.000000;0.340310
8301.000000;0.339844
8300.000000;0.339374
8299.000000;0.339063
8298.000000;0.338955
8297.000000;0.338935
8296.000000;0.338882
8295.000000;0.338794
8294.000000;0.338700
8293.000000;0.338555
8292.000000;0.338312
8291.000000;0.338028
8290.000000;0.337796
8289.000000;0.337609
8288.000000;0.337395
8287.000000;0.337170
8286.000000;0.337035
8285.000000;0.336996
8284.000000;0.336910
8283.000000;0.336664
8282.000000;0.336320
8281.000000;0.336031
8280.000000;0.335855
8279.000000;0.335711
8278.000000;0.335484
8277.000000;0.335121
8276.000000;0.334662
8275.000000;0.334214
8274.000000;0.333892
8273.000000;0.333737
8272.000000;0.333672
8271.000000;0.333570
8270.000000;0.333350
8269.000000;0.333029
8268.000000;0.332679
8267.000000;0.332374
8266.000000;0.332155
8265.000000;0.332026
8264.000000;0.331971
8263.000000;0.331949
8262.000000;0.331897
8261.000000;0.331739
8260.000000;0.331428
8259.000000;0.330998
8258.000000;0.330564
8257.000000;0.330258
8256.000000;0.330141
8255.000000;0.330154
8254.000000;0.330151
8253.000000;0.330000
8252.000000;0.329690
8251.000000;0.329328
8250.000000;0.329036
8249.000000;0.328849
8248.000000;0.328712
8247.000000;0.328552
8246.000000;0.328334
8245.000000;0.328075
8244.000000;0.327817
8243.000000;0.327601
8242.000000;0.327426
8241.000000;0.327248
8240.000000;0.327039
8239.000000;0.326839
8238.000000;0.326707
8237.000000;0.326621
8236.000000;0.326459
8235.000000;0.326136
8234.000000;0.325730
8233.000000;0.325420
8232.000000;0.325282
8231.000000;0.325192
8230.000000;0.324993
8229.000000;0.324712
8228.000000;0.324553
8227.000000;0.324633
8226.000000;0.324808
8225.000000;0.324822
8224.000000;0.324611
8223.000000;0.324363
8222.000000;0.324268
8221.000000;0.324275
8220.000000;0.324179
8219.000000;0.323887
8218.000000;0.323526
8217.000000;0.323278
8216.000000;0.323165
8215.000000;0.323060
8214.000000;0.322870
8213.000000;0.322643
8212.000000;0.322477
8211.000000;0.322377
8210.000000;0.322261
8209.000000;0.322074
8208.000000;0.321835
8207.000000;0.321569
8206.000000;0.321270
8205.000000;0.320974
8204.000000;0.320783
8203.000000;0.320747
8202.000000;0.320754
8201.000000;0.320619
8200.000000;0.320301
8199.000000;0.319944
8198.000000;0.319721
8197.000000;0.319671
8196.000000;0.319708
8195.000000;0.319722
8194.000000;0.319640
8193.000000;0.319443
8192.000000;0.319182
8191.000000;0.318957
8190.000000;0.318862
8189.000000;0.318905
8188.000000;0.318996
8187.000000;0.319003
8186.000000;0.318855
8185.000000;0.318603
8184.000000;0.318377
8183.000000;0.318255
8182.000000;0.318200
8181.000000;0.318132
8180.000000;0.318026
8179.000000;0.317907
8178.000000;0.317781
8177.000000;0.317624
8176.000000;0.317428
8175.000000;0.317202
8174.000000;0.316944
8173.000000;0.316659
8172.000000;0.316403
8171.000000;0.316253
8170.000000;0.316227
8169.000000;0.316285
8168.000000;0.316384
8167.000000;0.316481
8166.000000;0.316503
8165.000000;0.316396
8164.000000;0.316198
8163.000000;0.316012
8162.000000;0.315891
8161.000000;0.315821
8160.000000;0.315793
8159.000000;0.315801
8158.000000;0.315748
8157.000000;0.315491
8156.000000;0.315019
8155.000000;0.314505
8154.000000;0.314133
8153.000000;0.313926
8152.000000;0.313798
8151.000000;0.313690
8150.000000;0.313598
8149.000000;0.313533
8148.000000;0.313524
8147.000000;0.313612
8146.000000;0.313770
8145.000000;0.313864
8144.000000;0.313764
8143.000000;0.313472
8142.000000;0.313100
8141.000000;0.312755
8140.000000;0.312496
8139.000000;0.312360
8138.000000;0.312338
8137.000000;0.312356
8136.000000;0.312324
8135.000000;0.312235
8134.000000;0.312158
8133.000000;0.312152
8132.000000;0.312199
8131.000000;0.312221
8130.000000;0.312152
8129.000000;0.312005
8128.000000;0.311875
8127.000000;0.311840
8126.000000;0.311855
8125.000000;0.311788
8124.000000;0.311579
8123.000000;0.311321
8122.000000;0.311148
8121.000000;0.311105
8120.000000;0.311139
8119.000000;0.311180
8118.000000;0.311171
8117.000000;0.311070
8116.000000;0.310893
8115.000000;0.310717
8114.000000;0.310603
8113.000000;0.310546
8112.000000;0.310518
8111.000000;0.310526
8110.000000;0.310558
8109.000000;0.310530
8108.000000;0.310364
8107.000000;0.310106
8106.000000;0.309899
8105.000000;0.309829
8104.000000;0.309848
8103.000000;0.309826
8102.000000;0.309675
8101.000000;0.309420
8100.000000;0.309176
8099.000000;0.309036
8098.000000;0.308965
8097.000000;0.308834
8096.000000;0.308604
8095.000000;0.308402
8094.000000;0.308374
8093.000000;0.308498
8092.000000;0.308622
8091.000000;0.308626
8090.000000;0.308515
8089.000000;0.308360
8088.000000;0.308244
8087.000000;0.308225
8086.000000;0.308290
8085.000000;0.308334
8084.000000;0.308266
8083.000000;0.308131
8082.000000;0.308059
8081.000000;0.308075
8080.000000;0.308054
8079.000000;0.307885
8078.000000;0.307612
8077.000000;0.307361
8076.000000;0.307180
8075.000000;0.307026
8074.000000;0.306863
8073.000000;0.306733
8072.000000;0.306703
8071.000000;0.306792
8070.000000;0.306951
8069.000000;0.307102
8068.000000;0.307188
8067.000000;0.307187
8066.000000;0.307109
8065.000000;0.306987
8064.000000;0.306864
8063.000000;0.306774
8062.000000;0.306727
8061.000000;0.306710
8060.000000;0.306693
8059.000000;0.306643
8058.000000;0.306549
8057.000000;0.306441
8056.000000;0.306373
8055.000000;0.306356
8054.000000;0.306330
8053.000000;0.306248
8052.000000;0.306160
8051.000000;0.306168
8050.000000;0.306277
8049.000000;0.306374
8048.000000;0.306368
8047.000000;0.306291
8046.000000;0.306222
8045.000000;0.306178
8044.000000;0.306127
8043.000000;0.306062
8042.000000;0.305998
8041.000000;0.305925
8040.000000;0.305823
8039.000000;0.305701
8038.000000;0.305575
8037.000000;0.305420
8036.000000;0.305211
8035.000000;0.304990
8034.000000;0.304819
8033.000000;0.304714
8032.000000;0.304649
8031.000000;0.304630
8030.000000;0.304692
8029.000000;0.304820
8028.000000;0.304945
8027.000000;0.305006
8026.000000;0.304981
8025.000000;0.304857
8024.000000;0.304638
8023.000000;0.304392
8022.000000;0.304221
8021.000000;0.304186
8020.000000;0.304275
8019.000000;0.304450
8018.000000;0.304662
8017.000000;0.304829
8016.000000;0.304872
8015.000000;0.304796
8014.000000;0.304694
8013.000000;0.304641
8012.000000;0.304623
8011.000000;0.304591
8010.000000;0.304542
8009.000000;0.304502
8008.000000;0.304469
8007.000000;0.304423
8006.000000;0.304360
8005.000000;0.304285
8004.000000;0.304176
8003.000000;0.304004
8002.000000;0.303784
8001.000000;0.303579
8000.000000;0.303458
7999.000000;0.303452
7998.000000;0.303561
7997.000000;0.303749
7996.000000;0.303946
7995.000000;0.304068
7994.000000;0.304069
7993.000000;0.303963
7992.000000;0.303800
7991.000000;0.303623
7990.000000;0.303464
7989.000000;0.303368
7988.000000;0.303392
7987.000000;0.303544
7986.000000;0.303729
7985.000000;0.303790
7984.000000;0.303630
7983.000000;0.303294
7982.000000;0.302951
7981.000000;0.302778
7980.000000;0.302855
7979.000000;0.303124
7978.000000;0.303422
7977.000000;0.303588
7976.000000;0.303566
7975.000000;0.303407
7974.000000;0.303200
7973.000000;0.303016
7972.000000;0.302910
7971.000000;0.302923
7970.000000;0.303024
7969.000000;0.303105
7968.000000;0.303073
7967.000000;0.302944
7966.000000;0.302808
7965.000000;0.302726
7964.000000;0.302695
7963.000000;0.302717
7962.000000;0.302816
7961.000000;0.302992
7960.000000;0.303186
7959.000000;0.303326
7958.000000;0.303385
7957.000000;0.303361
7956.000000;0.303242
7955.000000;0.303033
7954.000000;0.302791
7953.000000;0.302605
7952.000000;0.302519
7951.000000;0.302507
7950.000000;0.302517
7949.000000;0.302537
7948.000000;0.302588
7947.000000;0.302660
7946.000000;0.302684
7945.000000;0.302600
7944.000000;0.302451
7943.000000;0.302368
7942.000000;0.302433
7941.000000;0.302596
7940.000000;0.302732
7939.000000;0.302771
7938.000000;0.302730
7937.000000;0.302633
7936.000000;0.302479
7935.000000;0.302289
7934.000000;0.302127
7933.000000;0.302042
7932.000000;0.302015
7931.000000;0.301995
7930.000000;0.301973
7929.000000;0.301970
7928.000000;0.301989
7927.000000;0.302023
7926.000000;0.302105
7925.000000;0.302290
7924.000000;0.302554
7923.000000;0.302760
7922.000000;0.302781
7921.000000;0.302646
7920.000000;0.302511
7919.000000;0.302485
7918.000000;0.302536
7917.000000;0.302574
7916.000000;0.302580
7915.000000;0.302603
7914.000000;0.302651
7913.000000;0.302673
7912.000000;0.302632
7911.000000;0.302564
7910.000000;0.302514
7909.000000;0.302486
7908.000000;0.302462
7907.000000;0.302441
7906.000000;0.302434
7905.000000;0.302439
7904.000000;0.302459
7903.000000;0.302515
7902.000000;0.302599
7901.000000;0.302644
7900.000000;0.302576
7899.000000;0.302410
7898.000000;0.302251
7897.000000;0.302196
7896.000000;0.302255
7895.000000;0.302367
7894.000000;0.302467
7893.000000;0.302513
7892.000000;0.302495
7891.000000;0.302445
7890.000000;0.302417
7889.000000;0.302430
7888.000000;0.302441
7887.000000;0.302402
7886.000000;0.302342
7885.000000;0.302328
7884.000000;0.302377
7883.000000;0.302425
7882.000000;0.302422
7881.000000;0.302400
7880.000000;0.302419
7879.000000;0.302462
7878.000000;0.302445
7877.000000;0.302333
7876.000000;0.302197
7875.000000;0.302133
7874.000000;0.302168
7873.000000;0.302262
7872.000000;0.302378
7871.000000;0.302504
7870.000000;0.302616
7869.000000;0.302675
7868.000000;0.302669
7867.000000;0.302629
7866.000000;0.302591
7865.000000;0.302583
7864.000000;0.302624
7863.000000;0.302725
7862.000000;0.302865
7861.000000;0.302981
7860.000000;0.303031
7859.000000;0.303033
7858.000000;0.303049
7857.000000;0.303105
7856.000000;0.303162
7855.000000;0.303153
7854.000000;0.303051
7853.000000;0.302911
7852.000000;0.302828
7851.000000;0.302861
7850.000000;0.302978
7849.000000;0.303091
7848.000000;0.303133
7847.000000;0.303108
7846.000000;0.303069
7845.000000;0.303058
7844.000000;0.303078
7843.000000;0.303111
7842.000000;0.303154
7841.000000;0.303222
7840.000000;0.303315
7839.000000;0.303405
7838.000000;0.303461
7837.000000;0.303501
7836.000000;0.303579
7835.000000;0.303727
7834.000000;0.303907
7833.000000;0.304043
7832.000000;0.304094
7831.000000;0.304089
7830.000000;0.304092
7829.000000;0.304135
7828.000000;0.304182
7827.000000;0.304154
7826.000000;0.304017
7825.000000;0.303834
7824.000000;0.303712
7823.000000;0.303691
7822.000000;0.303728
7821.000000;0.303779
7820.000000;0.303851
7819.000000;0.303947
7818.000000;0.304016
7817.000000;0.304009
7816.000000;0.303951
7815.000000;0.303914
7814.000000;0.303930
7813.000000;0.303980
7812.000000;0.304048
7811.000000;0.304130
7810.000000;0.304216
7809.000000;0.304294
7808.000000;0.304375
7807.000000;0.304461
7806.000000;0.304520
7805.000000;0.304536
7804.000000;0.304573
7803.000000;0.304702
7802.000000;0.304896
7801.000000;0.305056
7800.000000;0.305138
7799.000000;0.305183
7798.000000;0.305210
7797.000000;0.305174
7796.000000;0.305061
7795.000000;0.304945
7794.000000;0.304901
7793.000000;0.304933
7792.000000;0.305027
7791.000000;0.305198
7790.000000;0.305439
7789.000000;0.305669
7788.000000;0.305816
7787.000000;0.305910
7786.000000;0.306024
7785.000000;0.306151
7784.000000;0.306209
7783.000000;0.306158
7782.000000;0.306051
7781.000000;0.305967
7780.000000;0.305938
7779.000000;0.305954
7778.000000;0.305997
7777.000000;0.306059
7776.000000;0.306145
7775.000000;0.306272
7774.000000;0.306448
7773.000000;0.306645
7772.000000;0.306807
7771.000000;0.306876
7770.000000;0.306828
7769.000000;0.306696
7768.000000;0.306586
7767.000000;0.306607
7766.000000;0.306775
7765.000000;0.306984
7764.000000;0.307109
7763.000000;0.307132
7762.000000;0.307127
7761.000000;0.307169
7760.000000;0.307276
7759.000000;0.307427
7758.000000;0.307591
7757.000000;0.307728
7756.000000;0.307807
7755.000000;0.307831
7754.000000;0.307831
7753.000000;0.307830
7752.000000;0.307838
7751.000000;0.307878
7750.000000;0.307972
7749.000000;0.308108
7748.000000;0.308233
7747.000000;0.308305
7746.000000;0.308335
7745.000000;0.308374
7744.000000;0.308469
7743.000000;0.308640
7742.000000;0.308874
7741.000000;0.309114
7740.000000;0.309273
7739.000000;0.309290
7738.000000;0.309198
7737.000000;0.309123
7736.000000;0.309184
7735.000000;0.309391
7734.000000;0.309644
7733.000000;0.309835
7732.000000;0.309942
7731.000000;0.310008
7730.000000;0.310082
7729.000000;0.310189
7728.000000;0.310334
7727.000000;0.310496
7726.000000;0.310620
7725.000000;0.310665
7724.000000;0.310651
7723.000000;0.310636
7722.000000;0.310651
7721.000000;0.310700
7720.000000;0.310802
7719.000000;0.310985
7718.000000;0.311218
7717.000000;0.311419
7716.000000;0.311533
7715.000000;0.311578
7714.000000;0.311599
7713.000000;0.311613
7712.000000;0.311638
7711.000000;0.311713
7710.000000;0.311853
7709.000000;0.312031
7708.000000;0.312212
7707.000000;0.312405
7706.000000;0.312621
7705.000000;0.312822
7704.000000;0.312944
7703.000000;0.312966
7702.000000;0.312934
7701.000000;0.312930
7700.000000;0.313018
7699.000000;0.313204
7698.000000;0.313427
7697.000000;0.313616
7696.000000;0.313757
7695.000000;0.313900
7694.000000;0.314066
7693.000000;0.314224
7692.000000;0.314345
7691.000000;0.314458
7690.000000;0.314597
7689.000000;0.314746
7688.000000;0.314870
7687.000000;0.314976
7686.000000;0.315092
7685.000000;0.315204
7684.000000;0.315262
7683.000000;0.315252
7682.000000;0.315233
7681.000000;0.315295
7680.000000;0.315481
7679.000000;0.315750
7678.000000;0.315994
7677.000000;0.316132
7676.000000;0.316194
7675.000000;0.316284
7674.000000;0.316456
7673.000000;0.316659
7672.000000;0.316830
7671.000000;0.316980
7670.000000;0.317160
7669.000000;0.317380
7668.000000;0.317602
7667.000000;0.317802
7666.000000;0.317984
7665.000000;0.318150
7664.000000;0.318297
7663.000000;0.318434
7662.000000;0.318562
7661.000000;0.318652
7660.000000;0.318690
7659.000000;0.318721
7658.000000;0.318812
7657.000000;0.318974
7656.000000;0.319159
7655.000000;0.319327
7654.000000;0.319475
7653.000000;0.319622
7652.000000;0.319795
7651.000000;0.320019
7650.000000;0.320295
7649.000000;0.320578
7648.000000;0.320815
7647.000000;0.321009
7646.000000;0.321208
7645.000000;0.321439
7644.000000;0.321681
7643.000000;0.321896
7642.000000;0.322056
7641.000000;0.322156
7640.000000;0.322232
7639.000000;0.322352
7638.000000;0.322547
7637.000000;0.322753
7636.000000;0.322862
7635.000000;0.322846
7634.000000;0.322801
7633.000000;0.322866
7632.000000;0.323106
7631.000000;0.323476
7630.000000;0.323867
7629.000000;0.324194
7628.000000;0.324449
7627.000000;0.324679
7626.000000;0.324907
7625.000000;0.325100
7624.000000;0.325230
7623.000000;0.325337
7622.000000;0.325484
7621.000000;0.325681
7620.000000;0.325888
7619.000000;0.326090
7618.000000;0.326315
7617.000000;0.326579
7616.000000;0.326866
7615.000000;0.327150
7614.000000;0.327416
7613.000000;0.327643
7612.000000;0.327816
7611.000000;0.327956
7610.000000;0.328113
7609.000000;0.328312
7608.000000;0.328543
7607.000000;0.328794
7606.000000;0.329065
7605.000000;0.329331
7604.000000;0.329544
7603.000000;0.329685
7602.000000;0.329801
7601.000000;0.329974
7600.000000;0.330245
7599.000000;0.330597
7598.000000;0.330979
7597.000000;0.331346
7596.000000;0.331668
7595.000000;0.331935
7594.000000;0.332147
7593.000000;0.332313
7592.000000;0.332453
7591.000000;0.332596
7590.000000;0.332770
7589.000000;0.332996
7588.000000;0.333294
7587.000000;0.333649
7586.000000;0.333999
7585.000000;0.334280
7584.000000;0.334500
7583.000000;0.334740
7582.000000;0.335057
7581.000000;0.335421
7580.000000;0.335775
7579.000000;0.336111
7578.000000;0.336440
7577.000000;0.336733
7576.000000;0.336951
7575.000000;0.337111
7574.000000;0.337276
7573.000000;0.337485
7572.000000;0.337744
7571.000000;0.338054
7570.000000;0.338401
7569.000000;0.338735
7568.000000;0.339018
7567.000000;0.339300
7566.000000;0.339662
7565.000000;0.340086
7564.000000;0.340463
7563.000000;0.340735
7562.000000;0.340975
7561.000000;0.341281
7560.000000;0.341650
7559.000000;0.342005
7558.000000;0.342301
7557.000000;0.342565
7556.000000;0.342845
7555.000000;0.343154
7554.000000;0.343479
7553.000000;0.343795
7552.000000;0.344100
7551.000000;0.344411
7550.000000;0.344753
7549.000000;0.345120
7548.000000;0.345495
7547.000000;0.345873
7546.000000;0.346264
7545.000000;0.346661
7544.000000;0.347039
7543.000000;0.347386
7542.000000;0.347710
7541.000000;0.348014
7540.000000;0.348300
7539.000000;0.348602
7538.000000;0.348970
7537.000000;0.349400
7536.000000;0.349823
7535.000000;0.350181
7534.000000;0.350496
7533.000000;0.350838
7532.000000;0.351230
7531.000000;0.351627
7530.000000;0.351962
7529.000000;0.352213
7528.000000;0.352414
7527.000000;0.352629
7526.000000;0.352910
7525.000000;0.353278
7524.000000;0.353720
7523.000000;0.354181
7522.000000;0.354576
7521.000000;0.354859
7520.000000;0.355100
7519.000000;0.355447
7518.000000;0.355969
7517.000000;0.356559
7516.000000;0.357041
7515.000000;0.357360
7514.000000;0.357620
7513.000000;0.357939
7512.000000;0.358342
7511.000000;0.358791
7510.000000;0.359243
7509.000000;0.359661
7508.000000;0.360015
7507.000000;0.360312
7506.000000;0.360606
7505.000000;0.360951
7504.000000;0.361349
7503.000000;0.361763
7502.000000;0.362147
7501.000000;0.362476
7500.000000;0.362774
7499.000000;0.363058
7498.000000;0.363387
7497.000000;0.363761
7496.000000;0.364164
7495.000000;0.364618
7494.000000;0.365142
7493.000000;0.365708
7492.000000;0.366258
7491.000000;0.366762
7490.000000;0.367203
7489.000000;0.367549
7488.000000;0.367796
7487.000000;0.368040
7486.000000;0.368409
7485.000000;0.368911
7484.000000;0.369408
7483.000000;0.369772
7482.000000;0.370017
7481.000000;0.370251
7480.000000;0.370552
7479.000000;0.370932
7478.000000;0.371365
7477.000000;0.371813
7476.000000;0.372246
7475.000000;0.372669
7474.000000;0.373114
7473.000000;0.373589
7472.000000;0.374053
7471.000000;0.374478
7470.000000;0.374881
7469.000000;0.375308
7468.000000;0.375779
7467.000000;0.376276
7466.000000;0.376754
7465.000000;0.377163
7464.000000;0.377488
7463.000000;0.377768
7462.000000;0.378064
7461.000000;0.378396
7460.000000;0.378750
7459.000000;0.379129
7458.000000;0.379553
7457.000000;0.380011
7456.000000;0.380458
7455.000000;0.380876
7454.000000;0.381286
7453.000000;0.381702
7452.000000;0.382121
7451.000000;0.382560
7450.000000;0.383049
7449.000000;0.383572
7448.000000;0.384061
7447.000000;0.384473
7446.000000;0.384825
7445.000000;0.385141
7444.000000;0.385416
7443.000000;0.385664
7442.000000;0.385945
7441.000000;0.386314
7440.000000;0.386773
7439.000000;0.387288
7438.000000;0.387826
7437.000000;0.388339
7436.000000;0.388769
7435.000000;0.389087
7434.000000;0.389329
7433.000000;0.389575
7432.000000;0.389897
7431.000000;0.390319
7430.000000;0.390800
7429.000000;0.391260
7428.000000;0.391648
7427.000000;0.392002
7426.000000;0.392390
7425.000000;0.392806
7424.000000;0.393202
7423.000000;0.393593
7422.000000;0.394060
7421.000000;0.394605
7420.000000;0.395114
7419.000000;0.395499
7418.000000;0.395811
7417.000000;0.396156
7416.000000;0.396551
7415.000000;0.396917
7414.000000;0.397193
7413.000000;0.397425
7412.000000;0.397740
7411.000000;0.398209
7410.000000;0.398735
7409.000000;0.399141
7408.000000;0.399388
7407.000000;0.399640
7406.000000;0.400041
7405.000000;0.400521
7404.000000;0.400922
7403.000000;0.401229
7402.000000;0.401545
7401.000000;0.401944
7400.000000;0.402433
7399.000000;0.402975
7398.000000;0.403477
7397.000000;0.403853
7396.000000;0.404154
7395.000000;0.404515
7394.000000;0.404903
7393.000000;0.405090
7392.000000;0.405004
7391.000000;0.404911
7390.000000;0.405111
7389.000000;0.405588
7388.000000;0.406168
7387.000000;0.406837
7386.000000;0.407621
7385.000000;0.408279
7384.000000;0.408558
7383.000000;0.408731
7382.000000;0.409365
7381.000000;0.410422
7380.000000;0.411113
7379.000000;0.410968
7378.000000;0.410569
7377.000000;0.410809
7376.000000;0.411768
7375.000000;0.412772
7374.000000;0.413293
7373.000000;0.413381
7372.000000;0.413344
7371.000000;0.413428
7370.000000;0.413731
7369.000000;0.414160
7368.000000;0.414505
7367.000000;0.414745
7366.000000;0.415127
7365.000000;0.415730
7364.000000;0.416244
7363.000000;0.416494
7362.000000;0.416834
7361.000000;0.417554
7360.000000;0.418252
7359.000000;0.418420
7358.000000;0.418328
7357.000000;0.418679
7356.000000;0.419570
7355.000000;0.420456
7354.000000;0.421002
7353.000000;0.421337
7352.000000;0.421603
7351.000000;0.421890
7350.000000;0.422476
7349.000000;0.423413
7348.000000;0.424124
7347.000000;0.424107
7346.000000;0.423825
7345.000000;0.424070
7344.000000;0.424714
7343.000000;0.425076
7342.000000;0.425327
7341.000000;0.426343
7340.000000;0.428001
7339.000000;0.428945
7338.000000;0.428545
7337.000000;0.427847
7336.000000;0.428036
7335.000000;0.429091
7334.000000;0.430362
7333.000000;0.431433
7332.000000;0.431976
7331.000000;0.431790
7330.000000;0.431486
7329.000000;0.432107
7328.000000;0.433589
7327.000000;0.434580
7326.000000;0.434378
7325.000000;0.434015
7324.000000;0.434665
7323.000000;0.435982
7322.000000;0.436862
7321.000000;0.437137
7320.000000;0.437552
7319.000000;0.438479
7318.000000;0.439658
7317.000000;0.440869
7316.000000;0.441958
7315.000000;0.442602
7314.000000;0.442861
7313.000000;0.443537
7312.000000;0.445071
7311.000000;0.446545
7310.000000;0.446831
7309.000000;0.446312
7308.000000;0.446372
7307.000000;0.447444
7306.000000;0.448617
7305.000000;0.449219
7304.000000;0.449615
7303.000000;0.450232
7302.000000;0.450968
7301.000000;0.451846
7300.000000;0.453211
7299.000000;0.454832
7298.000000;0.455786
7297.000000;0.455845
7296.000000;0.456033
7295.000000;0.457229
7294.000000;0.458943
7293.000000;0.460160
7292.000000;0.460845
7291.000000;0.461786
7290.000000;0.463372
7289.000000;0.465233
7288.000000;0.466867
7287.000000;0.468099
7286.000000;0.468966
7285.000000;0.469602
7284.000000;0.470322
7283.000000;0.471407
7282.000000;0.472810
7281.000000;0.474258
7280.000000;0.475638
7279.000000;0.477018
7278.000000;0.478394
7277.000000;0.479658
7276.000000;0.480824
7275.000000;0.482076
7274.000000;0.483553
7273.000000;0.485188
7272.000000;0.486792
7271.000000;0.488267
7270.000000;0.489706
7269.000000;0.491312
7268.000000;0.493156
7267.000000;0.495037
7266.000000;0.496699
7265.000000;0.498207
7264.000000;0.499908
7263.000000;0.501945
7262.000000;0.504009
7261.000000;0.505757
7260.000000;0.507283
7259.000000;0.508927
7258.000000;0.510766
7257.000000;0.512600
7256.000000;0.514419
7255.000000;0.516489
7254.000000;0.518934
7253.000000;0.521499
7252.000000;0.523780
7251.000000;0.525670
7250.000000;0.527537
7249.000000;0.529834
7248.000000;0.532478
7247.000000;0.534821
7246.000000;0.536519
7245.000000;0.538178
7244.000000;0.540719
7243.000000;0.544142
7242.000000;0.547400
7241.000000;0.549739
7240.000000;0.551676
7239.000000;0.554239
7238.000000;0.557565
7237.000000;0.560780
7236.000000;0.563223
7235.000000;0.565299
7234.000000;0.567961
7233.000000;0.571586
7232.000000;0.575448
7231.000000;0.578453
7230.000000;0.580423
7229.000000;0.582321
7228.000000;0.585146
7227.000000;0.588901
7226.000000;0.592779
7225.000000;0.596061
7224.000000;0.598677
7223.000000;0.601099
7222.000000;0.603897
7221.000000;0.607330
7220.000000;0.611177
7219.000000;0.614963
7218.000000;0.618443
7217.000000;0.621802
7216.000000;0.625348
7215.000000;0.629070
7214.000000;0.632696
7213.000000;0.636180
7212.000000;0.639857
7211.000000;0.643990
7210.000000;0.648400
7209.000000;0.652729
7208.000000;0.656897
7207.000000;0.661144
7206.000000;0.665696
7205.000000;0.670514
7204.000000;0.675313
7203.000000;0.679786
7202.000000;0.683861
7201.000000;0.687760
7200.000000;0.691773
7199.000000;0.695975
7198.000000;0.700273
7197.000000;0.704702
7196.000000;0.709457
7195.000000;0.714523
7194.000000;0.719563
7193.000000;0.724402
7192.000000;0.729308
7191.000000;0.734554
7190.000000;0.739933
7189.000000;0.745155
7188.000000;0.750410
7187.000000;0.756006
7186.000000;0.761628
7185.000000;0.766651
7184.000000;0.771161
7183.000000;0.775997
7182.000000;0.781625
7181.000000;0.787560
7180.000000;0.793165
7179.000000;0.798526
7178.000000;0.804111
7177.000000;0.810028
7176.000000;0.816096
7175.000000;0.822253
7174.000000;0.828481
7173.000000;0.834568
7172.000000;0.840394
7171.000000;0.846255
7170.000000;0.852462
7169.000000;0.858869
7168.000000;0.865144
7167.000000;0.871195
7166.000000;0.877013
7165.000000;0.882444
7164.000000;0.887554
7163.000000;0.892879
7162.000000;0.898877
7161.000000;0.905305
7160.000000;0.911575
7159.000000;0.917621
7158.000000;0.923904
7157.000000;0.930617
7156.000000;0.937420
7155.000000;0.943985
7154.000000;0.950344
7153.000000;0.956671
7152.000000;0.963038
7151.000000;0.969434
7150.000000;0.975790
7149.000000;0.982040
7148.000000;0.988255
7147.000000;0.994705
7146.000000;1.001601
7145.000000;1.008735
7144.000000;1.015505
7143.000000;1.021507
7142.000000;1.027072
7141.000000;1.032976
7140.000000;1.039564
7139.000000;1.046367
7138.000000;1.052776
7137.000000;1.058864
7136.000000;1.065167
7135.000000;1.071805
7134.000000;1.078256
7133.000000;1.084166
7132.000000;1.089918
7131.000000;1.096096
7130.000000;1.102735
7129.000000;1.109467
7128.000000;1.116117
7127.000000;1.122698
7126.000000;1.129052
7125.000000;1.135011
7124.000000;1.140774
7123.000000;1.146617
7122.000000;1.152345
7121.000000;1.157557
7120.000000;1.162435
7119.000000;1.167673
7118.000000;1.173530
7117.000000;1.179485
7116.000000;1.185112
7115.000000;1.190715
7114.000000;1.196696
7113.000000;1.202824
7112.000000;1.208626
7111.000000;1.214158
7110.000000;1.219830
7109.000000;1.225621
7108.000000;1.231082
7107.000000;1.236063
7106.000000;1.240958
7105.000000;1.246162
7104.000000;1.251597
7103.000000;1.256936
7102.000000;1.262078
7101.000000;1.267174
7100.000000;1.272230
7099.000000;1.277014
7098.000000;1.281488
7097.000000;1.286034
7096.000000;1.290994
7095.000000;1.296142
7094.000000;1.300969
7093.000000;1.305375
7092.000000;1.309711
7091.000000;1.314160
7090.000000;1.318526
7089.000000;1.322728
7088.000000;1.327067
7087.000000;1.331769
7086.000000;1.336614
7085.000000;1.341241
7084.000000;1.345535
7083.000000;1.349457
7082.000000;1.352871
7081.000000;1.355825
7080.000000;1.358714
7079.000000;1.361924
7078.000000;1.365474
7077.000000;1.369157
7076.000000;1.372819
7075.000000;1.376388
7074.000000;1.379930
7073.000000;1.383775
7072.000000;1.388215
7071.000000;1.392888
7070.000000;1.396841
7069.000000;1.399574
7068.000000;1.401673
7067.000000;1.404056
7066.000000;1.406991
7065.000000;1.410214
7064.000000;1.413612
7063.000000;1.417172
7062.000000;1.420558
7061.000000;1.423334
7060.000000;1.425568
7059.000000;1.427787
7058.000000;1.430371
7057.000000;1.433280
7056.000000;1.436294
7055.000000;1.439242
7054.000000;1.442005
7053.000000;1.444533
7052.000000;1.446827
7051.000000;1.448843
7050.000000;1.450577
7049.000000;1.452337
7048.000000;1.454602
7047.000000;1.457373
7046.000000;1.459998
7045.000000;1.461921
7044.000000;1.463275
7043.000000;1.464470
7042.000000;1.465643
7041.000000;1.466937
7040.000000;1.468851
7039.000000;1.471745
7038.000000;1.475237
7037.000000;1.478517
7036.000000;1.481090
7035.000000;1.482944
7034.000000;1.484318
7033.000000;1.485703
7032.000000;1.487649
7031.000000;1.490020
7030.000000;1.491803
7029.000000;1.492261
7028.000000;1.491972
7027.000000;1.492094
7026.000000;1.492963
7025.000000;1.494118
7024.000000;1.495405
7023.000000;1.497156
7022.000000;1.499295
7021.000000;1.501115
7020.000000;1.502187
7019.000000;1.502872
7018.000000;1.503694
7017.000000;1.504710
7016.000000;1.505745
7015.000000;1.506810
7014.000000;1.508019
7013.000000;1.509316
7012.000000;1.510476
7011.000000;1.511311
7010.000000;1.511921
7009.000000;1.512805
7008.000000;1.514477
7007.000000;1.516725
7006.000000;1.518551
7005.000000;1.519247
7004.000000;1.519295
7003.000000;1.519758
7002.000000;1.520989
7001.000000;1.522466
7000.000000;1.523705
6999.000000;1.524701
6998.000000;1.525502
6997.000000;1.526013
6996.000000;1.526346
6995.000000;1.526793
6994.000000;1.527258
6993.000000;1.527194
6992.000000;1.526416
6991.000000;1.525663
6990.000000;1.526011
6989.000000;1.527826
6988.000000;1.530392
6987.000000;1.532472
6986.000000;1.533252
6985.000000;1.532901
6984.000000;1.532254
6983.000000;1.531935
6982.000000;1.531931
6981.000000;1.531965
6980.000000;1.531976
6979.000000;1.532093
6978.000000;1.532375
6977.000000;1.532824
6976.000000;1.533485
6975.000000;1.534345
6974.000000;1.535261
6973.000000;1.536096
6972.000000;1.536716
6971.000000;1.536794
6970.000000;1.535945
6969.000000;1.534280
6968.000000;1.532494
6967.000000;1.531189
6966.000000;1.530464
6965.000000;1.530309
6964.000000;1.530893
6963.000000;1.532087
6962.000000;1.533152
6961.000000;1.533377
6960.000000;1.532802
6959.000000;1.531959
6958.000000;1.531280
6957.000000;1.531081
6956.000000;1.531586
6955.000000;1.532463
6954.000000;1.532767
6953.000000;1.531943
6952.000000;1.530580
6951.000000;1.529615
6950.000000;1.529168
6949.000000;1.528783
6948.000000;1.528447
6947.000000;1.528611
6946.000000;1.529350
6945.000000;1.530256
6944.000000;1.531065
6943.000000;1.531754
6942.000000;1.532071
6941.000000;1.531686
6940.000000;1.530826
6939.000000;1.530109
6938.000000;1.529731
6937.000000;1.529437
6936.000000;1.529255
6935.000000;1.529549
6934.000000;1.530251
6933.000000;1.530691
6932.000000;1.530414
6931.000000;1.529611
6930.000000;1.528602
6929.000000;1.527467
6928.000000;1.526387
6927.000000;1.525722
6926.000000;1.525407
6925.000000;1.524780
6924.000000;1.523425
6923.000000;1.521775
6922.000000;1.520475
6921.000000;1.519559
6920.000000;1.518721
6919.000000;1.518087
6918.000000;1.518157
6917.000000;1.519017
6916.000000;1.520019
6915.000000;1.520383
6914.000000;1.519877
6913.000000;1.518773
6912.000000;1.517364
6911.000000;1.515796
6910.000000;1.514305
6909.000000;1.513303
6908.000000;1.512994
6907.000000;1.513039
6906.000000;1.512878
6905.000000;1.512382
6904.000000;1.511898
6903.000000;1.511597
6902.000000;1.511196
6901.000000;1.510533
6900.000000;1.510005
6899.000000;1.510027
6898.000000;1.510315
6897.000000;1.510174
6896.000000;1.509352
6895.000000;1.508186
6894.000000;1.506961
6893.000000;1.505595
6892.000000;1.504031
6891.000000;1.502558
6890.000000;1.501618
6889.000000;1.501465
6888.000000;1.501985
6887.000000;1.502658
6886.000000;1.502746
6885.000000;1.501835
6884.000000;1.500244
6883.000000;1.498684
6882.000000;1.497547
6881.000000;1.496730
6880.000000;1.495993
6879.000000;1.495215
6878.000000;1.494348
6877.000000;1.493433
6876.000000;1.492685
6875.000000;1.492351
6874.000000;1.492370
6873.000000;1.492365
6872.000000;1.492004
6871.000000;1.491320
6870.000000;1.490659
6869.000000;1.490330
6868.000000;1.490254
6867.000000;1.489887
6866.000000;1.488639
6865.000000;1.486483
6864.000000;1.484047
6863.000000;1.482013
6862.000000;1.480596
6861.000000;1.479679
6860.000000;1.479144
6859.000000;1.478812
6858.000000;1.478317
6857.000000;1.477410
6856.000000;1.476286
6855.000000;1.475332
6854.000000;1.474629
6853.000000;1.473928
6852.000000;1.473035
6851.000000;1.471964
6850.000000;1.470755
6849.000000;1.469414
6848.000000;1.468035
6847.000000;1.466782
6846.000000;1.465736
6845.000000;1.464866
6844.000000;1.464073
6843.000000;1.463094
6842.000000;1.461490
6841.000000;1.459028
6840.000000;1.456077
6839.000000;1.453431
6838.000000;1.451693
6837.000000;1.450925
6836.000000;1.450750
6835.000000;1.450607
6834.000000;1.449945
6833.000000;1.448451
6832.000000;1.446228
6831.000000;1.443683
6830.000000;1.441196
6829.000000;1.438899
6828.000000;1.436711
6827.000000;1.434511
6826.000000;1.432293
6825.000000;1.430184
6824.000000;1.428281
6823.000000;1.426464
6822.000000;1.424465
6821.000000;1.422191
6820.000000;1.419864
6819.000000;1.417794
6818.000000;1.416112
6817.000000;1.414745
6816.000000;1.413508
6815.000000;1.412150
6814.000000;1.410419
6813.000000;1.408191
6812.000000;1.405511
6811.000000;1.402535
6810.000000;1.399527
6809.000000;1.396823
6808.000000;1.394574
6807.000000;1.392521
6806.000000;1.390209
6805.000000;1.387468
6804.000000;1.384511
6803.000000;1.381591
6802.000000;1.378783
6801.000000;1.376092
6800.000000;1.373487
6799.000000;1.370870
6798.000000;1.368258
6797.000000;1.365990
6796.000000;1.364358
6795.000000;1.363019
6794.000000;1.361186
6793.000000;1.358525
6792.000000;1.355504
6791.000000;1.352693
6790.000000;1.350108
6789.000000;1.347447
6788.000000;1.344557
6787.000000;1.341431
6786.000000;1.338083
6785.000000;1.334729
6784.000000;1.331782
6783.000000;1.329389
6782.000000;1.327229
6781.000000;1.325009
6780.000000;1.322832
6779.000000;1.320784
6778.000000;1.318531
6777.000000;1.315716
6776.000000;1.312539
6775.000000;1.309486
6774.000000;1.306694
6773.000000;1.303958
6772.000000;1.301211
6771.000000;1.298568
6770.000000;1.296014
6769.000000;1.293414
6768.000000;1.290763
6767.000000;1.288089
6766.000000;1.285234
6765.000000;1.282077
6764.000000;1.278877
6763.000000;1.276006
6762.000000;1.273433
6761.000000;1.270814
6760.000000;1.268035
6759.000000;1.265298
6758.000000;1.262677
6757.000000;1.260003
6756.000000;1.257224
6755.000000;1.254495
6754.000000;1.251850
6753.000000;1.249098
6752.000000;1.246141
6751.000000;1.243151
6750.000000;1.240325
6749.000000;1.237685
6748.000000;1.235186
6747.000000;1.232762
6746.000000;1.230236
6745.000000;1.227397
6744.000000;1.224288
6743.000000;1.221221
6742.000000;1.218405
6741.000000;1.215743
6740.000000;1.213044
6739.000000;1.210263
6738.000000;1.207450
6737.000000;1.204636
6736.000000;1.201883
6735.000000;1.199311
6734.000000;1.196933
6733.000000;1.194570
6732.000000;1.191980
6731.000000;1.189061
6730.000000;1.185890
6729.000000;1.182695
6728.000000;1.179760
6727.000000;1.177229
6726.000000;1.174929
6725.000000;1.172476
6724.000000;1.169624
6723.000000;1.166449
6722.000000;1.163181
6721.000000;1.160001
6720.000000;1.157029
6719.000000;1.154383
6718.000000;1.152103
6717.000000;1.150058
6716.000000;1.148004
6715.000000;1.145740
6714.000000;1.143200
6713.000000;1.140441
6712.000000;1.137543
6711.000000;1.134609
6710.000000;1.131738
6709.000000;1.129032
6708.000000;1.126540
6707.000000;1.124170
6706.000000;1.121626
6705.000000;1.118826
6704.000000;1.115895
6703.000000;1.113109
6702.000000;1.110658
6701.000000;1.108359
6700.000000;1.105969
6699.000000;1.103368
6698.000000;1.100635
6697.000000;1.097949
6696.000000;1.095467
6695.000000;1.093202
6694.000000;1.090985
6693.000000;1.088608
6692.000000;1.086014
6691.000000;1.083308
6690.000000;1.080619
6689.000000;1.078020
6688.000000;1.075523
6687.000000;1.073079
6686.000000;1.070551
6685.000000;1.067824
6684.000000;1.064950
6683.000000;1.062116
6682.000000;1.059433
6681.000000;1.056825
6680.000000;1.054159
6679.000000;1.051439
6678.000000;1.048803
6677.000000;1.046382
6676.000000;1.044168
6675.000000;1.042024
6674.000000;1.039776
6673.000000;1.037323
6672.000000;1.034707
6671.000000;1.032089
6670.000000;1.029615
6669.000000;1.027272
6668.000000;1.024889
6667.000000;1.022320
6666.000000;1.019616
6665.000000;1.016984
6664.000000;1.014548
6663.000000;1.012223
6662.000000;1.009868
6661.000000;1.007485
6660.000000;1.005181
6659.000000;1.002972
6658.000000;1.000752
6657.000000;0.998448
6656.000000;0.996122
6655.000000;0.993868
6654.000000;0.991698
6653.000000;0.989543
6652.000000;0.987326
6651.000000;0.985000
6650.000000;0.982583
6649.000000;0.980170
6648.000000;0.977856
6647.000000;0.975650
6646.000000;0.973527
6645.000000;0.971513
6644.000000;0.969613
6643.000000;0.967670
6642.000000;0.965443
6641.000000;0.962890
6640.000000;0.960235
6639.000000;0.957713
6638.000000;0.955365
6637.000000;0.953119
6636.000000;0.950955
6635.000000;0.948869
6634.000000;0.946799
6633.000000;0.944695
6632.000000;0.942598
6631.000000;0.940556
6630.000000;0.938516
6629.000000;0.936395
6628.000000;0.934185
6627.000000;0.931939
6626.000000;0.929681
6625.000000;0.927412
6624.000000;0.925163
6623.000000;0.922961
6622.000000;0.920803
6621.000000;0.918687
6620.000000;0.916625
6619.000000;0.914574
6618.000000;0.912453
6617.000000;0.910277
6616.000000;0.908197
6615.000000;0.906311
6614.000000;0.904511
6613.000000;0.902603
6612.000000;0.900521
6611.000000;0.898353
6610.000000;0.896217
6609.000000;0.894192
6608.000000;0.892302
6607.000000;0.890460
6606.000000;0.888489
6605.000000;0.886302
6604.000000;0.884024
6603.000000;0.881861
6602.000000;0.879874
6601.000000;0.877980
6600.000000;0.876114
6599.000000;0.874279
6598.000000;0.872462
6597.000000;0.870607
6596.000000;0.868676
6595.000000;0.866679
6594.000000;0.864649
6593.000000;0.862630
6592.000000;0.860653
6591.000000;0.858693
6590.000000;0.856674
6589.000000;0.854597
6588.000000;0.852577
6587.000000;0.850705
6586.000000;0.848917
6585.000000;0.847116
6584.000000;0.845336
6583.000000;0.843676
6582.000000;0.842110
6581.000000;0.840478
6580.000000;0.838675
6579.000000;0.836734
6578.000000;0.834741
6577.000000;0.832747
6576.000000;0.830779
6575.000000;0.828857
6574.000000;0.826984
6573.000000;0.825176
6572.000000;0.823483
6571.000000;0.821905
6570.000000;0.820323
6569.000000;0.818600
6568.000000;0.816743
6567.000000;0.814889
6566.000000;0.813123
6565.000000;0.811395
6564.000000;0.809629
6563.000000;0.807816
6562.000000;0.805993
6561.000000;0.804202
6560.000000;0.802486
6559.000000;0.800868
6558.000000;0.799292
6557.000000;0.797655
6556.000000;0.795920
6555.000000;0.794151
6554.000000;0.792413
6553.000000;0.790694
6552.000000;0.788956
6551.000000;0.787223
6550.000000;0.785567
6549.000000;0.784010
6548.000000;0.782487
6547.000000;0.780908
6546.000000;0.779253
6545.000000;0.777598
6544.000000;0.776026
6543.000000;0.774529
6542.000000;0.773024
6541.000000;0.771470
6540.000000;0.769912
6539.000000;0.768393
6538.000000;0.766878
6537.000000;0.765312
6536.000000;0.763714
6535.000000;0.762137
6534.000000;0.760586
6533.000000;0.759013
6532.000000;0.757407
6531.000000;0.755825
6530.000000;0.754328
6529.000000;0.752922
6528.000000;0.751538
6527.000000;0.750057
6526.000000;0.748389
6525.000000;0.746580
6524.000000;0.744812
6523.000000;0.743246
6522.000000;0.741868
6521.000000;0.740535
6520.000000;0.739136
6519.000000;0.737670
6518.000000;0.736191
6517.000000;0.734730
6516.000000;0.733293
6515.000000;0.731857
6514.000000;0.730401
6513.000000;0.728937
6512.000000;0.727517
6511.000000;0.726156
6510.000000;0.724790
6509.000000;0.723357
6508.000000;0.721892
6507.000000;0.720484
6506.000000;0.719149
6505.000000;0.717825
6504.000000;0.716478
6503.000000;0.715137
6502.000000;0.713825
6501.000000;0.712511
6500.000000;0.711154
6499.000000;0.709745
6498.000000;0.708292
6497.000000;0.706814
6496.000000;0.705358
6495.000000;0.703974
6494.000000;0.702664
6493.000000;0.701390
6492.000000;0.700125
6491.000000;0.698861
6490.000000;0.697574
6489.000000;0.696230
6488.000000;0.694837
6487.000000;0.693454
6486.000000;0.692121
6485.000000;0.690825
6484.000000;0.689553
6483.000000;0.688321
6482.000000;0.687127
6481.000000;0.685917
6480.000000;0.684636
6479.000000;0.683301
6478.000000;0.681988
6477.000000;0.680754
6476.000000;0.679587
6475.000000;0.678420
6474.000000;0.677201
6473.000000;0.675933
6472.000000;0.674666
6471.000000;0.673452
6470.000000;0.672300
6469.000000;0.671174
6468.000000;0.670031
6467.000000;0.668848
6466.000000;0.667634
6465.000000;0.666415
6464.000000;0.665209
6463.000000;0.664004
6462.000000;0.662773
6461.000000;0.661514
6460.000000;0.660260
6459.000000;0.659043
6458.000000;0.657861
6457.000000;0.656695
6456.000000;0.655538
6455.000000;0.654399
6454.000000;0.653287
6453.000000;0.652211
6452.000000;0.651161
6451.000000;0.650101
6450.000000;0.648994
6449.000000;0.647849
6448.000000;0.646710
6447.000000;0.645590
6446.000000;0.644450
6445.000000;0.643268
6444.000000;0.642084
6443.000000;0.640955
6442.000000;0.639887
6441.000000;0.638854
6440.000000;0.637841
6439.000000;0.636837
6438.000000;0.635808
6437.000000;0.634724
6436.000000;0.633608
6435.000000;0.632514
6434.000000;0.631463
6433.000000;0.630432
6432.000000;0.629390
6431.000000;0.628331
6430.000000;0.627262
6429.000000;0.626215
6428.000000;0.625231
6427.000000;0.624326
6426.000000;0.623442
6425.000000;0.622498
6424.000000;0.621470
6423.000000;0.620413
6422.000000;0.619388
6421.000000;0.618406
6420.000000;0.617434
6419.000000;0.616439
6418.000000;0.615401
6417.000000;0.614318
6416.000000;0.613225
6415.000000;0.612187
6414.000000;0.611251
6413.000000;0.610392
6412.000000;0.609515
6411.000000;0.608535
6410.000000;0.607475
6409.000000;0.606455
6408.000000;0.605573
6407.000000;0.604795
6406.000000;0.604003
6405.000000;0.603126
6404.000000;0.602204
6403.000000;0.601307
6402.000000;0.600441
6401.000000;0.599546
6400.000000;0.598559
6399.000000;0.597475
6398.000000;0.596367
6397.000000;0.595351
6396.000000;0.594504
6395.000000;0.593785
6394.000000;0.593068
6393.000000;0.592266
6392.000000;0.591392
6391.000000;0.590496
6390.000000;0.589595
6389.000000;0.588680
6388.000000;0.587766
6387.000000;0.586883
6386.000000;0.586032
6385.000000;0.585195
6384.000000;0.584366
6383.000000;0.583548
6382.000000;0.582745
6381.000000;0.581958
6380.000000;0.581185
6379.000000;0.580407
6378.000000;0.579593
6377.000000;0.578740
6376.000000;0.577879
6375.000000;0.577025
6374.000000;0.576152
6373.000000;0.575253
6372.000000;0.574382
6371.000000;0.573595
6370.000000;0.572878
6369.000000;0.572159
6368.000000;0.571390
6367.000000;0.570578
6366.000000;0.569763
6365.000000;0.568975
6364.000000;0.568220
6363.000000;0.567468
6362.000000;0.566678
6361.000000;0.565856
6360.000000;0.565056
6359.000000;0.564316
6358.000000;0.563600
6357.000000;0.562849
6356.000000;0.562060
6355.000000;0.561275
6354.000000;0.560519
6353.000000;0.559767
6352.000000;0.559000
6351.000000;0.558236
6350.000000;0.557514
6349.000000;0.556843
6348.000000;0.556188
6347.000000;0.555502
6346.000000;0.554773
6345.000000;0.554052
6344.000000;0.553395
6343.000000;0.552789
6342.000000;0.552161
6341.000000;0.551459
6340.000000;0.550700
6339.000000;0.549928
6338.000000;0.549161
6337.000000;0.548398
6336.000000;0.547649
6335.000000;0.546923
6334.000000;0.546218
6333.000000;0.545543
6332.000000;0.544917
6331.000000;0.544331
6330.000000;0.543743
6329.000000;0.543128
6328.000000;0.542507
6327.000000;0.541891
6326.000000;0.541248
6325.000000;0.540548
6324.000000;0.539808
6323.000000;0.539067
6322.000000;0.538342
6321.000000;0.537646
6320.000000;0.537007
6319.000000;0.536427
6318.000000;0.535854
6317.000000;0.535238
6316.000000;0.534603
6315.000000;0.533998
6314.000000;0.533420
6313.000000;0.532821
6312.000000;0.532182
6311.000000;0.531532
6310.000000;0.530902
6309.000000;0.530290
6308.000000;0.529694
6307.000000;0.529112
6306.000000;0.528536
6305.000000;0.527949
6304.000000;0.527348
6303.000000;0.526739
6302.000000;0.526124
6301.000000;0.525503
6300.000000;0.524878
6299.000000;0.524248
6298.000000;0.523608
6297.000000;0.522981
6296.000000;0.522411
6295.000000;0.521912
6294.000000;0.521445
6293.000000;0.520970
6292.000000;0.520478
6291.000000;0.519967
6290.000000;0.519413
6289.000000;0.518807
6288.000000;0.518195
6287.000000;0.517620
6286.000000;0.517071
6285.000000;0.516515
6284.000000;0.515965
6283.000000;0.515454
6282.000000;0.514967
6281.000000;0.514446
6280.000000;0.513875
6279.000000;0.513286
6278.000000;0.512712
6277.000000;0.512148
6276.000000;0.511584
6275.000000;0.511020
6274.000000;0.510455
6273.000000;0.509898
6272.000000;0.509372
6271.000000;0.508884
6270.000000;0.508392
6269.000000;0.507857
6268.000000;0.507310
6267.000000;0.506831
6266.000000;0.506441
6265.000000;0.506070
6264.000000;0.505629
6263.000000;0.505102
6262.000000;0.504541
6261.000000;0.504010
6260.000000;0.503521
6259.000000;0.503034
6258.000000;0.502509
6257.000000;0.501964
6256.000000;0.501455
6255.000000;0.501004
6254.000000;0.500570
6253.000000;0.500115
6252.000000;0.499650
6251.000000;0.499189
6250.000000;0.498708
6249.000000;0.498192
6248.000000;0.497683
6247.000000;0.497233
6246.000000;0.496826
6245.000000;0.496401
6244.000000;0.495942
6243.000000;0.495484
6242.000000;0.495038
6241.000000;0.494580
6240.000000;0.494099
6239.000000;0.493611
6238.000000;0.493124
6237.000000;0.492642
6236.000000;0.492194
6235.000000;0.491809
6234.000000;0.491454
6233.000000;0.491058
6232.000000;0.490607
6231.000000;0.490164
6230.000000;0.489770
6229.000000;0.489385
6228.000000;0.488945
6227.000000;0.488448
6226.000000;0.487945
6225.000000;0.487475
6224.000000;0.487046
6223.000000;0.486645
6222.000000;0.486254
6221.000000;0.485854
6220.000000;0.485432
6219.000000;0.484981
6218.000000;0.484503
6217.000000;0.484025
6216.000000;0.483593
6215.000000;0.483236
6214.000000;0.482925
6213.000000;0.482600
6212.000000;0.482239
6211.000000;0.481867
6210.000000;0.481499
6209.000000;0.481107
6208.000000;0.480665
6207.000000;0.480190
6206.000000;0.479727
6205.000000;0.479297
6204.000000;0.478891
6203.000000;0.478493
6202.000000;0.478107
6201.000000;0.477759
6200.000000;0.477462
6199.000000;0.477188
6198.000000;0.476879
6197.000000;0.476499
6196.000000;0.476077
6195.000000;0.475674
6194.000000;0.475312
6193.000000;0.474961
6192.000000;0.474583
6191.000000;0.474173
6190.000000;0.473764
6189.000000;0.473393
6188.000000;0.473080
6187.000000;0.472800
6186.000000;0.472505
6185.000000;0.472166
6184.000000;0.471791
6183.000000;0.471407
6182.000000;0.471030
6181.000000;0.470670
6180.000000;0.470336
6179.000000;0.470022
6178.000000;0.469695
6177.000000;0.469330
6176.000000;0.468933
6175.000000;0.468531
6174.000000;0.468133
6173.000000;0.467739
6172.000000;0.467365
6171.000000;0.467028
6170.000000;0.466720
6169.000000;0.466421
6168.000000;0.466118
6167.000000;0.465809
6166.000000;0.465486
6165.000000;0.465153
6164.000000;0.464837
6163.000000;0.464554
6162.000000;0.464272
6161.000000;0.463948
6160.000000;0.463587
6159.000000;0.463233
6158.000000;0.462910
6157.000000;0.462599
6156.000000;0.462284
6155.000000;0.461977
6154.000000;0.461688
6153.000000;0.461399
6152.000000;0.461074
6151.000000;0.460698
6150.000000;0.460295
6149.000000;0.459917
6148.000000;0.459603
6147.000000;0.459337
6146.000000;0.459065
6145.000000;0.458759
6144.000000;0.458455
6143.000000;0.458191
6142.000000;0.457957
6141.000000;0.457711
6140.000000;0.457447
6139.000000;0.457183
6138.000000;0.456916
6137.000000;0.456619
6136.000000;0.456286
6135.000000;0.455940
6134.000000;0.455602
6133.000000;0.455287
6132.000000;0.455009
6131.000000;0.454770
6130.000000;0.454529
6129.000000;0.454240
6128.000000;0.453902
6127.000000;0.453564
6126.000000;0.453261
6125.000000;0.452992
6124.000000;0.452752
6123.000000;0.452540
6122.000000;0.452330
6121.000000;0.452070
6120.000000;0.451736
6119.000000;0.451366
6118.000000;0.451022
6117.000000;0.450743
6116.000000;0.450532
6115.000000;0.450366
6114.000000;0.450198
6113.000000;0.449982
6112.000000;0.449707
6111.000000;0.449394
6110.000000;0.449075
6109.000000;0.448764
6108.000000;0.448468
6107.000000;0.448194
6106.000000;0.447941
6105.000000;0.447698
6104.000000;0.447457
6103.000000;0.447213
6102.000000;0.446964
6101.000000;0.446716
6100.000000;0.446473
6099.000000;0.446230
6098.000000;0.445965
6097.000000;0.445671
6096.000000;0.445378
6095.000000;0.445126
6094.000000;0.444929
6093.000000;0.444765
6092.000000;0.444594
6091.000000;0.444379
6090.000000;0.444105
6089.000000;0.443798
6088.000000;0.443515
6087.000000;0.443289
6086.000000;0.443103
6085.000000;0.442929
6084.000000;0.442769
6083.000000;0.442626
6082.000000;0.442467
6081.000000;0.442243
6080.000000;0.441951
6079.000000;0.441630
6078.000000;0.441322
6077.000000;0.441055
6076.000000;0.440853
6075.000000;0.440709
6074.000000;0.440573
6073.000000;0.440390
6072.000000;0.440161
6071.000000;0.439937
6070.000000;0.439743
6069.000000;0.439548
6068.000000;0.439325
6067.000000;0.439092
6066.000000;0.438877
6065.000000;0.438684
6064.000000;0.438493
6063.000000;0.438288
6062.000000;0.438076
6061.000000;0.437879
6060.000000;0.437717
6059.000000;0.437592
6058.000000;0.437480
6057.000000;0.437358
6056.000000;0.437223
6055.000000;0.437079
6054.000000;0.436905
6053.000000;0.436677
6052.000000;0.436408
6051.000000;0.436139
6050.000000;0.435903
6049.000000;0.435705
6048.000000;0.435538
6047.000000;0.435394
6046.000000;0.435254
6045.000000;0.435086
6044.000000;0.434876
6043.000000;0.434644
6042.000000;0.434433
6041.000000;0.434276
6040.000000;0.434181
6039.000000;0.434114
6038.000000;0.434020
6037.000000;0.433867
6036.000000;0.433676
6035.000000;0.433494
6034.000000;0.433337
6033.000000;0.433188
6032.000000;0.433029
6031.000000;0.432857
6030.000000;0.432677
6029.000000;0.432499
6028.000000;0.432342
6027.000000;0.432215
6026.000000;0.432095
6025.000000;0.431948
6024.000000;0.431763
6023.000000;0.431571
6022.000000;0.431411
6021.000000;0.431304
6020.000000;0.431233
6019.000000;0.431161
6018.000000;0.431051
6017.000000;0.430902
6016.000000;0.430742
6015.000000;0.430585
6014.000000;0.430414
6013.000000;0.430221
6012.000000;0.430035
6011.000000;0.429892
6010.000000;0.429784
6009.000000;0.429678
6008.000000;0.429566
6007.000000;0.429469
6006.000000;0.429393
6005.000000;0.429311
6004.000000;0.429196
6003.000000;0.429048
6002.000000;0.428893
6001.000000;0.428766
6000.000000;0.428690
5999.000000;0.428653
5998.000000;0.428618
5997.000000;0.428550
5996.000000;0.428453
5995.000000;0.428348
5994.000000;0.428247
5993.000000;0.428152
5992.000000;0.428071
5991.000000;0.428012
5990.000000;0.427957
5989.000000;0.427881
5988.000000;0.427783
5987.000000;0.427681
5986.000000;0.427585
5985.000000;0.427493
5984.000000;0.427410
5983.000000;0.427336
5982.000000;0.427260
5981.000000;0.427167
5980.000000;0.427061
5979.000000;0.426952
5978.000000;0.426837
5977.000000;0.426718
5976.000000;0.426619
5975.000000;0.426565
5974.000000;0.426548
5973.000000;0.426545
5972.000000;0.426547
5971.000000;0.426554
5970.000000;0.426550
5969.000000;0.426517
5968.000000;0.426461
5967.000000;0.426406
5966.000000;0.426361
5965.000000;0.426324
5964.000000;0.426295
5963.000000;0.426269
5962.000000;0.426226
5961.000000;0.426161
5960.000000;0.426106
5959.000000;0.426090
5958.000000;0.426090
5957.000000;0.426060
5956.000000;0.426000
5955.000000;0.425955
5954.000000;0.425955
5953.000000;0.425977
5952.000000;0.425981
5951.000000;0.425947
5950.000000;0.425883
5949.000000;0.425814
5948.000000;0.425771
5947.000000;0.425761
5946.000000;0.425757
5945.000000;0.425731
5944.000000;0.425697
5943.000000;0.425680
5942.000000;0.425673
5941.000000;0.425646
5940.000000;0.425597
5939.000000;0.425556
5938.000000;0.425540
5937.000000;0.425543
5936.000000;0.425565
5935.000000;0.425606
5934.000000;0.425651
5933.000000;0.425674
5932.000000;0.425683
5931.000000;0.425710
5930.000000;0.425773
5929.000000;0.425854
5928.000000;0.425919
5927.000000;0.425942
5926.000000;0.425907
5925.000000;0.425823
5924.000000;0.425741
5923.000000;0.425715
5922.000000;0.425753
5921.000000;0.425816
5920.000000;0.425868
5919.000000;0.425906
5918.000000;0.425928
5917.000000;0.425936
5916.000000;0.425942
5915.000000;0.425970
5914.000000;0.426023
5913.000000;0.426085
5912.000000;0.426143
5911.000000;0.426189
5910.000000;0.426205
5909.000000;0.426184
5908.000000;0.426156
5907.000000;0.426169
5906.000000;0.426224
5905.000000;0.426282
5904.000000;0.426316
5903.000000;0.426343
5902.000000;0.426376
5901.000000;0.426404
5900.000000;0.426418
5899.000000;0.426438
5898.000000;0.426494
5897.000000;0.426588
5896.000000;0.426702
5895.000000;0.426805
5894.000000;0.426865
5893.000000;0.426868
5892.000000;0.426837
5891.000000;0.426818
5890.000000;0.426837
5889.000000;0.426886
5888.000000;0.426960
5887.000000;0.427067
5886.000000;0.427205
5885.000000;0.427346
5884.000000;0.427460
5883.000000;0.427541
5882.000000;0.427597
5881.000000;0.427638
5880.000000;0.427685
5879.000000;0.427762
5878.000000;0.427878
5877.000000;0.428017
5876.000000;0.428153
5875.000000;0.428271
5874.000000;0.428365
5873.000000;0.428434
5872.000000;0.428493
5871.000000;0.428566
5870.000000;0.428664
5869.000000;0.428778
5868.000000;0.428900
5867.000000;0.429032
5866.000000;0.429174
5865.000000;0.429310
5864.000000;0.429422
5863.000000;0.429510
5862.000000;0.429598
5861.000000;0.429719
5860.000000;0.429892
5859.000000;0.430108
5858.000000;0.430332
5857.000000;0.430532
5856.000000;0.430697
5855.000000;0.430830
5854.000000;0.430940
5853.000000;0.431050
5852.000000;0.431190
5851.000000;0.431371
5850.000000;0.431573
5849.000000;0.431769
5848.000000;0.431959
5847.000000;0.432151
5846.000000;0.432330
5845.000000;0.432478
5844.000000;0.432606
5843.000000;0.432748
5842.000000;0.432931
5841.000000;0.433154
5840.000000;0.433401
5839.000000;0.433644
5838.000000;0.433859
5837.000000;0.434042
5836.000000;0.434219
5835.000000;0.434415
5834.000000;0.434631
5833.000000;0.434864
5832.000000;0.435123
5831.000000;0.435404
5830.000000;0.435674
5829.000000;0.435907
5828.000000;0.436113
5827.000000;0.436320
5826.000000;0.436528
5825.000000;0.436730
5824.000000;0.436941
5823.000000;0.437196
5822.000000;0.437499
5821.000000;0.437821
5820.000000;0.438137
5819.000000;0.438443
5818.000000;0.438731
5817.000000;0.438988
5816.000000;0.439221
5815.000000;0.439464
5814.000000;0.439743
5813.000000;0.440059
5812.000000;0.440389
5811.000000;0.440707
5810.000000;0.440988
5809.000000;0.441230
5808.000000;0.441455
5807.000000;0.441690
5806.000000;0.441948
5805.000000;0.442227
5804.000000;0.442521
5803.000000;0.442819
5802.000000;0.443105
5801.000000;0.443385
5800.000000;0.443689
5799.000000;0.444029
5798.000000;0.444380
5797.000000;0.444709
5796.000000;0.445025
5795.000000;0.445357
5794.000000;0.445710
5793.000000;0.446070
5792.000000;0.446438
5791.000000;0.446821
5790.000000;0.447210
5789.000000;0.447579
5788.000000;0.447924
5787.000000;0.448253
5786.000000;0.448567
5785.000000;0.448871
5784.000000;0.449195
5783.000000;0.449574
5782.000000;0.450006
5781.000000;0.450457
5780.000000;0.450902
5779.000000;0.451334
5778.000000;0.451749
5777.000000;0.452154
5776.000000;0.452574
5775.000000;0.453019
5774.000000;0.453456
5773.000000;0.453843
5772.000000;0.454187
5771.000000;0.454539
5770.000000;0.454929
5769.000000;0.455347
5768.000000;0.455770
5767.000000;0.456185
5766.000000;0.456596
5765.000000;0.457015
5764.000000;0.457466
5763.000000;0.457951
5762.000000;0.458440
5761.000000;0.458913
5760.000000;0.459386
5759.000000;0.459885
5758.000000;0.460393
5757.000000;0.460881
5756.000000;0.461342
5755.000000;0.461793
5754.000000;0.462235
5753.000000;0.462675
5752.000000;0.463146
5751.000000;0.463680
5750.000000;0.464250
5749.000000;0.464797
5748.000000;0.465305
5747.000000;0.465813
5746.000000;0.466344
5745.000000;0.466887
5744.000000;0.467418
5743.000000;0.467937
5742.000000;0.468447
5741.000000;0.468957
5740.000000;0.469483
5739.000000;0.470035
5738.000000;0.470595
5737.000000;0.471138
5736.000000;0.471673
5735.000000;0.472226
5734.000000;0.472803
5733.000000;0.473391
5732.000000;0.474004
5731.000000;0.474665
5730.000000;0.475354
5729.000000;0.476020
5728.000000;0.476639
5727.000000;0.477229
5726.000000;0.477818
5725.000000;0.478414
5724.000000;0.479024
5723.000000;0.479648
5722.000000;0.480266
5721.000000;0.480857
5720.000000;0.481431
5719.000000;0.482023
5718.000000;0.482653
5717.000000;0.483312
5716.000000;0.483982
5715.000000;0.484639
5714.000000;0.485260
5713.000000;0.485847
5712.000000;0.486456
5711.000000;0.487139
5710.000000;0.487875
5709.000000;0.488593
5708.000000;0.489257
5707.000000;0.489897
5706.000000;0.490551
5705.000000;0.491232
5704.000000;0.491950
5703.000000;0.492707
5702.000000;0.493470
5701.000000;0.494202
5700.000000;0.494898
5699.000000;0.495602
5698.000000;0.496340
5697.000000;0.497075
5696.000000;0.497765
5695.000000;0.498416
5694.000000;0.499071
5693.000000;0.499766
5692.000000;0.500509
5691.000000;0.501273
5690.000000;0.502010
5689.000000;0.502698
5688.000000;0.503373
5687.000000;0.504091
5686.000000;0.504864
5685.000000;0.505647
5684.000000;0.506399
5683.000000;0.507115
5682.000000;0.507811
5681.000000;0.508507
5680.000000;0.509220
5679.000000;0.509941
5678.000000;0.510642
5677.000000;0.511307
5676.000000;0.511965
5675.000000;0.512648
5674.000000;0.513349
5673.000000;0.514048
5672.000000;0.514765
5671.000000;0.515532
5670.000000;0.516327
5669.000000;0.517099
5668.000000;0.517829
5667.000000;0.518544
5666.000000;0.519254
5665.000000;0.519945
5664.000000;0.520619
5663.000000;0.521302
5662.000000;0.522000
5661.000000;0.522701
5660.000000;0.523406
5659.000000;0.524120
5658.000000;0.524810
5657.000000;0.525436
5656.000000;0.526013
5655.000000;0.526604
5654.000000;0.527246
5653.000000;0.527922
5652.000000;0.528609
5651.000000;0.529303
5650.000000;0.529985
5649.000000;0.530624
5648.000000;0.531219
5647.000000;0.531797
5646.000000;0.532367
5645.000000;0.532921
5644.000000;0.533478
5643.000000;0.534077
5642.000000;0.534729
5641.000000;0.535390
5640.000000;0.536019
5639.000000;0.536608
5638.000000;0.537150
5637.000000;0.537639
5636.000000;0.538091
5635.000000;0.538553
5634.000000;0.539056
5633.000000;0.539594
5632.000000;0.540146
5631.000000;0.540699
5630.000000;0.541236
5629.000000;0.541751
5628.000000;0.542259
5627.000000;0.542776
5626.000000;0.543289
5625.000000;0.543771
5624.000000;0.544228
5623.000000;0.544679
5622.000000;0.545116
5621.000000;0.545518
5620.000000;0.545901
5619.000000;0.546301
5618.000000;0.546716
5617.000000;0.547111
5616.000000;0.547480
5615.000000;0.547849
5614.000000;0.548222
5613.000000;0.548565
5612.000000;0.548868
5611.000000;0.549173
5610.000000;0.549516
5609.000000;0.549888
5608.000000;0.550251
5607.000000;0.550571
5606.000000;0.550834
5605.000000;0.551060
5604.000000;0.551289
5603.000000;0.551543
5602.000000;0.551803
5601.000000;0.552049
5600.000000;0.552305
5599.000000;0.552605
5598.000000;0.552925
5597.000000;0.553203
5596.000000;0.553413
5595.000000;0.553575
5594.000000;0.553705
5593.000000;0.553810
5592.000000;0.553920
5591.000000;0.554066
5590.000000;0.554236
5589.000000;0.554395
5588.000000;0.554542
5587.000000;0.554706
5586.000000;0.554881
5585.000000;0.555033
5584.000000;0.555148
5583.000000;0.555225
5582.000000;0.555247
5581.000000;0.555216
5580.000000;0.555204
5579.000000;0.555299
5578.000000;0.555478
5577.000000;0.555640
5576.000000;0.555732
5575.000000;0.555794
5574.000000;0.555865
5573.000000;0.555925
5572.000000;0.555952
5571.000000;0.555960
5570.000000;0.555949
5569.000000;0.555893
5568.000000;0.555803
5567.000000;0.555740
5566.000000;0.555730
5565.000000;0.555730
5564.000000;0.555689
5563.000000;0.555612
5562.000000;0.555530
5561.000000;0.555459
5560.000000;0.555419
5559.000000;0.555437
5558.000000;0.555509
5557.000000;0.555582
5556.000000;0.555608
5555.000000;0.555588
5554.000000;0.555551
5553.000000;0.555507
5552.000000;0.555449
5551.000000;0.555371
5550.000000;0.555269
5549.000000;0.555150
5548.000000;0.555040
5547.000000;0.554956
5546.000000;0.554875
5545.000000;0.554763
5544.000000;0.554627
5543.000000;0.554504
5542.000000;0.554406
5541.000000;0.554305
5540.000000;0.554191
5539.000000;0.554099
5538.000000;0.554064
5537.000000;0.554062
5536.000000;0.554041
5535.000000;0.553969
5534.000000;0.553852
5533.000000;0.553714
5532.000000;0.553578
5531.000000;0.553457
5530.000000;0.553350
5529.000000;0.553260
5528.000000;0.553209
5527.000000;0.553191
5526.000000;0.553151
5525.000000;0.553049
5524.000000;0.552923
5523.000000;0.552850
5522.000000;0.552839
5521.000000;0.552804
5520.000000;0.552697
5519.000000;0.552576
5518.000000;0.552515
5517.000000;0.552500
5516.000000;0.552444
5515.000000;0.552311
5514.000000;0.552183
5513.000000;0.552150
5512.000000;0.552193
5511.000000;0.552225
5510.000000;0.552215
5509.000000;0.552221
5508.000000;0.552265
5507.000000;0.552258
5506.000000;0.552131
5505.000000;0.552003
5504.000000;0.552025
5503.000000;0.552144
5502.000000;0.552158
5501.000000;0.551991
5500.000000;0.551863
5499.000000;0.552014
5498.000000;0.552342
5497.000000;0.552546
5496.000000;0.552565
5495.000000;0.552645
5494.000000;0.552962
5493.000000;0.553315
5492.000000;0.553375
5491.000000;0.553144
5490.000000;0.552941
5489.000000;0.552970
5488.000000;0.553107
5487.000000;0.553135
5486.000000;0.553034
5485.000000;0.552969
5484.000000;0.552997
5483.000000;0.553054
5482.000000;0.553224
5481.000000;0.553649
5480.000000;0.554199
5479.000000;0.554530
5478.000000;0.554523
5477.000000;0.554519
5476.000000;0.554869
5475.000000;0.555388
5474.000000;0.555638
5473.000000;0.555627
5472.000000;0.555745
5471.000000;0.556153
5470.000000;0.556626
5469.000000;0.556947
5468.000000;0.557216
5467.000000;0.557610
5466.000000;0.558063
5465.000000;0.558446
5464.000000;0.558782
5463.000000;0.559142
5462.000000;0.559539
5461.000000;0.559961
5460.000000;0.560374
5459.000000;0.560731
5458.000000;0.561037
5457.000000;0.561402
5456.000000;0.561957
5455.000000;0.562609
5454.000000;0.563090
5453.000000;0.563413
5452.000000;0.563953
5451.000000;0.564927
5450.000000;0.566017
5449.000000;0.566723
5448.000000;0.567110
5447.000000;0.567748
5446.000000;0.568815
5445.000000;0.569814
5444.000000;0.570336
5443.000000;0.570631
5442.000000;0.571290
5441.000000;0.572484
5440.000000;0.573718
5439.000000;0.574494
5438.000000;0.574931
5437.000000;0.575529
5436.000000;0.576652
5435.000000;0.578215
5434.000000;0.579735
5433.000000;0.580840
5432.000000;0.581652
5431.000000;0.582568
5430.000000;0.583816
5429.000000;0.585223
5428.000000;0.586432
5427.000000;0.587348
5426.000000;0.588228
5425.000000;0.589369
5424.000000;0.590818
5423.000000;0.592328
5422.000000;0.593667
5421.000000;0.595039
5420.000000;0.596867
5419.000000;0.599127
5418.000000;0.601316
5417.000000;0.603141
5416.000000;0.604947
5415.000000;0.607169
5414.000000;0.609597
5413.000000;0.611667
5412.000000;0.613329
5411.000000;0.615082
5410.000000;0.617170
5409.000000;0.619295
5408.000000;0.621216
5407.000000;0.623135
5406.000000;0.625347
5405.000000;0.627763
5404.000000;0.630181
5403.000000;0.632720
5402.000000;0.635491
5401.000000;0.638396
5400.000000;0.641451
5399.000000;0.644754
5398.000000;0.648178
5397.000000;0.651379
5396.000000;0.654294
5395.000000;0.657331
5394.000000;0.660764
5393.000000;0.664385
5392.000000;0.667998
5391.000000;0.671786
5390.000000;0.675892
5389.000000;0.680080
5388.000000;0.684107
5387.000000;0.688183
5386.000000;0.692618
5385.000000;0.697192
5384.000000;0.701624
5383.000000;0.706273
5382.000000;0.711517
5381.000000;0.716998
5380.000000;0.722163
5379.000000;0.727152
5378.000000;0.732592
5377.000000;0.738565
5376.000000;0.744521
5375.000000;0.750256
5374.000000;0.756172
5373.000000;0.762500
5372.000000;0.769006
5371.000000;0.775563
5370.000000;0.782452
5369.000000;0.789820
5368.000000;0.797352
5367.000000;0.804848
5366.000000;0.812599
5365.000000;0.820836
5364.000000;0.829375
5363.000000;0.838021
5362.000000;0.846842
5361.000000;0.855979
5360.000000;0.865454
5359.000000;0.875271
5358.000000;0.885444
5357.000000;0.895823
5356.000000;0.906264
5355.000000;0.917063
5354.000000;0.928689
5353.000000;0.940916
5352.000000;0.953004
5351.000000;0.964972
5350.000000;0.977616
5349.000000;0.991131
5348.000000;1.004730
5347.000000;1.017924
5346.000000;1.031452
5345.000000;1.046254
5344.000000;1.062025
5343.000000;1.077738
5342.000000;1.093240
5341.000000;1.109203
5340.000000;1.125992
5339.000000;1.143454
5338.000000;1.161430
5337.000000;1.179836
5336.000000;1.198396
5335.000000;1.217027
5334.000000;1.236357
5333.000000;1.256989
5332.000000;1.278528
5331.000000;1.300126
5330.000000;1.321695
5329.000000;1.343904
5328.000000;1.367132
5327.000000;1.391050
5326.000000;1.415283
5325.000000;1.439807
5324.000000;1.464640
5323.000000;1.489954
5322.000000;1.516418
5321.000000;1.544491
5320.000000;1.573526
5319.000000;1.602412
5318.000000;1.631018
5317.000000;1.660148
5316.000000;1.690173
5315.000000;1.720772
5314.000000;1.751932
5313.000000;1.783901
5312.000000;1.816209
5311.000000;1.848113
5310.000000;1.879908
5309.000000;1.912508
5308.000000;1.945838
5307.000000;1.979037
5306.000000;2.012028
5305.000000;2.045180
5304.000000;2.077789
5303.000000;2.108921
5302.000000;2.139346
5301.000000;2.170373
5300.000000;2.201331
5299.000000;2.230730
5298.000000;2.259361
5297.000000;2.289324
5296.000000;2.320226
5295.000000;2.349473
5294.000000;2.375965
5293.000000;2.400186
5292.000000;2.421336
5291.000000;2.438146
5290.000000;2.451950
5289.000000;2.465336
5288.000000;2.478860
5287.000000;2.492277
5286.000000;2.506929
5285.000000;2.523300
5284.000000;2.538004
5283.000000;2.547345
5282.000000;2.552461
5281.000000;2.556832
5280.000000;2.561228
5279.000000;2.564719
5278.000000;2.568311
5277.000000;2.573923
5276.000000;2.580738
5275.000000;2.585740
5274.000000;2.587377
5273.000000;2.586825
5272.000000;2.587037
5271.000000;2.591560
5270.000000;2.601116
5269.000000;2.610473
5268.000000;2.613211
5267.000000;2.610296
5266.000000;2.608056
5265.000000;2.608402
5264.000000;2.607656
5263.000000;2.605429
5262.000000;2.607195
5261.000000;2.614961
5260.000000;2.621993
5259.000000;2.620887
5258.000000;2.612523
5257.000000;2.602646
5256.000000;2.595316
5255.000000;2.593011
5254.000000;2.597166
5253.000000;2.604409
5252.000000;2.607275
5251.000000;2.603837
5250.000000;2.600811
5249.000000;2.603279
5248.000000;2.607191
5247.000000;2.605767
5246.000000;2.599302
5245.000000;2.592906
5244.000000;2.588954
5243.000000;2.587002
5242.000000;2.587319
5241.000000;2.590299
5240.000000;2.594452
5239.000000;2.598166
5238.000000;2.601868
5237.000000;2.605549
5236.000000;2.607038
5235.000000;2.605741
5234.000000;2.604087
5233.000000;2.602691
5232.000000;2.598155
5231.000000;2.588665
5230.000000;2.578159
5229.000000;2.571636
5228.000000;2.569976
5227.000000;2.571595
5226.000000;2.575479
5225.000000;2.580262
5224.000000;2.583681
5223.000000;2.585667
5222.000000;2.588605
5221.000000;2.592241
5220.000000;2.592127
5219.000000;2.586235
5218.000000;2.579335
5217.000000;2.576562
5216.000000;2.577034
5215.000000;2.577534
5214.000000;2.578522
5213.000000;2.582166
5212.000000;2.586731
5211.000000;2.587731
5210.000000;2.584172
5209.000000;2.579265
5208.000000;2.575352
5207.000000;2.572220
5206.000000;2.569536
5205.000000;2.567352
5204.000000;2.564599
5203.000000;2.559925
5202.000000;2.554289
5201.000000;2.550995
5200.000000;2.552956
5199.000000;2.560311
5198.000000;2.569609
5197.000000;2.575362
5196.000000;2.574586
5195.000000;2.570247
5194.000000;2.567987
5193.000000;2.569068
5192.000000;2.569072
5191.000000;2.564730
5190.000000;2.559119
5189.000000;2.557364
5188.000000;2.559708
5187.000000;2.561929
5186.000000;2.561373
5185.000000;2.559413
5184.000000;2.558549
5183.000000;2.559630
5182.000000;2.561424
5181.000000;2.561769
5180.000000;2.559718
5179.000000;2.556893
5178.000000;2.556277
5177.000000;2.559300
5176.000000;2.564448
5175.000000;2.569334
5174.000000;2.572918
5173.000000;2.574932
5172.000000;2.575297
5171.000000;2.575299
5170.000000;2.577192
5169.000000;2.580845
5168.000000;2.582550
5167.000000;2.579670
5166.000000;2.574834
5165.000000;2.572997
5164.000000;2.575649
5163.000000;2.579130
5162.000000;2.578708
5161.000000;2.573355
5160.000000;2.565886
5159.000000;2.559804
5158.000000;2.556786
5157.000000;2.556610
5156.000000;2.558537
5155.000000;2.562096
5154.000000;2.566379
5153.000000;2.569412
5152.000000;2.569529
5151.000000;2.567118
5150.000000;2.564171
5149.000000;2.562647
5148.000000;2.563552
5147.000000;2.566404
5146.000000;2.568648
5145.000000;2.567280
5144.000000;2.562554
5143.000000;2.558291
5142.000000;2.557143
5141.000000;2.557499
5140.000000;2.556607
5139.000000;2.554817
5138.000000;2.554911
5137.000000;2.558539
5136.000000;2.565088
5135.000000;2.572740
5134.000000;2.577769
5133.000000;2.574849
5132.000000;2.562912
5131.000000;2.548974
5130.000000;2.541554
5129.000000;2.542230
5128.000000;2.546225
5127.000000;2.549689
5126.000000;2.553037
5125.000000;2.557068
5124.000000;2.559964
5123.000000;2.559550
5122.000000;2.555814
5121.000000;2.550363
5120.000000;2.546046
5119.000000;2.546970
5118.000000;2.555295
5117.000000;2.567094
5116.000000;2.574409
5115.000000;2.573593
5114.000000;2.568742
5113.000000;2.565360
5112.000000;2.564808
5111.000000;2.565535
5110.000000;2.565845
5109.000000;2.564353
5108.000000;2.560592
5107.000000;2.556482
5106.000000;2.554747
5105.000000;2.555076
5104.000000;2.554513
5103.000000;2.551958
5102.000000;2.548909
5101.000000;2.545772
5100.000000;2.541744
5099.000000;2.538498
5098.000000;2.539244
5097.000000;2.543484
5096.000000;2.546446
5095.000000;2.545505
5094.000000;2.544173
5093.000000;2.546578
5092.000000;2.551560
5091.000000;2.554931
5090.000000;2.554865
5089.000000;2.552618
5088.000000;2.549837
5087.000000;2.547640
5086.000000;2.546597
5085.000000;2.545870
5084.000000;2.543764
5083.000000;2.540126
5082.000000;2.537100
5081.000000;2.536381
5080.000000;2.537143
5079.000000;2.537804
5078.000000;2.537950
5077.000000;2.537372
5076.000000;2.535390
5075.000000;2.532527
5074.000000;2.531071
5073.000000;2.532147
5072.000000;2.533668
5071.000000;2.533244
5070.000000;2.531430
5069.000000;2.530427
5068.000000;2.531165
5067.000000;2.532901
5066.000000;2.534498
5065.000000;2.534820
5064.000000;2.533005
5063.000000;2.529929
5062.000000;2.528432
5061.000000;2.530708
5060.000000;2.535758
5059.000000;2.539928
5058.000000;2.539999
5057.000000;2.535837
5056.000000;2.530102
5055.000000;2.525474
5054.000000;2.522041
5053.000000;2.518041
5052.000000;2.513384
5051.000000;2.510526
5050.000000;2.510755
5049.000000;2.511663
5048.000000;2.510465
5047.000000;2.508419
5046.000000;2.508851
5045.000000;2.511735
5044.000000;2.513614
5043.000000;2.512592
5042.000000;2.509852
5041.000000;2.505860
5040.000000;2.499204
5039.000000;2.490406
5038.000000;2.483253
5037.000000;2.480967
5036.000000;2.483326
5035.000000;2.488019
5034.000000;2.493172
5033.000000;2.497515
5032.000000;2.499868
5031.000000;2.500069
5030.000000;2.498705
5029.000000;2.495366
5028.000000;2.489430
5027.000000;2.482648
5026.000000;2.477947
5025.000000;2.475190
5024.000000;2.471187
5023.000000;2.464872
5022.000000;2.459402
5021.000000;2.457662
5020.000000;2.458534
5019.000000;2.459167
5018.000000;2.458620
5017.000000;2.457181
5016.000000;2.454178
5015.000000;2.449080
5014.000000;2.443435
5013.000000;2.439604
5012.000000;2.438141
5011.000000;2.437590
5010.000000;2.436230
5009.000000;2.432973
5008.000000;2.427407
5007.000000;2.420451
5006.000000;2.414394
5005.000000;2.411110
5004.000000;2.410491
5003.000000;2.410902
5002.000000;2.410549
5001.000000;2.408174
5000.000000;2.403232
4999.000000;2.396612
4998.000000;2.390108
4997.000000;2.384700
4996.000000;2.380075
4995.000000;2.375803
4994.000000;2.372212
4993.000000;2.369356
4992.000000;2.365968
4991.000000;2.360693
4990.000000;2.353843
4989.000000;2.347020
4988.000000;2.341352
4987.000000;2.336636
4986.000000;2.331790
4985.000000;2.325804
4984.000000;2.318911
4983.000000;2.312838
4982.000000;2.308953
4981.000000;2.306299
4980.000000;2.302570
4979.000000;2.297243
4978.000000;2.292477
4977.000000;2.290256
4976.000000;2.289715
4975.000000;2.287932
4974.000000;2.282721
4973.000000;2.274050
4972.000000;2.263527
4971.000000;2.253391
4970.000000;2.245484
4969.000000;2.240237
4968.000000;2.236561
4967.000000;2.233017
4966.000000;2.229047
4965.000000;2.225192
4964.000000;2.222482
4963.000000;2.221444
4962.000000;2.221064
4961.000000;2.218980
4960.000000;2.213503
4959.000000;2.205390
4958.000000;2.196881
4957.000000;2.189236
4956.000000;2.182113
4955.000000;2.174874
4954.000000;2.167309
4953.000000;2.159321
4952.000000;2.151254
4951.000000;2.144522
4950.000000;2.140494
4949.000000;2.138457
4948.000000;2.135849
4947.000000;2.131051
4946.000000;2.124809
4945.000000;2.118418
4944.000000;2.112075
4943.000000;2.105770
4942.000000;2.100237
4941.000000;2.095829
4940.000000;2.091490
4939.000000;2.086074
4938.000000;2.080062
4937.000000;2.074819
4936.000000;2.070596
4935.000000;2.066223
4934.000000;2.060550
4933.000000;2.053489
4932.000000;2.045802
4931.000000;2.038455
4930.000000;2.031926
4929.000000;2.025686
4928.000000;2.018753
4927.000000;2.011161
4926.000000;2.004309
4925.000000;1.999345
4924.000000;1.995748
4923.000000;1.992059
4922.000000;1.987515
4921.000000;1.982262
4920.000000;1.976492
4919.000000;1.970313
4918.000000;1.964202
4917.000000;1.958610
4916.000000;1.953172
4915.000000;1.947081
4914.000000;1.940306
4913.000000;1.933751
4912.000000;1.928130
4911.000000;1.923253
4910.000000;1.918466
4909.000000;1.913239
4908.000000;1.907301
4907.000000;1.900737
4906.000000;1.894107
4905.000000;1.888030
4904.000000;1.882564
4903.000000;1.877310
4902.000000;1.872086
4901.000000;1.867102
4900.000000;1.862393
4899.000000;1.857529
4898.000000;1.852105
4897.000000;1.846151
4896.000000;1.839964
4895.000000;1.833844
4894.000000;1.828039
4893.000000;1.822610
4892.000000;1.817257
4891.000000;1.811653
4890.000000;1.806073
4889.000000;1.801267
4888.000000;1.797511
4887.000000;1.794020
4886.000000;1.789549
4885.000000;1.783542
4884.000000;1.776578
4883.000000;1.769790
4882.000000;1.763948
4881.000000;1.758935
4880.000000;1.753969
4879.000000;1.748457
4878.000000;1.742638
4877.000000;1.737209
4876.000000;1.732415
4875.000000;1.727812
4874.000000;1.722894
4873.000000;1.717555
4872.000000;1.711851
4871.000000;1.705745
4870.000000;1.699362
4869.000000;1.693147
4868.000000;1.687444
4867.000000;1.682201
4866.000000;1.677313
4865.000000;1.672896
4864.000000;1.668875
4863.000000;1.664595
4862.000000;1.659418
4861.000000;1.653587
4860.000000;1.647958
4859.000000;1.642945
4858.000000;1.638243
4857.000000;1.633590
4856.000000;1.629142
4855.000000;1.624905
4854.000000;1.620363
4853.000000;1.615080
4852.000000;1.609348
4851.000000;1.603829
4850.000000;1.598808
4849.000000;1.594127
4848.000000;1.589600
4847.000000;1.585109
4846.000000;1.580427
4845.000000;1.575390
4844.000000;1.570258
4843.000000;1.565563
4842.000000;1.561525
4841.000000;1.557801
4840.000000;1.553840
4839.000000;1.549311
4838.000000;1.544243
4837.000000;1.538944
4836.000000;1.533849
4835.000000;1.529203
4834.000000;1.524838
4833.000000;1.520342
4832.000000;1.515495
4831.000000;1.510425
4830.000000;1.505377
4829.000000;1.500507
4828.000000;1.495904
4827.000000;1.491625
4826.000000;1.487631
4825.000000;1.483818
4824.000000;1.480105
4823.000000;1.476383
4822.000000;1.472415
4821.000000;1.467994
4820.000000;1.463253
4819.000000;1.458575
4818.000000;1.454139
4817.000000;1.449782
4816.000000;1.445390
4815.000000;1.441172
4814.000000;1.437327
4813.000000;1.433612
4812.000000;1.429502
4811.000000;1.424791
4810.000000;1.419802
4809.000000;1.415028
4808.000000;1.410668
4807.000000;1.406581
4806.000000;1.402543
4805.000000;1.398471
4804.000000;1.394437
4803.000000;1.390512
4802.000000;1.386659
4801.000000;1.382775
4800.000000;1.378837
4799.000000;1.374897
4798.000000;1.370970
4797.000000;1.366980
4796.000000;1.362876
4795.000000;1.358696
4794.000000;1.354491
4793.000000;1.350250
4792.000000;1.345991
4791.000000;1.341852
4790.000000;1.338008
4789.000000;1.334465
4788.000000;1.331007
4787.000000;1.327359
4786.000000;1.323415
4785.000000;1.319322
4784.000000;1.315356
4783.000000;1.311665
4782.000000;1.308131
4781.000000;1.304507
4780.000000;1.300713
4779.000000;1.296933
4778.000000;1.293374
4777.000000;1.289988
4776.000000;1.286507
4775.000000;1.282734
4774.000000;1.278737
4773.000000;1.274743
4772.000000;1.270914
4771.000000;1.267275
4770.000000;1.263811
4769.000000;1.260533
4768.000000;1.257404
4767.000000;1.254263
4766.000000;1.250921
4765.000000;1.247331
4764.000000;1.243595
4763.000000;1.239807
4762.000000;1.235996
4761.000000;1.232242
4760.000000;1.228732
4759.000000;1.225581
4758.000000;1.222669
4757.000000;1.219757
4756.000000;1.216728
4755.000000;1.213628
4754.000000;1.210518
4753.000000;1.207385
4752.000000;1.204186
4751.000000;1.200865
4750.000000;1.197366
4749.000000;1.193734
4748.000000;1.190177
4747.000000;1.186903
4746.000000;1.183896
4745.000000;1.180958
4744.000000;1.177972
4743.000000;1.174991
4742.000000;1.172071
4741.000000;1.169152
4740.000000;1.166167
4739.000000;1.163126
4738.000000;1.160059
4737.000000;1.156951
4736.000000;1.153824
4735.000000;1.150779
4734.000000;1.147902
4733.000000;1.145183
4732.000000;1.142538
4731.000000;1.139851
4730.000000;1.136974
4729.000000;1.133855
4728.000000;1.130687
4727.000000;1.127799
4726.000000;1.125295
4725.000000;1.122906
4724.000000;1.120287
4723.000000;1.117376
4722.000000;1.114370
4721.000000;1.111470
4720.000000;1.108764
4719.000000;1.106287
4718.000000;1.104011
4717.000000;1.101776
4716.000000;1.099379
4715.000000;1.096752
4714.000000;1.093996
4713.000000;1.091247
4712.000000;1.088567
4711.000000;1.085960
4710.000000;1.083410
4709.000000;1.080905
4708.000000;1.078475
4707.000000;1.076187
4706.000000;1.074050
4705.000000;1.071928
4704.000000;1.069633
4703.000000;1.067096
4702.000000;1.064417
4701.000000;1.061764
4700.000000;1.059266
4699.000000;1.056973
4698.000000;1.054826
4697.000000;1.052675
4696.000000;1.050428
4695.000000;1.048172
4694.000000;1.046077
4693.000000;1.044153
4692.000000;1.042188
4691.000000;1.039960
4690.000000;1.037482
4689.000000;1.034983
4688.000000;1.032704
4687.000000;1.030739
4686.000000;1.029018
4685.000000;1.027367
4684.000000;1.025598
4683.000000;1.023613
4682.000000;1.021474
4681.000000;1.019351
4680.000000;1.017371
4679.000000;1.015521
4678.000000;1.013706
4677.000000;1.011867
4676.000000;1.010013
4675.000000;1.008149
4674.000000;1.006242
4673.000000;1.004271
4672.000000;1.002283
4671.000000;1.000354
4670.000000;0.998523
4669.000000;0.996804
4668.000000;0.995200
4667.000000;0.993682
4666.000000;0.992150
4665.000000;0.990501
4664.000000;0.988724
4663.000000;0.986880
4662.000000;0.985007
4661.000000;0.983121
4660.000000;0.981306
4659.000000;0.979686
4658.000000;0.978284
4657.000000;0.976973
4656.000000;0.975628
4655.000000;0.974239
4654.000000;0.972831
4653.000000;0.971333
4652.000000;0.969637
4651.000000;0.967772
4650.000000;0.965924
4649.000000;0.964291
4648.000000;0.962937
4647.000000;0.961767
4646.000000;0.960588
4645.000000;0.959222
4644.000000;0.957636
4643.000000;0.955982
4642.000000;0.954470
4641.000000;0.953186
4640.000000;0.952041
4639.000000;0.950900
4638.000000;0.949692
4637.000000;0.948413
4636.000000;0.947076
4635.000000;0.945702
4634.000000;0.944334
4633.000000;0.943029
4632.000000;0.941807
4631.000000;0.940635
4630.000000;0.939476
4629.000000;0.938346
4628.000000;0.937292
4627.000000;0.936303
4626.000000;0.935290
4625.000000;0.934164
4624.000000;0.932943
4623.000000;0.931724
4622.000000;0.930564
4621.000000;0.929421
4620.000000;0.928234
4619.000000;0.927031
4618.000000;0.925917
4617.000000;0.924974
4616.000000;0.924178
4615.000000;0.923398
4614.000000;0.922493
4613.000000;0.921436
4612.000000;0.920355
4611.000000;0.919433
4610.000000;0.918731
4609.000000;0.918123
4608.000000;0.917410
4607.000000;0.916504
4606.000000;0.915487
4605.000000;0.914513
4604.000000;0.913652
4603.000000;0.912840
4602.000000;0.911985
4601.000000;0.911108
4600.000000;0.910342
4599.000000;0.909762
4598.000000;0.909267
4597.000000;0.908672
4596.000000;0.907905
4595.000000;0.907053
4594.000000;0.906216
4593.000000;0.905404
4592.000000;0.904601
4591.000000;0.903862
4590.000000;0.903279
4589.000000;0.902876
4588.000000;0.902578
4587.000000;0.902282
4586.000000;0.901920
4585.000000;0.901470
4584.000000;0.900943
4583.000000;0.900373
4582.000000;0.899807
4581.000000;0.899292
4580.000000;0.898842
4579.000000;0.898423
4578.000000;0.897987
4577.000000;0.897530
4576.000000;0.897105
4575.000000;0.896742
4574.000000;0.896404
4573.000000;0.896045
4572.000000;0.895705
4571.000000;0.895474
4570.000000;0.895389
4569.000000;0.895390
4568.000000;0.895373
4567.000000;0.895251
4566.000000;0.894999
4565.000000;0.894687
4564.000000;0.894461
4563.000000;0.894417
4562.000000;0.894495
4561.000000;0.894566
4560.000000;0.894609
4559.000000;0.894718
4558.000000;0.894920
4557.000000;0.895109
4556.000000;0.895185
4555.000000;0.895180
4554.000000;0.895183
4553.000000;0.895219
4552.000000;0.895267
4551.000000;0.895345
4550.000000;0.895477
4549.000000;0.895623
4548.000000;0.895708
4547.000000;0.895733
4546.000000;0.895803
4545.000000;0.896043
4544.000000;0.896499
4543.000000;0.897097
4542.000000;0.897682
4541.000000;0.898123
4540.000000;0.898421
4539.000000;0.898705
4538.000000;0.899102
4537.000000;0.899620
4536.000000;0.900174
4535.000000;0.900685
4534.000000;0.901123
4533.000000;0.901479
4532.000000;0.901743
4531.000000;0.901921
4530.000000;0.902070
4529.000000;0.902287
4528.000000;0.902653
4527.000000;0.903163
4526.000000;0.903704
4525.000000;0.904140
4524.000000;0.904416
4523.000000;0.904561
4522.000000;0.904623
4521.000000;0.904653
4520.000000;0.904730
4519.000000;0.904921
4518.000000;0.905235
4517.000000;0.905660
4516.000000;0.906224
4515.000000;0.906931
4514.000000;0.907642
4513.000000;0.908169
4512.000000;0.908498
4511.000000;0.908831
4510.000000;0.909334
4509.000000;0.909937
4508.000000;0.910468
4507.000000;0.910881
4506.000000;0.911270
4505.000000;0.911705
4504.000000;0.912157
4503.000000;0.912589
4502.000000;0.913011
4501.000000;0.913466
4500.000000;0.913989
4499.000000;0.914578
4498.000000;0.915186
4497.000000;0.915757
4496.000000;0.916309
4495.000000;0.916928
4494.000000;0.917659
4493.000000;0.918436
4492.000000;0.919189
4491.000000;0.919966
4490.000000;0.920878
4489.000000;0.921945
4488.000000;0.923052
4487.000000;0.924078
4486.000000;0.924990
4485.000000;0.925827
4484.000000;0.926613
4483.000000;0.927339
4482.000000;0.928010
4481.000000;0.928697
4480.000000;0.929522
4479.000000;0.930560
4478.000000;0.931772
4477.000000;0.933041
4476.000000;0.934288
4475.000000;0.935491
4474.000000;0.936637
4473.000000;0.937711
4472.000000;0.938770
4471.000000;0.939946
4470.000000;0.941333
4469.000000;0.942912
4468.000000;0.944596
4467.000000;0.946278
4466.000000;0.947845
4465.000000;0.949233
4464.000000;0.950520
4463.000000;0.951867
4462.000000;0.953290
4461.000000;0.954601
4460.000000;0.955665
4459.000000;0.956633
4458.000000;0.957815
4457.000000;0.959356
4456.000000;0.961168
4455.000000;0.963100
4454.000000;0.965043
4453.000000;0.966877
4452.000000;0.968486
4451.000000;0.969888
4450.000000;0.971267
4449.000000;0.972788
4448.000000;0.974457
4447.000000;0.976196
4446.000000;0.977996
4445.000000;0.979910
4444.000000;0.981945
4443.000000;0.984007
4442.000000;0.985977
4441.000000;0.987800
4440.000000;0.989511
4439.000000;0.991206
4438.000000;0.993019
4437.000000;0.995074
4436.000000;0.997395
4435.000000;0.999850
4434.000000;1.002212
4433.000000;1.004356
4432.000000;1.006391
4431.000000;1.008540
4430.000000;1.010881
4429.000000;1.013260
4428.000000;1.015466
4427.000000;1.017464
4426.000000;1.019386
4425.000000;1.021355
4424.000000;1.023403
4423.000000;1.025552
4422.000000;1.027888
4421.000000;1.030470
4420.000000;1.033210
4419.000000;1.035893
4418.000000;1.038389
4417.000000;1.040808
4416.000000;1.043366
4415.000000;1.046114
4414.000000;1.048836
4413.000000;1.051269
4412.000000;1.053344
4411.000000;1.055205
4410.000000;1.057083
4409.000000;1.059231
4408.000000;1.061855
4407.000000;1.064952
4406.000000;1.068237
4405.000000;1.071370
4404.000000;1.074274
4403.000000;1.077141
4402.000000;1.080129
4401.000000;1.083169
4400.000000;1.086066
4399.000000;1.088682
4398.000000;1.091019
4397.000000;1.093263
4396.000000;1.095716
4395.000000;1.098554
4394.000000;1.101630
4393.000000;1.104634
4392.000000;1.107474
4391.000000;1.110342
4390.000000;1.113410
4389.000000;1.116636
4388.000000;1.119897
4387.000000;1.123103
4386.000000;1.126118
4385.000000;1.128776
4384.000000;1.131117
4383.000000;1.133471
4382.000000;1.136163
4381.000000;1.139247
4380.000000;1.142606
4379.000000;1.146139
4378.000000;1.149744
4377.000000;1.153269
4376.000000;1.156663
4375.000000;1.160052
4374.000000;1.163501
4373.000000;1.166823
4372.000000;1.169805
4371.000000;1.172559
4370.000000;1.175483
4369.000000;1.178885
4368.000000;1.182750
4367.000000;1.186796
4366.000000;1.190668
4365.000000;1.194168
4364.000000;1.197478
4363.000000;1.201066
4362.000000;1.205246
4361.000000;1.209860
4360.000000;1.214487
4359.000000;1.218882
4358.000000;1.223066
4357.000000;1.227081
4356.000000;1.230864
4355.000000;1.234339
4354.000000;1.237554
4353.000000;1.240734
4352.000000;1.244263
4351.000000;1.248459
4350.000000;1.253206
4349.000000;1.257919
4348.000000;1.262054
4347.000000;1.265617
4346.000000;1.269030
4345.000000;1.272656
4344.000000;1.276639
4343.000000;1.281056
4342.000000;1.285880
4341.000000;1.290782
4340.000000;1.295281
4339.000000;1.299201
4338.000000;1.302873
4337.000000;1.306806
4336.000000;1.311283
4335.000000;1.316245
4334.000000;1.321443
4333.000000;1.326621
4332.000000;1.331620
4331.000000;1.336341
4330.000000;1.340674
4329.000000;1.344644
4328.000000;1.348651
4327.000000;1.353288
4326.000000;1.358682
4325.000000;1.364198
4324.000000;1.369125
4323.000000;1.373556
4322.000000;1.378199
4321.000000;1.383366
4320.000000;1.388560
4319.000000;1.393203
4318.000000;1.397402
4317.000000;1.401786
4316.000000;1.406803
4315.000000;1.412378
4314.000000;1.418118
4313.000000;1.423634
4312.000000;1.428751
4311.000000;1.433594
4310.000000;1.438539
4309.000000;1.443999
4308.000000;1.450152
4307.000000;1.456707
4306.000000;1.462905
4305.000000;1.468005
4304.000000;1.472089
4303.000000;1.476310
4302.000000;1.481940
4301.000000;1.489025
4300.000000;1.496219
4299.000000;1.502046
4298.000000;1.506235
4297.000000;1.509728
4296.000000;1.513669
4295.000000;1.518712
4294.000000;1.525048
4293.000000;1.532481
4292.000000;1.540317
4291.000000;1.547512
4290.000000;1.553305
4289.000000;1.557741
4288.000000;1.561516
4287.000000;1.565500
4286.000000;1.570447
4285.000000;1.576747
4284.000000;1.583976
4283.000000;1.590854
4282.000000;1.596259
4281.000000;1.600478
4280.000000;1.605037
4279.000000;1.611168
4278.000000;1.618748
4277.000000;1.626760
4276.000000;1.634351
4275.000000;1.641173
4274.000000;1.647159
4273.000000;1.652533
4272.000000;1.657755
4271.000000;1.663102
4270.000000;1.668559
4269.000000;1.674419
4268.000000;1.681408
4267.000000;1.689526
4266.000000;1.697213
4265.000000;1.702667
4264.000000;1.705931
4263.000000;1.708838
4262.000000;1.713082
4261.000000;1.719311
4260.000000;1.727661
4259.000000;1.737790
4258.000000;1.748203
4257.000000;1.756963
4256.000000;1.763759
4255.000000;1.770263
4254.000000;1.777915
4253.000000;1.786354
4252.000000;1.794584
4251.000000;1.802435
4250.000000;1.809937
4249.000000;1.816294
4248.000000;1.820820
4247.000000;1.824322
4246.000000;1.828470
4245.000000;1.834035
4244.000000;1.840905
4243.000000;1.849392
4242.000000;1.860046
4241.000000;1.871939
4240.000000;1.882367
4239.000000;1.889113
4238.000000;1.892477
4237.000000;1.894577
4236.000000;1.897351
4235.000000;1.901773
4234.000000;1.908313
4233.000000;1.917242
4232.000000;1.928149
4231.000000;1.939606
4230.000000;1.950031
4229.000000;1.958993
4228.000000;1.967205
4227.000000;1.975088
4226.000000;1.982041
4225.000000;1.987596
4224.000000;1.992326
4223.000000;1.996633
4222.000000;1.999803
4221.000000;2.001977
4220.000000;2.006109
4219.000000;2.015577
4218.000000;2.029615
4217.000000;2.043044
4216.000000;2.052050
4215.000000;2.058209
4214.000000;2.065111
4213.000000;2.073475
4212.000000;2.081252
4211.000000;2.087019
4210.000000;2.091175
4209.000000;2.094707
4208.000000;2.098585
4207.000000;2.103708
4206.000000;2.110094
4205.000000;2.116617
4204.000000;2.123448
4203.000000;2.133242
4202.000000;2.147752
4201.000000;2.164641
4200.000000;2.179215
4199.000000;2.189612
4198.000000;2.198037
4197.000000;2.206572
4196.000000;2.214422
4195.000000;2.219762
4194.000000;2.222670
4193.000000;2.225710
4192.000000;2.232335
4191.000000;2.244738
4190.000000;2.261728
4189.000000;2.277198
4188.000000;2.283555
4187.000000;2.279180
4186.000000;2.270353
4185.000000;2.266056
4184.000000;2.271701
4183.000000;2.286112
4182.000000;2.302841
4181.000000;2.314899
4180.000000;2.321274
4179.000000;2.327308
4178.000000;2.336596
4177.000000;2.347080
4176.000000;2.354835
4175.000000;2.359513
4174.000000;2.364875
4173.000000;2.373544
4172.000000;2.383324
4171.000000;2.388831
4170.000000;2.387550
4169.000000;2.385443
4168.000000;2.393274
4167.000000;2.416749
4166.000000;2.449749
4165.000000;2.474680
4164.000000;2.480779
4163.000000;2.479604
4162.000000;2.483591
4161.000000;2.491483
4160.000000;2.498735
4159.000000;2.508156
4158.000000;2.527946
4157.000000;2.562738
4156.000000;2.607513
4155.000000;2.643787
4154.000000;2.643210
4153.000000;2.597351
4152.000000;2.536253
4151.000000;2.494767
4150.000000;2.485918
4149.000000;2.503871
4148.000000;2.535159
4147.000000;2.567015
4146.000000;2.588553
4145.000000;2.592173
4144.000000;2.582112
4143.000000;2.574655
4142.000000;2.582426
4141.000000;2.601999
4140.000000;2.618333
4139.000000;2.622037
4138.000000;2.618562
4137.000000;2.617953
4136.000000;2.624538
4135.000000;2.636897
4134.000000;2.651088
4133.000000;2.663674
4132.000000;2.673883
4131.000000;2.684542
4130.000000;2.692209
4129.000000;2.689481
4128.000000;2.685808
4127.000000;2.701223
4126.000000;2.742284
4125.000000;2.786675
4124.000000;2.802025
4123.000000;2.792492
4122.000000;2.789125
4121.000000;2.799088
4120.000000;2.797957
4119.000000;2.770489
4118.000000;2.737999
4117.000000;2.725106
4116.000000;2.735527
4115.000000;2.755052
4114.000000;2.768693
4113.000000;2.777947
4112.000000;2.795139
4111.000000;2.826392
4110.000000;2.866542
4109.000000;2.901429
4108.000000;2.909633
4107.000000;2.897073
4106.000000;2.897166
4105.000000;2.892940
4104.000000;2.865877
4103.000000;2.852754
4102.000000;2.868198
4101.000000;2.894812
4100.000000;2.915576
4099.000000;2.931738
4098.000000;2.953176
4097.000000;2.971111
4096.000000;2.959576
4095.000000;2.914496
4094.000000;2.860678
4093.000000;2.820996
4092.000000;2.808420
4091.000000;2.826226
4090.000000;2.851453
4089.000000;2.857459
4088.000000;2.856221
4087.000000;2.842717
4086.000000;2.817991
4085.000000;2.807910
4084.000000;2.823549
4083.000000;2.873567
4082.000000;2.967291
4081.000000;3.099345
4080.000000;3.191096
4079.000000;3.177927
4078.000000;3.172471
4077.000000;3.225440
4076.000000;3.238981
4075.000000;3.157421
4074.000000;3.075048
4073.000000;3.038700
4072.000000;3.043070
4071.000000;3.081290
4070.000000;3.134534
4069.000000;3.115055
4068.000000;3.043713
4067.000000;2.982357
4066.000000;2.963681
4065.000000;3.011599
4064.000000;3.085574
4063.000000;3.071580
4062.000000;2.981011
4061.000000;2.914144
4060.000000;2.902524
4059.000000;2.936487
4058.000000;2.996800
4057.000000;3.071255
4056.000000;3.150822
4055.000000;3.227748
4054.000000;3.277058
4053.000000;3.243989
4052.000000;3.129684
4051.000000;2.976627
4050.000000;2.870229
4049.000000;2.850744
4048.000000;2.899519
4047.000000;2.968997
4046.000000;3.023384
4045.000000;3.071104
4044.000000;3.032614
4043.000000;2.939504
4042.000000;2.920787
4041.000000;2.988937
4040.000000;3.072142
4039.000000;3.094957
4038.000000;3.077715
4037.000000;3.075359
4036.000000;3.127679
4035.000000;3.233081
4034.000000;3.320029
4033.000000;3.292859
4032.000000;3.133494
4031.000000;3.001527
4030.000000;2.970838
4029.000000;3.019500
4028.000000;3.070982
4027.000000;3.083200
4026.000000;3.126285
4025.000000;3.262495
4024.000000;3.507677
4023.000000;3.700786
4022.000000;3.827029
4021.000000;3.864921
4020.000000;3.482381
4019.000000;3.208316
4018.000000;3.088622
4017.000000;3.065538
4016.000000;3.081321
4015.000000;3.127400
4014.000000;3.232073
4013.000000;3.305614
4012.000000;3.327792
4011.000000;3.458300
4010.000000;3.474967
4009.000000;3.249475
4008.000000;3.089078
4007.000000;3.044568
4006.000000;3.128691
4005.000000;3.307358
4004.000000;3.445415
4003.000000;3.373467
4002.000000;3.201266
4001.000000;3.078457
4000.000000;3.027353
3999.000000;3.051061
3998.000000;3.139830
3997.000000;3.226033
3996.000000;3.190719
3995.000000;3.089217
3994.000000;3.035724
3993.000000;3.022165
3992.000000;3.005511
3991.000000;3.000980
3990.000000;3.032008
3989.000000;3.070008
3988.000000;3.117481
3987.000000;3.192176
3986.000000;3.224499
3985.000000;3.217105
3984.000000;3.265038
3983.000000;3.400968
3982.000000;3.384728
3981.000000;3.170260
3980.000000;3.085133
3979.000000;3.104044
3978.000000;3.137350
3977.000000;3.150142
3976.000000;3.211674
3975.000000;3.373970
3974.000000;3.404957
3973.000000;3.228726
3972.000000;3.151286
3971.000000;3.169478
3970.000000;3.199286
3969.000000;3.162825
3968.000000;3.160605
3967.000000;3.174785
3966.000000;3.128903
3965.000000;3.107906
3964.000000;3.177999
3963.000000;3.336264
3962.000000;3.251376
3961.000000;3.059928
3960.000000;2.976800
3959.000000;2.971360
3958.000000;3.006034
3957.000000;3.040757
3956.000000;3.057925
3955.000000;3.076691
3954.000000;3.098289
3953.000000;3.105205
3952.000000;3.121127
3951.000000;3.164609
3950.000000;3.209686
3949.000000;3.190653
3948.000000;3.080568
3947.000000;3.005538
3946.000000;3.041348
3945.000000;3.107804
3944.000000;3.071827
3943.000000;3.034240
3942.000000;3.074640
3941.000000;3.200830
3940.000000;3.485952
3939.000000;4.134903
3938.000000;4.101910
3937.000000;4.066984
3936.000000;3.796702
3935.000000;3.523623
3934.000000;3.409934
3933.000000;3.353780
3932.000000;3.699842
3931.000000;3.439777
3930.000000;3.116167
3929.000000;3.012606
3928.000000;2.999076
3927.000000;3.047948
3926.000000;3.185846
3925.000000;3.319775
3924.000000;3.182096
3923.000000;3.119238
3922.000000;3.282219
3921.000000;3.379803
3920.000000;3.096495
3919.000000;2.997771
3918.000000;2.996318
3917.000000;3.052241
3916.000000;3.059222
3915.000000;2.977314
3914.000000;2.919529
3913.000000;2.932599
3912.000000;3.002166
3911.000000;3.120977
3910.000000;3.226623
3909.000000;3.136037
3908.000000;3.028110
3907.000000;3.020214
3906.000000;3.111691
3905.000000;3.267067
3904.000000;3.257628
3903.000000;3.228090
3902.000000;3.304402
3901.000000;3.489014
3900.000000;3.603244
3899.000000;3.447935
3898.000000;3.323602
3897.000000;3.349490
3896.000000;3.566294
3895.000000;3.421008
3894.000000;3.392107
3893.000000;3.511565
3892.000000;3.389957
3891.000000;3.433328
3890.000000;3.588236
3889.000000;3.665959
3888.000000;3.651780
3887.000000;3.751734
3886.000000;3.682839
3885.000000;3.504594
3884.000000;3.454222
3883.000000;3.399426
3882.000000;3.371621
3881.000000;3.342011
3880.000000;3.364861
3879.000000;3.367814
3878.000000;3.214674
3877.000000;3.026963
3876.000000;2.940045
3875.000000;3.050510
3874.000000;3.350687
3873.000000;3.352945
3872.000000;3.262518
3871.000000;3.264019
3870.000000;3.277646
3869.000000;3.304670
3868.000000;3.377525
3867.000000;3.522434
3866.000000;3.622031
3865.000000;3.465433
3864.000000;3.343241
3863.000000;3.327214
3862.000000;3.428339
3861.000000;3.453311
3860.000000;3.792306
3859.000000;3.880503
3858.000000;3.356449
3857.000000;3.226799
3856.000000;3.196980
3855.000000;3.230663
3854.000000;3.364574
3853.000000;3.516465
3852.000000;3.443798
3851.000000;3.298620
3850.000000;3.234216
3849.000000;3.309385
3848.000000;3.625469
3847.000000;4.058409
3846.000000;3.397300
3845.000000;3.224048
3844.000000;3.230003
3843.000000;3.356992
3842.000000;3.526503
3841.000000;3.822829
3840.000000;3.563606
3839.000000;3.218283
3838.000000;3.209037
3837.000000;3.570443
3836.000000;4.003089
3835.000000;3.439468
3834.000000;3.299580
3833.000000;3.334770
3832.000000;3.405725
3831.000000;3.376784
3830.000000;3.629054
3829.000000;3.405763
3828.000000;3.082051
3827.000000;3.074426
3826.000000;3.262926
3825.000000;3.354891
3824.000000;3.271086
3823.000000;3.241497
3822.000000;3.324228
3821.000000;3.429406
3820.000000;3.439577
3819.000000;3.450570
3818.000000;3.611494
3817.000000;3.422238
3816.000000;3.308363
3815.000000;3.604192
3814.000000;3.931082
3813.000000;3.777967
3812.000000;4.127113
3811.000000;3.586261
3810.000000;3.655752
3809.000000;3.367138
3808.000000;3.005857
3807.000000;2.943923
3806.000000;3.034185
3805.000000;3.189568
3804.000000;3.361584
3803.000000;3.326070
3802.000000;3.191395
3801.000000;3.251913
3800.000000;3.362800
3799.000000;3.343788
3798.000000;3.190653
3797.000000;3.067118
3796.000000;3.020643
3795.000000;3.001419
3794.000000;2.985125
3793.000000;2.997600
3792.000000;3.069397
3791.000000;3.181727
3790.000000;3.132588
3789.000000;2.918073
3788.000000;2.769338
3787.000000;2.693015
3786.000000;2.651139
3785.000000;2.654354
3784.000000;2.751185
3783.000000;2.969885
3782.000000;3.259576
3781.000000;3.223356
3780.000000;3.096569
3779.000000;3.146305
3778.000000;3.307853
3777.000000;3.503735
3776.000000;3.221376
3775.000000;3.060712
3774.000000;3.165569
3773.000000;3.234450
3772.000000;2.987617
3771.000000;2.780088
3770.000000;2.770093
3769.000000;2.962011
3768.000000;3.329656
3767.000000;3.098251
3766.000000;2.965827
3765.000000;2.984233
3764.000000;3.021685
3763.000000;3.066889
3762.000000;3.025350
3761.000000;2.861176
3760.000000;2.733472
3759.000000;2.694752
3758.000000;2.754250
3757.000000;2.805505
3756.000000;2.834590
3755.000000;2.990610
3754.000000;3.301023
3753.000000;3.817764
3752.000000;3.715880
3751.000000;3.332253
3750.000000;3.262814
3749.000000;3.349915
3748.000000;4.017812
3747.000000;3.533237
3746.000000;3.092693
3745.000000;2.956835
3744.000000;2.914272
3743.000000;2.898137
3742.000000;2.897850
3741.000000;3.027555
3740.000000;3.020940
3739.000000;2.835830
3738.000000;2.783931
3737.000000;2.820333
3736.000000;2.938489
3735.000000;3.094101
3734.000000;3.197898
3733.000000;3.263962
3732.000000;3.191128
3731.000000;3.037331
3730.000000;2.960289
3729.000000;3.333999
3728.000000;3.335240
3727.000000;2.747232
3726.000000;2.784812
3725.000000;2.967476
3724.000000;3.652079
3723.000000;3.141065
3722.000000;2.738259
3721.000000;2.689056
3720.000000;2.800511
3719.000000;2.805055
3718.000000;2.647774
3717.000000;2.604785
3716.000000;2.672983
3715.000000;2.827636
3714.000000;3.059401
3713.000000;2.988811
3712.000000;2.812925
3711.000000;2.816207
3710.000000;2.995435
3709.000000;3.299791
3708.000000;3.221479
3707.000000;3.082333
3706.000000;3.175988
3705.000000;3.450142
3704.000000;3.448342
3703.000000;3.189638
3702.000000;2.742166
3701.000000;2.492744
3700.000000;2.390644
3699.000000;2.368695
3698.000000;2.388019
3697.000000;2.441657
3696.000000;2.547479
3695.000000;2.852610
3694.000000;3.064172
3693.000000;2.760368
3692.000000;2.665559
3691.000000;2.760243
3690.000000;3.229068
3689.000000;3.053383
3688.000000;2.855673
3687.000000;2.919585
3686.000000;2.938183
3685.000000;2.692201
3684.000000;2.501465
3683.000000;2.385709
3682.000000;2.336361
3681.000000;2.397404
3680.000000;2.671340
3679.000000;3.126218
3678.000000;3.084269
3677.000000;3.176751
3676.000000;3.211987
3675.000000;2.910704
3674.000000;2.739652
3673.000000;2.653633
3672.000000;2.681414
3671.000000;3.121087
3670.000000;3.112319
3669.000000;2.882341
3668.000000;2.987369
3667.000000;3.147599
3666.000000;3.163483
3665.000000;2.831305
3664.000000;2.579521
3663.000000;2.508956
3662.000000;2.683109
3661.000000;3.216189
3660.000000;2.917685
3659.000000;2.898881
3658.000000;3.263634
3657.000000;3.350024
3656.000000;2.850879
3655.000000;2.666127
3654.000000;2.601196
3653.000000;2.632810
3652.000000;2.803267
3651.000000;3.091460
3650.000000;3.262458
3649.000000;3.184918
3648.000000;2.852024
3647.000000;2.660569
3646.000000;2.628189
3645.000000;2.710302
3644.000000;2.881481
3643.000000;3.188899
3642.000000;2.954061
3641.000000;2.706869
3640.000000;2.559746
3639.000000;2.427651
3638.000000;2.433037
3637.000000;2.647288
3636.000000;3.057755
3635.000000;3.262522
3634.000000;3.242909
3633.000000;2.723143
3632.000000;2.530456
3631.000000;2.495445
3630.000000;2.574829
3629.000000;2.807783
3628.000000;3.125483
3627.000000;2.853422
3626.000000;2.491902
3625.000000;2.298279
3624.000000;2.255921
3623.000000;2.332772
3622.000000;2.516196
3621.000000;2.740157
3620.000000;2.932616
3619.000000;2.950620
3618.000000;2.601502
3617.000000;2.373298
3616.000000;2.274519
3615.000000;2.271954
3614.000000;2.308951
3613.000000;2.226333
3612.000000;2.130048
3611.000000;2.105502
3610.000000;2.173715
3609.000000;2.383038
3608.000000;2.891508
3607.000000;2.873395
3606.000000;2.398725
3605.000000;2.168956
3604.000000;2.064899
3603.000000;2.113655
3602.000000;2.479091
3601.000000;2.596588
3600.000000;2.195249
3599.000000;2.209649
3598.000000;2.335154
3597.000000;2.452460
3596.000000;2.455789
3595.000000;2.476585
3594.000000;2.832963
3593.000000;2.604120
3592.000000;2.249477
3591.000000;2.215024
3590.000000;2.567710
3589.000000;2.743049
3588.000000;2.333051
3587.000000;2.411422
3586.000000;2.708582
3585.000000;2.473495
3584.000000;2.242234
3583.000000;2.211128
3582.000000;2.357987
3581.000000;2.692394
3580.000000;2.916552
3579.000000;2.704119
3578.000000;2.470702
3577.000000;2.328346
3576.000000;2.193693
3575.000000;2.091134
3574.000000;2.043795
3573.000000;2.073611
3572.000000;2.201372
3571.000000;2.583053
3570.000000;3.238728
3569.000000;2.480567
3568.000000;2.281829
3567.000000;2.262743
3566.000000;2.416032
3565.000000;2.723936
3564.000000;2.970683
3563.000000;2.495975
3562.000000;2.186896
3561.000000;2.117314
3560.000000;2.240443
3559.000000;2.319196
3558.000000;2.258551
3557.000000;2.273841
3556.000000;2.220397
3555.000000;2.069202
3554.000000;1.959923
3553.000000;1.964296
3552.000000;2.165654
3551.000000;2.449605
3550.000000;2.316030
3549.000000;2.341571
3548.000000;2.451089
3547.000000;2.434800
3546.000000;2.676849
3545.000000;3.313306
3544.000000;2.739130
3543.000000;2.688359
3542.000000;2.651270
3541.000000;2.551753
3540.000000;2.668170
3539.000000;3.031345
3538.000000;2.735982
3537.000000;2.354963
3536.000000;2.219868
3535.000000;2.260743
3534.000000;2.478599
3533.000000;2.678357
3532.000000;2.792915
3531.000000;3.174191
3530.000000;2.708284
3529.000000;2.324488
3528.000000;2.218590
3527.000000;2.276149
3526.000000;2.521512
3525.000000;2.713924
3524.000000;2.398851
3523.000000;2.293076
3522.000000;2.255728
3521.000000;2.186300
3520.000000;2.171335
3519.000000;2.318230
3518.000000;2.685156
3517.000000;2.643498
3516.000000;2.408020
3515.000000;2.418267
3514.000000;2.599195
3513.000000;2.659335
3512.000000;2.466601
3511.000000;2.400485
3510.000000;2.426366
3509.000000;2.976053
3508.000000;2.759764
3507.000000;2.276370
3506.000000;2.146449
3505.000000;2.080682
3504.000000;2.063167
3503.000000;2.097622
3502.000000;2.249852
3501.000000;2.315465
3500.000000;2.124208
3499.000000;2.054285
3498.000000;2.196582
3497.000000;2.539085
3496.000000;2.326721
3495.000000;2.232297
3494.000000;2.317355
3493.000000;2.227245
3492.000000;2.057819
3491.000000;2.031488
3490.000000;2.163827
3489.000000;2.543097
3488.000000;2.748735
3487.000000;2.449364
3486.000000;2.454653
3485.000000;2.838223
3484.000000;2.766207
3483.000000;2.347748
3482.000000;2.306740
3481.000000;2.403815
3480.000000;2.602028
3479.000000;3.011680
3478.000000;3.240321
3477.000000;2.862575
3476.000000;2.557757
3475.000000;2.308788
3474.000000;2.223748
3473.000000;2.350839
3472.000000;2.952855
3471.000000;2.596925
3470.000000;2.311328
3469.000000;2.302250
3468.000000;2.442136
3467.000000;2.488834
3466.000000;2.364560
3465.000000;2.333509
3464.000000;2.381614
3463.000000;2.584966
3462.000000;3.039784
3461.000000;2.798014
3460.000000;2.540218
3459.000000;2.512831
3458.000000;2.518333
3457.000000;2.588200
3456.000000;2.772694
3455.000000;2.838995
3454.000000;2.748350
3453.000000;2.786159
3452.000000;3.357092
3451.000000;2.942638
3450.000000;2.684810
3449.000000;2.747581
3448.000000;2.816923
3447.000000;2.859888
3446.000000;2.895277
3445.000000;2.756462
3444.000000;2.463192
3443.000000;2.312966
3442.000000;2.312611
3441.000000;2.470799
3440.000000;2.543824
3439.000000;2.339384
3438.000000;2.298361
3437.000000;2.564926
3436.000000;3.077585
3435.000000;2.577899
3434.000000;2.432853
3433.000000;2.608957
3432.000000;2.982502
3431.000000;2.627594
3430.000000;2.480780
3429.000000;2.614732
3428.000000;2.796790
3427.000000;2.686296
3426.000000;2.580489
3425.000000;2.645819
3424.000000;2.835242
3423.000000;3.387121
3422.000000;2.727815
3421.000000;2.398903
3420.000000;2.319830
3419.000000;2.357272
3418.000000;2.435301
3417.000000;2.440598
3416.000000;2.445373
3415.000000;2.552871
3414.000000;2.605341
3413.000000;2.476271
3412.000000;2.450521
3411.000000;2.510711
3410.000000;2.566357
3409.000000;2.627086
3408.000000;2.687824
3407.000000;2.660910
3406.000000;2.526299
3405.000000;2.442633
3404.000000;2.507867
3403.000000;2.768866
3402.000000;2.969943
3401.000000;2.751971
3400.000000;2.627385
3399.000000;2.710346
3398.000000;3.295863
3397.000000;2.840527
3396.000000;2.479526
3395.000000;2.366540
3394.000000;2.335468
3393.000000;2.383582
3392.000000;2.579799
3391.000000;3.006370
3390.000000;2.616448
3389.000000;2.441060
3388.000000;2.523513
3387.000000;2.938856
3386.000000;2.752176
3385.000000;2.410330
3384.000000;2.383350
3383.000000;2.714218
3382.000000;3.300266
3381.000000;2.585378
3380.000000;2.504004
3379.000000;2.669286
3378.000000;2.757598
3377.000000;2.513795
3376.000000;2.442033
3375.000000;2.535743
3374.000000;2.669409
3373.000000;2.740340
3372.000000;2.754192
3371.000000;2.853702
3370.000000;3.626554
3369.000000;3.205001
3368.000000;3.236688
3367.000000;3.187158
3366.000000;2.712649
3365.000000;2.572572
3364.000000;2.578188
3363.000000;2.665361
3362.000000;2.815956
3361.000000;3.004114
3360.000000;2.973466
3359.000000;2.860886
3358.000000;2.776880
3357.000000;3.050867
3356.000000;3.310397
3355.000000;2.557972
3354.000000;2.415069
3353.000000;2.446499
3352.000000;2.628738
3351.000000;2.770954
3350.000000;2.623611
3349.000000;2.540040
3348.000000;2.659040
3347.000000;3.144970
3346.000000;2.955759
3345.000000;2.657235
3344.000000;2.586328
3343.000000;2.659052
3342.000000;3.054801
3341.000000;2.904690
3340.000000;2.723366
3339.000000;2.587766
3338.000000;2.432044
3337.000000;2.381851
3336.000000;2.393126
3335.000000;2.415637
3334.000000;2.499386
3333.000000;2.650375
3332.000000;2.972544
3331.000000;3.365810
3330.000000;2.665248
3329.000000;2.460197
3328.000000;2.405346
3327.000000;2.436084
3326.000000;2.573269
3325.000000;3.019207
3324.000000;3.194316
3323.000000;2.783753
3322.000000;2.758750
3321.000000;2.767266
3320.000000;2.725257
3319.000000;2.696178
3318.000000;2.832281
3317.000000;3.409323
3316.000000;3.300484
3315.000000;3.033400
3314.000000;2.838354
3313.000000;2.575733
3312.000000;2.455357
3311.000000;2.505380
3310.000000;2.670405
3309.000000;2.685098
3308.000000;2.734617
3307.000000;3.073282
3306.000000;3.236747
3305.000000;3.248110
3304.000000;3.515865
3303.000000;2.886985
3302.000000;2.588339
3301.000000;2.466747
3300.000000;2.516589
3299.000000;2.754488
3298.000000;2.703159
3297.000000;2.503531
3296.000000;2.492326
3295.000000;2.539441
3294.000000;2.764777
3293.000000;3.078184
3292.000000;2.827191
3291.000000;2.766660
3290.000000;2.857205
3289.000000;2.901530
3288.000000;3.189378
3287.000000;2.994706
3286.000000;2.638197
3285.000000;2.508297
3284.000000;2.496657
3283.000000;2.569990
3282.000000;2.733600
3281.000000;2.984726
3280.000000;3.136913
3279.000000;3.007089
3278.000000;2.750721
3277.000000;2.587267
3276.000000;2.553487
3275.000000;2.668785
3274.000000;2.965819
3273.000000;3.256782
3272.000000;2.903622
3271.000000;2.590710
3270.000000;2.487306
3269.000000;2.562346
3268.000000;3.172844
3267.000000;2.986343
3266.000000;2.526954
3265.000000;2.529571
3264.000000;2.698243
3263.000000;2.787813
3262.000000;2.694992
3261.000000;2.795648
3260.000000;3.153744
3259.000000;3.280899
3258.000000;3.266190
3257.000000;3.177148
3256.000000;3.132257
3255.000000;2.852322
3254.000000;2.562559
3253.000000;2.417403
3252.000000;2.412570
3251.000000;2.593450
3250.000000;2.882170
3249.000000;2.830749
3248.000000;2.844711
3247.000000;3.236919
3246.000000;3.324565
3245.000000;2.912084
3244.000000;2.961587
3243.000000;3.389094
3242.000000;3.141558
3241.000000;2.766534
3240.000000;2.674586
3239.000000;2.704461
3238.000000;2.767227
3237.000000;2.822649
3236.000000;3.086518
3235.000000;2.889738
3234.000000;2.666386
3233.000000;2.740212
3232.000000;2.932222
3231.000000;2.794965
3230.000000;2.655541
3229.000000;2.638259
3228.000000;2.776874
3227.000000;3.209833
3226.000000;2.924319
3225.000000;2.711626
3224.000000;2.798431
3223.000000;3.229618
3222.000000;3.649455
3221.000000;3.048613
3220.000000;2.957385
3219.000000;2.866900
3218.000000;2.644617
3217.000000;2.558276
3216.000000;2.995325
3215.000000;3.057025
3214.000000;2.461446
3213.000000;2.365189
3212.000000;2.408256
3211.000000;2.562168
3210.000000;3.374124
3209.000000;2.911614
3208.000000;2.519449
3207.000000;2.524554
3206.000000;2.737839
3205.000000;3.235078
3204.000000;2.700219
3203.000000;2.474783
3202.000000;2.461163
3201.000000;2.547124
3200.000000;2.842639
3199.000000;3.101217
3198.000000;2.689345
3197.000000;2.571656
3196.000000;2.574492
3195.000000;2.577038
3194.000000;2.605151
3193.000000;2.925711
3192.000000;3.202754
3191.000000;2.683295
3190.000000;2.589354
3189.000000;2.709054
3188.000000;3.272955
3187.000000;3.258673
3186.000000;2.898738
3185.000000;2.987786
3184.000000;3.076442
3183.000000;2.949370
3182.000000;2.718380
3181.000000;2.588950
3180.000000;2.624501
3179.000000;2.953197
3178.000000;2.758571
3177.000000;2.424488
3176.000000;2.311425
3175.000000;2.337107
3174.000000;2.493094
3173.000000;2.654178
3172.000000;2.643562
3171.000000;2.711201
3170.000000;2.966055
3169.000000;3.070026
3168.000000;3.059958
3167.000000;3.095116
3166.000000;3.344057
3165.000000;3.285565
3164.000000;2.861213
3163.000000;2.879505
3162.000000;2.895362
3161.000000;2.724640
3160.000000;2.617407
3159.000000;2.700527
3158.000000;3.001786
3157.000000;2.801205
3156.000000;2.601535
3155.000000;2.680944
3154.000000;2.953795
3153.000000;3.513630
3152.000000;3.485729
3151.000000;2.938011
3150.000000;2.748867
3149.000000;2.779169
3148.000000;3.095411
3147.000000;3.830658
3146.000000;3.455096
3145.000000;3.142706
3144.000000;2.874563
3143.000000;2.812832
3142.000000;2.800110
3141.000000;2.722008
3140.000000;2.663285
3139.000000;2.627353
3138.000000;2.602943
3137.000000;2.615844
3136.000000;2.753842
3135.000000;2.960608
3134.000000;3.150239
3133.000000;3.354720
3132.000000;2.810758
3131.000000;2.523457
3130.000000;2.486300
3129.000000;2.570665
3128.000000;2.725106
3127.000000;2.832958
3126.000000;2.847673
3125.000000;2.805890
3124.000000;2.775826
3123.000000;2.884355
3122.000000;3.060147
3121.000000;3.014453
3120.000000;2.892505
3119.000000;2.730306
3118.000000;2.714873
3117.000000;2.839054
3116.000000;3.091708
3115.000000;3.480545
3114.000000;2.959849
3113.000000;2.716038
3112.000000;2.704988
3111.000000;2.739021
3110.000000;2.793158
3109.000000;3.172918
3108.000000;3.263619
3107.000000;2.809338
3106.000000;2.710285
3105.000000;2.733573
3104.000000;3.025446
3103.000000;3.379192
3102.000000;2.939830
3101.000000;2.762563
3100.000000;2.748284
3099.000000;2.778767
3098.000000;2.751479
3097.000000;2.687366
3096.000000;2.773175
3095.000000;2.868317
3094.000000;2.675972
3093.000000;2.577302
3092.000000;2.621730
3091.000000;2.780977
3090.000000;2.909506
3089.000000;2.792776
3088.000000;2.874488
3087.000000;3.278802
3086.000000;2.976886
3085.000000;2.697102
3084.000000;2.670327
3083.000000;2.764164
3082.000000;3.004765
3081.000000;3.207427
3080.000000;2.982716
3079.000000;2.825399
3078.000000;3.000601
3077.000000;3.359723
3076.000000;2.963640
3075.000000;2.977561
3074.000000;3.117225
3073.000000;2.689364
3072.000000;2.524830
3071.000000;2.601051
3070.000000;2.963692
3069.000000;3.028569
3068.000000;2.712004
3067.000000;2.685024
3066.000000;2.864368
3065.000000;3.045298
3064.000000;3.035908
3063.000000;3.243371
3062.000000;3.645457
3061.000000;3.431190
3060.000000;3.164797
3059.000000;2.875944
3058.000000;2.584251
3057.000000;2.439696
3056.000000;2.449685
3055.000000;2.516562
3054.000000;2.510842
3053.000000;2.488793
3052.000000;2.530791
3051.000000;2.645829
3050.000000;2.779330
3049.000000;2.796185
3048.000000;2.750340
3047.000000;2.685193
3046.000000;2.610402
3045.000000;2.575739
3044.000000;2.559826
3043.000000;2.540861
3042.000000;2.557483
3041.000000;2.700654
3040.000000;2.955569
3039.000000;2.934676
3038.000000;2.909090
3037.000000;2.974925
3036.000000;2.945172
3035.000000;2.919443
3034.000000;2.992131
3033.000000;3.274976
3032.000000;3.171082
3031.000000;2.803283
3030.000000;2.703192
3029.000000;2.791323
3028.000000;2.888680
3027.000000;2.725822
3026.000000;2.628090
3025.000000;2.651265
3024.000000;2.819014
3023.000000;3.361189
3022.000000;2.967850
3021.000000;2.679711
3020.000000;2.686895
3019.000000;2.715830
3018.000000;2.949816
3017.000000;3.268446
3016.000000;2.816457
3015.000000;2.707622
3014.000000;2.986786
3013.000000;3.330475
3012.000000;2.723813
3011.000000;2.529891
3010.000000;2.526842
3009.000000;2.633760
3008.000000;2.849098
3007.000000;3.054808
3006.000000;3.132987
3005.000000;3.083389
3004.000000;3.307732
3003.000000;3.510003
3002.000000;3.044263
3001.000000;2.865858
3000.000000;2.725173
2999.000000;2.551200
2998.000000;2.444952
2997.000000;2.420871
2996.000000;2.456859
2995.000000;2.530503
2994.000000;2.660348
2993.000000;2.916062
2992.000000;3.115984
2991.000000;2.952202
2990.000000;2.931303
2989.000000;3.137311
2988.000000;3.193008
2987.000000;3.022842
2986.000000;2.810057
2985.000000;2.655799
2984.000000;2.612166
2983.000000;2.592000
2982.000000;2.566508
2981.000000;2.592591
2980.000000;2.696122
2979.000000;3.053228
2978.000000;3.226732
2977.000000;2.842882
2976.000000;2.728003
2975.000000;2.551773
2974.000000;2.421823
2973.000000;2.428012
2972.000000;2.543145
2971.000000;2.769298
2970.000000;2.849010
2969.000000;2.879285
2968.000000;3.201836
2967.000000;2.706226
2966.000000;2.423670
2965.000000;2.389604
2964.000000;2.457287
2963.000000;2.576610
2962.000000;2.789603
2961.000000;3.384520
2960.000000;3.093053
2959.000000;2.895891
2958.000000;2.925851
2957.000000;2.942341
2956.000000;3.272562
2955.000000;3.142900
2954.000000;2.676914
2953.000000;2.572108
2952.000000;2.593542
2951.000000;2.984740
2950.000000;3.375796
2949.000000;2.656996
2948.000000;2.553484
2947.000000;2.656055
2946.000000;2.864868
2945.000000;2.886402
2944.000000;2.819799
2943.000000;2.985022
2942.000000;3.483093
2941.000000;3.126598
2940.000000;2.757664
2939.000000;2.622523
2938.000000;2.560619
2937.000000;2.605725
2936.000000;2.732837
2935.000000;2.742330
2934.000000;2.656682
2933.000000;2.706018
2932.000000;3.044474
2931.000000;3.139383
2930.000000;2.747971
2929.000000;2.642058
2928.000000;2.652761
2927.000000;2.737721
2926.000000;2.915716
2925.000000;3.048179
2924.000000;2.919957
2923.000000;2.814832
2922.000000;3.020561
2921.000000;3.087749
2920.000000;2.736247
2919.000000;2.580048
2918.000000;2.525697
2917.000000;2.535333
2916.000000;2.567723
2915.000000;2.548570
2914.000000;2.510120
2913.000000;2.508981
2912.000000;2.547813
2911.000000;2.593947
2910.000000;2.675838
2909.000000;2.937785
2908.000000;3.062092
2907.000000;2.803773
2906.000000;2.793264
2905.000000;3.050332
2904.000000;3.332706
2903.000000;3.067897
2902.000000;2.888626
2901.000000;2.959908
2900.000000;2.975366
2899.000000;2.717467
2898.000000;2.619012
2897.000000;2.616877
2896.000000;2.594348
2895.000000;2.586876
2894.000000;2.668737
2893.000000;2.875180
2892.000000;2.904309
2891.000000;2.773969
2890.000000;2.846758
2889.000000;3.097931
2888.000000;3.186664
2887.000000;3.166909
2886.000000;2.978914
2885.000000;2.803947
2884.000000;2.795129
2883.000000;2.851730
2882.000000;2.902843
2881.000000;2.955698
2880.000000;3.071373
2879.000000;3.422933
2878.000000;3.385582
2877.000000;2.916811
2876.000000;2.684482
2875.000000;2.525887
2874.000000;2.484973
2873.000000;2.572330
2872.000000;2.611127
2871.000000;2.587750
2870.000000;2.732218
2869.000000;2.903701
2868.000000;2.854276
2867.000000;3.061357
2866.000000;3.373032
2865.000000;3.033035
2864.000000;2.897685
2863.000000;2.927185
2862.000000;2.918135
2861.000000;2.900577
2860.000000;3.126616
2859.000000;3.739211
2858.000000;3.310703
2857.000000;2.881206
2856.000000;2.663201
2855.000000;2.576914
2854.000000;2.587407
2853.000000;2.689587
2852.000000;2.860376
2851.000000;2.870853
2850.000000;2.815995
2849.000000;2.874916
2848.000000;2.968190
2847.000000;2.970803
2846.000000;2.933907
2845.000000;2.963141
2844.000000;3.109067
2843.000000;3.471096
2842.000000;3.253215
2841.000000;2.858904
2840.000000;2.755619
2839.000000;2.781413
2838.000000;2.900188
2837.000000;2.910193
2836.000000;2.809992
2835.000000;2.749959
2834.000000;2.817806
2833.000000;3.291448
2832.000000;2.898097
2831.000000;2.534269
2830.000000;2.462447
2829.000000;2.653842
2828.000000;2.926039
2827.000000;2.558488
2826.000000;2.468631
2825.000000;2.610103
2824.000000;2.905766
2823.000000;3.085491
2822.000000;2.784331
2821.000000;2.699131
2820.000000;2.901695
2819.000000;3.094190
2818.000000;2.805236
2817.000000;2.668637
2816.000000;2.596617
2815.000000;2.544279
2814.000000;2.605411
2813.000000;3.043383
2812.000000;3.251014
2811.000000;2.780107
2810.000000;2.739815
2809.000000;2.790405
2808.000000;2.894488
2807.000000;2.935365
2806.000000;2.855025
2805.000000;2.849273
2804.000000;2.996514
2803.000000;3.385063
2802.000000;4.036039
2801.000000;3.777903
2800.000000;3.344130
2799.000000;3.121526
2798.000000;3.087019
2797.000000;3.322189
2796.000000;3.270053
2795.000000;2.843214
2794.000000;2.653455
2793.000000;2.629106
2792.000000;2.825244
2791.000000;3.094301
2790.000000;2.891699
2789.000000;2.751018
2788.000000;2.657681
2787.000000;2.606941
2786.000000;2.676194
2785.000000;2.965185
2784.000000;3.075740
2783.000000;2.966542
2782.000000;3.519565
2781.000000;3.313719
2780.000000;2.925562
2779.000000;2.921525
2778.000000;3.079362
2777.000000;3.139983
2776.000000;2.851844
2775.000000;2.693570
2774.000000;2.781005
2773.000000;3.102975
2772.000000;2.964423
2771.000000;2.857026
2770.000000;3.141922
2769.000000;3.398679
2768.000000;2.974481
2767.000000;2.845932
2766.000000;2.858098
2765.000000;2.775315
2764.000000;2.687745
2763.000000;2.715125
2762.000000;2.711024
2761.000000;2.626673
2760.000000;2.647408
2759.000000;2.705850
2758.000000;2.735685
2757.000000;2.823014
2756.000000;2.886617
2755.000000;2.834021
2754.000000;2.869489
2753.000000;2.955782
2752.000000;3.110759
2751.000000;3.653845
2750.000000;3.160724
2749.000000;2.853713
2748.000000;2.843033
2747.000000;2.861066
2746.000000;2.819860
2745.000000;2.729335
2744.000000;2.663559
2743.000000;2.626708
2742.000000;2.732403
2741.000000;3.137047
2740.000000;2.985437
2739.000000;2.709021
2738.000000;2.704972
2737.000000;2.713487
2736.000000;2.712604
2735.000000;2.755576
2734.000000;2.841124
2733.000000;2.941896
2732.000000;2.926163
2731.000000;2.887239
2730.000000;2.919392
2729.000000;2.958096
2728.000000;2.973562
2727.000000;2.933861
2726.000000;2.863385
2725.000000;2.939922
2724.000000;3.219370
2723.000000;3.631436
2722.000000;4.352204
2721.000000;3.531702
2720.000000;3.304158
2719.000000;3.027772
2718.000000;2.772352
2717.000000;2.712622
2716.000000;2.687226
2715.000000;2.666656
2714.000000;2.635500
2713.000000;2.508493
2712.000000;2.433587
2711.000000;2.480062
2710.000000;2.844324
2709.000000;3.058818
2708.000000;2.541016
2707.000000;2.404492
2706.000000;2.429020
2705.000000;2.616702
2704.000000;2.628301
2703.000000;2.460232
2702.000000;2.509404
2701.000000;2.712161
2700.000000;2.879408
2699.000000;2.811712
2698.000000;2.718544
2697.000000;2.688006
2696.000000;2.770791
2695.000000;2.959039
2694.000000;3.016870
2693.000000;2.971714
2692.000000;2.934842
2691.000000;2.838968
2690.000000;2.695222
2689.000000;2.577468
2688.000000;2.546950
2687.000000;2.605894
2686.000000;2.748565
2685.000000;2.844047
2684.000000;2.751600
2683.000000;2.678353
2682.000000;2.762474
2681.000000;3.236042
2680.000000;3.172165
2679.000000;2.718670
2678.000000;2.644231
2677.000000;2.790853
2676.000000;2.875537
2675.000000;2.612862
2674.000000;2.499989
2673.000000;2.611541
2672.000000;3.006793
2671.000000;3.070001
2670.000000;2.767422
2669.000000;2.683338
2668.000000;2.632264
2667.000000;2.617613
2666.000000;2.658147
2665.000000;2.754303
2664.000000;2.877644
2663.000000;3.028220
2662.000000;3.247401
2661.000000;3.226171
2660.000000;3.072855
2659.000000;2.978027
2658.000000;2.832522
2657.000000;2.752377
2656.000000;2.816165
2655.000000;3.106102
2654.000000;3.322544
2653.000000;3.119563
2652.000000;3.104020
2651.000000;3.146341
2650.000000;3.309128
2649.000000;3.275021
2648.000000;3.045881
2647.000000;2.989219
2646.000000;2.837921
2645.000000;2.640799
2644.000000;2.539481
2643.000000;2.494137
2642.000000;2.478393
2641.000000;2.489503
2640.000000;2.543211
2639.000000;2.706887
2638.000000;2.698265
2637.000000;2.482552
2636.000000;2.423297
2635.000000;2.492196
2634.000000;2.581358
2633.000000;2.658591
2632.000000;2.782479
2631.000000;3.168797
2630.000000;3.361098
2629.000000;2.846924
2628.000000;2.666331
2627.000000;2.770333
2626.000000;3.101740
2625.000000;2.787972
2624.000000;2.576462
2623.000000;2.630836
2622.000000;2.742137
2621.000000;2.875820
2620.000000;2.893858
2619.000000;2.832087
2618.000000;2.862877
2617.000000;3.192718
2616.000000;3.163123
2615.000000;2.704078
2614.000000;2.573793
2613.000000;2.706744
2612.000000;2.963909
2611.000000;3.018817
2610.000000;3.110822
2609.000000;3.042289
2608.000000;2.874913
2607.000000;2.778413
2606.000000;2.776262
2605.000000;2.967969
2604.000000;3.048144
2603.000000;2.913685
2602.000000;2.998084
2601.000000;3.043229
2600.000000;2.808432
2599.000000;2.664288
2598.000000;2.645755
2597.000000;2.817633
2596.000000;3.029206
2595.000000;2.788538
2594.000000;2.638817
2593.000000;2.628449
2592.000000;2.770040
2591.000000;3.021721
2590.000000;2.805158
2589.000000;2.605219
2588.000000;2.661199
2587.000000;3.066711
2586.000000;3.073917
2585.000000;2.724469
2584.000000;2.737866
2583.000000;3.041469
2582.000000;3.061752
2581.000000;2.772812
2580.000000;2.776115
2579.000000;2.865888
2578.000000;2.770267
2577.000000;2.704454
2576.000000;2.822910
2575.000000;3.116033
2574.000000;3.161066
2573.000000;2.970763
2572.000000;2.827983
2571.000000;2.763632
2570.000000;2.784618
2569.000000;2.766377
2568.000000;2.690718
2567.000000;2.712023
2566.000000;2.765775
2565.000000;2.670679
2564.000000;2.542351
2563.000000;2.579068
2562.000000;2.975590
2561.000000;2.989282
2560.000000;2.615999
2559.000000;2.515366
2558.000000;2.542064
2557.000000;2.653467
2556.000000;2.593298
2555.000000;2.434766
2554.000000;2.401673
2553.000000;2.486016
2552.000000;2.657637
2551.000000;2.801385
2550.000000;2.751824
2549.000000;2.690103
2548.000000;2.835732
2547.000000;3.289147
2546.000000;3.163256
2545.000000;2.919752
2544.000000;3.132899
2543.000000;3.293460
2542.000000;2.859999
2541.000000;2.641472
2540.000000;2.582904
2539.000000;2.629437
2538.000000;2.915049
2537.000000;3.076099
2536.000000;2.659065
2535.000000;2.490870
2534.000000;2.509156
2533.000000;2.720625
2532.000000;3.091562
2531.000000;3.015099
2530.000000;2.951241
2529.000000;2.945610
2528.000000;2.943127
2527.000000;3.108101
2526.000000;3.534098
2525.000000;3.488052
2524.000000;3.297614
2523.000000;3.219173
2522.000000;2.879993
2521.000000;2.718767
2520.000000;2.719903
2519.000000;2.792687
2518.000000;2.867708
2517.000000;2.911596
2516.000000;2.915409
2515.000000;2.940317
2514.000000;3.011392
2513.000000;2.874133
2512.000000;2.743340
2511.000000;2.761455
2510.000000;2.968772
2509.000000;3.160619
2508.000000;3.138089
2507.000000;3.324040
2506.000000;2.977967
2505.000000;2.726270
2504.000000;2.729421
2503.000000;2.900574
2502.000000;3.062245
2501.000000;2.816004
2500.000000;2.641535
2499.000000;2.601326
2498.000000;2.749793
2497.000000;3.238225
2496.000000;3.094519
2495.000000;3.048357
2494.000000;3.294909
2493.000000;2.762853
2492.000000;2.525265
2491.000000;2.521237
2490.000000;2.652096
2489.000000;2.768906
2488.000000;2.782134
2487.000000;2.876587
2486.000000;3.171555
2485.000000;3.507154
2484.000000;3.051385
2483.000000;2.904387
2482.000000;2.985192
2481.000000;3.216894
2480.000000;3.605902
2479.000000;3.150995
2478.000000;3.053101
2477.000000;3.120501
2476.000000;3.035155
2475.000000;3.102827
2474.000000;3.284392
2473.000000;3.184666
2472.000000;2.860118
2471.000000;2.661776
2470.000000;2.599021
2469.000000;2.671708
2468.000000;2.929892
2467.000000;3.000472
2466.000000;2.791205
2465.000000;2.839683
2464.000000;3.139500
2463.000000;2.922564
2462.000000;2.622853
2461.000000;2.566909
2460.000000;2.676602
2459.000000;3.129904
2458.000000;3.528374
2457.000000;3.122788
2456.000000;3.372558
2455.000000;3.314840
2454.000000;3.010067
2453.000000;2.953332
2452.000000;3.159531
2451.000000;3.773614
2450.000000;3.126392
2449.000000;2.800181
2448.000000;2.825664
2447.000000;3.092784
2446.000000;2.855297
2445.000000;2.618234
2444.000000;2.628555
2443.000000;2.809691
2442.000000;3.264615
2441.000000;3.122535
2440.000000;2.781362
2439.000000;2.720699
2438.000000;2.892675
2437.000000;3.319998
2436.000000;3.077257
2435.000000;2.899699
2434.000000;2.980357
2433.000000;2.727565
2432.000000;2.453494
2431.000000;2.347873
2430.000000;2.366890
2429.000000;2.510835
2428.000000;2.918927
2427.000000;3.259538
2426.000000;3.153496
2425.000000;3.131452
2424.000000;2.705999
2423.000000;2.515952
2422.000000;2.556594
2421.000000;2.868407
2420.000000;2.989303
2419.000000;2.695240
2418.000000;2.807156
2417.000000;2.834693
2416.000000;2.618098
2415.000000;2.618772
2414.000000;2.713812
2413.000000;2.660293
2412.000000;2.510472
2411.000000;2.435988
2410.000000;2.490764
2409.000000;2.809538
2408.000000;3.086464
2407.000000;2.814909
2406.000000;2.812749
2405.000000;2.954953
2404.000000;3.008299
2403.000000;2.875541
2402.000000;2.754754
2401.000000;2.759158
2400.000000;2.961798
2399.000000;3.357570
2398.000000;3.141582
2397.000000;3.189396
2396.000000;3.560879
2395.000000;3.104496
2394.000000;2.902655
2393.000000;2.938957
2392.000000;3.288373
2391.000000;3.433618
2390.000000;3.065037
2389.000000;2.967527
2388.000000;2.875009
2387.000000;2.821355
2386.000000;2.810994
2385.000000;2.762163
2384.000000;2.742538
2383.000000;2.759221
2382.000000;2.740815
2381.000000;2.682387
2380.000000;2.747258
2379.000000;3.206710
2378.000000;3.059780
2377.000000;2.753166
2376.000000;2.840799
2375.000000;2.708474
2374.000000;2.457408
2373.000000;2.354014
2372.000000;2.384668
2371.000000;2.690424
2370.000000;3.030854
2369.000000;2.572814
2368.000000;2.490584
2367.000000;2.622106
2366.000000;2.717458
2365.000000;2.622708
2364.000000;2.558299
2363.000000;2.870702
2362.000000;2.617271
2361.000000;2.261723
2360.000000;2.266850
2359.000000;2.433609
2358.000000;2.540426
2357.000000;2.548610
2356.000000;2.882910
2355.000000;2.843042
2354.000000;2.370130
2353.000000;2.255458
2352.000000;2.374976
2351.000000;2.544928
2350.000000;2.457932
2349.000000;2.342708
2348.000000;2.325577
2347.000000;2.771542
2346.000000;2.695920
2345.000000;2.586515
2344.000000;2.920923
2343.000000;2.404857
2342.000000;2.290561
2341.000000;2.422644
2340.000000;2.641467
2339.000000;2.619525
2338.000000;2.506744
2337.000000;2.672053
2336.000000;2.869841
2335.000000;2.707354
2334.000000;2.542399
2333.000000;2.459581
2332.000000;2.500718
2331.000000;2.780687
2330.000000;3.217293
2329.000000;3.005128
2328.000000;2.726657
2327.000000;2.655752
2326.000000;2.740244
2325.000000;2.744248
2324.000000;2.562949
2323.000000;2.484184
2322.000000;2.548125
2321.000000;2.845404
2320.000000;3.295926
2319.000000;2.972921
2318.000000;2.808527
2317.000000;2.829931
2316.000000;2.853842
2315.000000;3.115825
2314.000000;3.423374
2313.000000;2.795019
2312.000000;2.600131
2311.000000;2.641154
2310.000000;3.010114
2309.000000;3.092044
2308.000000;2.657601
2307.000000;2.636813
2306.000000;3.021401
2305.000000;3.257577
2304.000000;2.680353
2303.000000;2.679705
2302.000000;2.791679
2301.000000;2.527136
2300.000000;2.350255
2299.000000;2.354337
2298.000000;2.561803
2297.000000;2.846649
2296.000000;2.632493
2295.000000;2.578266
2294.000000;2.769515
2293.000000;2.497694
2292.000000;2.299829
2291.000000;2.323722
2290.000000;2.503211
2289.000000;2.644896
2288.000000;2.503915
2287.000000;2.428340
2286.000000;2.478544
2285.000000;2.654091
2284.000000;2.929783
2283.000000;2.873356
2282.000000;2.877182
2281.000000;3.119893
2280.000000;2.800362
2279.000000;2.542931
2278.000000;2.517779
2277.000000;2.828001
2276.000000;3.274288
2275.000000;2.762254
2274.000000;2.655802
2273.000000;2.767509
2272.000000;2.958203
2271.000000;2.837017
2270.000000;2.646507
2269.000000;2.576213
2268.000000;2.683026
2267.000000;3.045645
2266.000000;2.753885
2265.000000;2.540549
2264.000000;2.649995
2263.000000;2.988363
2262.000000;2.984158
2261.000000;2.723788
2260.000000;2.655910
2259.000000;2.640291
2258.000000;2.601382
2257.000000;2.555839
2256.000000;2.747222
2255.000000;3.053218
2254.000000;2.736067
2253.000000;2.623938
2252.000000;2.633799
2251.000000;2.615472
2250.000000;2.591199
2249.000000;2.574120
2248.000000;2.617726
2247.000000;2.835939
2246.000000;3.228863
2245.000000;2.940837
2244.000000;2.722914
2243.000000;2.635757
2242.000000;2.557656
2241.000000;2.541100
2240.000000;2.600005
2239.000000;2.702488
2238.000000;2.696475
2237.000000;2.523237
2236.000000;2.441242
2235.000000;2.456731
2234.000000;2.625865
2233.000000;3.219236
2232.000000;2.784774
2231.000000;2.474035
2230.000000;2.416263
2229.000000;2.704534
2228.000000;3.575598
2227.000000;2.647096
2226.000000;2.632409
2225.000000;2.809432
2224.000000;2.630302
2223.000000;2.486124
2222.000000;2.495961
2221.000000;2.930916
2220.000000;3.177195
2219.000000;2.713158
2218.000000;2.784917
2217.000000;3.267656
2216.000000;3.273802
2215.000000;2.890874
2214.000000;2.705714
2213.000000;2.637415
2212.000000;2.713292
2211.000000;3.015426
2210.000000;3.082190
2209.000000;2.778895
2208.000000;2.683684
2207.000000;2.757095
2206.000000;3.120269
2205.000000;3.505792
2204.000000;3.026661
2203.000000;2.975130
2202.000000;2.970717
2201.000000;2.882780
2200.000000;3.100450
2199.000000;3.449492
2198.000000;3.099706
2197.000000;2.968560
2196.000000;3.013144
2195.000000;3.043828
2194.000000;3.027697
2193.000000;2.918937
2192.000000;2.891557
2191.000000;3.178584
2190.000000;2.943341
2189.000000;2.567735
2188.000000;2.489746
2187.000000;2.567469
2186.000000;2.897530
2185.000000;3.330360
2184.000000;2.892628
2183.000000;2.844477
2182.000000;2.896443
2181.000000;2.632673
2180.000000;2.504626
2179.000000;2.563750
2178.000000;2.600550
2177.000000;2.504177
2176.000000;2.448668
2175.000000;2.627433
2174.000000;3.084636
2173.000000;2.803180
2172.000000;2.606201
2171.000000;2.735048
2170.000000;2.881481
2169.000000;2.688628
2168.000000;2.484192
2167.000000;2.422033
2166.000000;2.439574
2165.000000;2.507783
2164.000000;2.560643
2163.000000;2.693074
2162.000000;3.047978
2161.000000;2.873026
2160.000000;2.622317
2159.000000;2.596785
2158.000000;2.620135
2157.000000;2.766997
2156.000000;2.894346
2155.000000;2.679472
2154.000000;2.557720
2153.000000;2.595535
2152.000000;2.731754
2151.000000;2.880225
2150.000000;2.894280
2149.000000;2.931654
2148.000000;2.789710
2147.000000;2.532099
2146.000000;2.446622
2145.000000;2.501480
2144.000000;2.766701
2143.000000;3.092939
2142.000000;2.748796
2141.000000;2.570477
2140.000000;2.600325
2139.000000;2.842478
2138.000000;3.122590
2137.000000;2.861127
2136.000000;2.617952
2135.000000;2.488089
2134.000000;2.458134
2133.000000;2.502367
2132.000000;2.593987
2131.000000;2.660058
2130.000000;2.642668
2129.000000;2.649302
2128.000000;2.761737
2127.000000;2.904214
2126.000000;2.813385
2125.000000;2.798378
2124.000000;2.919609
2123.000000;2.845063
2122.000000;2.820510
2121.000000;3.102124
2120.000000;3.567532
2119.000000;3.212120
2118.000000;2.972614
2117.000000;2.892583
2116.000000;2.929421
2115.000000;3.293870
2114.000000;3.597924
2113.000000;3.021447
2112.000000;2.757270
2111.000000;2.664034
2110.000000;2.756730
2109.000000;2.859961
2108.000000;2.667288
2107.000000;2.600825
2106.000000;2.703241
2105.000000;2.751360
2104.000000;2.635021
2103.000000;2.692620
2102.000000;3.001483
2101.000000;2.749436
2100.000000;2.591209
2099.000000;2.692000
2098.000000;2.780330
2097.000000;2.819833
2096.000000;2.717098
2095.000000;2.564271
2094.000000;2.594194
2093.000000;3.015703
2092.000000;2.995968
2091.000000;2.551650
2090.000000;2.471523
2089.000000;2.578956
2088.000000;2.934595
2087.000000;2.892315
2086.000000;2.645389
2085.000000;2.684832
2084.000000;2.695749
2083.000000;2.670797
2082.000000;2.776913
2081.000000;2.927978
2080.000000;2.869404
2079.000000;2.867270
2078.000000;3.127565
2077.000000;3.806425
2076.000000;3.443422
2075.000000;3.101363
2074.000000;3.036831
2073.000000;3.132840
2072.000000;3.064643
2071.000000;2.732071
2070.000000;2.547315
2069.000000;2.526378
2068.000000;2.609668
2067.000000;2.976459
2066.000000;3.238054
2065.000000;2.660272
2064.000000;2.511056
2063.000000;2.546299
2062.000000;2.892218
2061.000000;3.456276
2060.000000;3.185150
2059.000000;3.324225
2058.000000;2.891172
2057.000000;2.625552
2056.000000;2.577409
2055.000000;2.607121
2054.000000;2.870087
2053.000000;3.211894
2052.000000;2.812211
2051.000000;2.650917
2050.000000;2.801732
2049.000000;3.306086
2048.000000;3.289143
2047.000000;3.004376
2046.000000;2.943169
2045.000000;2.916488
2044.000000;3.013161
2043.000000;3.250259
2042.000000;3.778774
2041.000000;3.417815
2040.000000;2.973187
2039.000000;2.807237
2038.000000;3.010009
2037.000000;3.303301
2036.000000;2.870460
2035.000000;2.748546
2034.000000;2.755258
2033.000000;2.768632
2032.000000;2.989128
2031.000000;3.267630
2030.000000;2.858044
2029.000000;2.624718
2028.000000;2.606147
2027.000000;2.685339
2026.000000;2.827904
2025.000000;3.111256
2024.000000;3.301041
2023.000000;2.800892
2022.000000;2.572644
2021.000000;2.552039
2020.000000;2.658934
2019.000000;2.987364
2018.000000;3.139750
2017.000000;2.831649
2016.000000;2.811987
2015.000000;2.932266
2014.000000;2.995701
2013.000000;3.205555
2012.000000;3.071768
2011.000000;2.790532
2010.000000;2.718692
2009.000000;2.692567
2008.000000;2.616167
2007.000000;2.574102
2006.000000;2.758797
2005.000000;2.795811
2004.000000;2.518174
2003.000000;2.462510
2002.000000;2.582282
2001.000000;2.944956
2000.000000;3.393740
1999.000000;3.100742
1998.000000;3.071409
1997.000000;3.240844
1996.000000;3.162288
1995.000000;2.967215
1994.000000;2.817815
1993.000000;2.913191
1992.000000;3.456563
1991.000000;3.195922
1990.000000;2.961122
1989.000000;2.961866
1988.000000;2.957653
1987.000000;3.082901
1986.000000;3.286574
1985.000000;3.337233
1984.000000;3.255669
1983.000000;3.092995
1982.000000;2.922262
1981.000000;2.930420
1980.000000;3.022851
1979.000000;2.831389
1978.000000;2.789123
1977.000000;3.153942
1976.000000;2.913613
1975.000000;2.611581
1974.000000;2.606341
1973.000000;2.691488
1972.000000;2.757112
1971.000000;2.906735
1970.000000;3.235167
1969.000000;2.990244
1968.000000;2.800323
1967.000000;2.897913
1966.000000;3.167024
1965.000000;3.193038
1964.000000;3.041540
1963.000000;2.940873
1962.000000;2.741594
1961.000000;2.616724
1960.000000;2.624252
1959.000000;2.727110
1958.000000;3.126787
1957.000000;3.439657
1956.000000;2.876388
1955.000000;2.842714
1954.000000;2.972738
1953.000000;3.076717
1952.000000;3.020931
1951.000000;3.002216
1950.000000;3.461215
1949.000000;3.076326
1948.000000;2.702522
1947.000000;2.643666
1946.000000;2.602726
1945.000000;2.582773
1944.000000;2.620552
1943.000000;2.806750
1942.000000;3.322745
1941.000000;3.227340
1940.000000;3.046789
1939.000000;3.411057
1938.000000;3.611293
1937.000000;3.365863
1936.000000;3.640108
1935.000000;3.170986
1934.000000;2.838153
1933.000000;2.757248
1932.000000;2.808045
1931.000000;2.909986
1930.000000;2.934025
1929.000000;2.963941
1928.000000;2.973456
1927.000000;3.147527
1926.000000;3.041487
1925.000000;2.712399
1924.000000;2.600935
1923.000000;2.607135
1922.000000;2.891594
1921.000000;3.199439
1920.000000;2.763656
1919.000000;2.610565
1918.000000;2.674923
1917.000000;2.803220
1916.000000;3.016611
1915.000000;3.380389
1914.000000;2.976539
1913.000000;2.704704
1912.000000;2.671200
1911.000000;2.746891
1910.000000;2.988222
1909.000000;3.102575
1908.000000;2.753246
1907.000000;2.548208
1906.000000;2.485666
1905.000000;2.607434
1904.000000;3.018069
1903.000000;2.861258
1902.000000;2.574947
1901.000000;2.584763
1900.000000;2.749167
1899.000000;2.980401
1898.000000;3.081169
1897.000000;3.083900
1896.000000;3.181258
1895.000000;3.217594
1894.000000;3.156687
1893.000000;2.908227
1892.000000;2.732021
1891.000000;2.570559
1890.000000;2.522176
1889.000000;2.481355
1888.000000;2.588932
1887.000000;3.390082
1886.000000;2.698693
1885.000000;2.359305
1884.000000;2.344741
1883.000000;2.463798
1882.000000;2.707238
1881.000000;2.713652
1880.000000;2.623361
1879.000000;2.641718
1878.000000;2.816665
1877.000000;2.985547
1876.000000;3.003182
1875.000000;2.987251
1874.000000;2.886138
1873.000000;2.823962
1872.000000;2.885511
1871.000000;3.106979
1870.000000;3.306910
1869.000000;3.052485
1868.000000;2.960574
1867.000000;3.411750
1866.000000;3.060363
1865.000000;2.665569
1864.000000;2.600091
1863.000000;2.761893
1862.000000;3.430708
1861.000000;3.237807
1860.000000;3.113961
1859.000000;3.682514
1858.000000;3.538770
1857.000000;3.236527
1856.000000;2.955348
1855.000000;2.984183
1854.000000;3.424740
1853.000000;3.032314
1852.000000;2.700245
1851.000000;2.622030
1850.000000;2.745687
1849.000000;3.049933
1848.000000;2.906364
1847.000000;2.710676
1846.000000;2.659674
1845.000000;2.674898
1844.000000;2.764565
1843.000000;2.883316
1842.000000;3.201866
1841.000000;3.409886
1840.000000;2.967107
1839.000000;2.787497
1838.000000;2.825575
1837.000000;2.990123
1836.000000;3.173194
1835.000000;2.972407
1834.000000;2.960702
1833.000000;3.502678
1832.000000;3.193886
1831.000000;2.860685
1830.000000;2.994515
1829.000000;3.267752
1828.000000;2.980570
1827.000000;2.865761
1826.000000;3.159174
1825.000000;3.272446
1824.000000;2.946345
1823.000000;3.029461
1822.000000;2.975647
1821.000000;2.796715
1820.000000;2.862385
1819.000000;2.958178
1818.000000;3.047540
1817.000000;3.167023
1816.000000;2.890009
1815.000000;2.669683
1814.000000;2.675252
1813.000000;2.808528
1812.000000;3.049370
1811.000000;3.079906
1810.000000;2.860661
1809.000000;2.687649
1808.000000;2.655222
1807.000000;2.962847
1806.000000;2.894288
1805.000000;2.477598
1804.000000;2.382390
1803.000000;2.497709
1802.000000;2.919957
1801.000000;3.290676
1800.000000;2.820502
1799.000000;2.750450
1798.000000;2.776384
1797.000000;3.067182
1796.000000;3.620822
1795.000000;2.947426
1794.000000;2.742643
1793.000000;2.657692
1792.000000;2.768916
1791.000000;3.057260
1790.000000;2.787901
1789.000000;2.533931
1788.000000;2.448276
1787.000000;2.461947
1786.000000;2.636066
1785.000000;2.803985
1784.000000;2.667912
1783.000000;2.591937
1782.000000;2.617231
1781.000000;2.688777
1780.000000;2.938827
1779.000000;3.294625
1778.000000;3.284153
1777.000000;3.517895
1776.000000;3.443963
1775.000000;3.041745
1774.000000;2.794087
1773.000000;2.707497
1772.000000;2.810465
1771.000000;2.829494
1770.000000;2.702861
1769.000000;2.714893
1768.000000;2.763867
1767.000000;2.624417
1766.000000;2.497419
1765.000000;2.474526
1764.000000;2.557062
1763.000000;2.841996
1762.000000;2.817112
1761.000000;2.577069
1760.000000;2.585003
1759.000000;2.640684
1758.000000;2.639463
1757.000000;2.635703
1756.000000;2.670164
1755.000000;2.718972
1754.000000;2.763499
1753.000000;2.762294
1752.000000;2.780367
1751.000000;3.023968
1750.000000;3.094484
1749.000000;2.797888
1748.000000;2.764678
1747.000000;2.903821
1746.000000;2.970354
1745.000000;2.907352
1744.000000;3.077740
1743.000000;3.604155
1742.000000;3.237314
1741.000000;3.135950
1740.000000;3.524892
1739.000000;3.450003
1738.000000;3.134761
1737.000000;3.106235
1736.000000;3.086545
1735.000000;3.033242
1734.000000;2.978536
1733.000000;2.916094
1732.000000;2.891665
1731.000000;2.840042
1730.000000;2.670848
1729.000000;2.565598
1728.000000;2.703140
1727.000000;3.090789
1726.000000;3.062657
1725.000000;2.949807
1724.000000;3.004263
1723.000000;2.972139
1722.000000;2.915872
1721.000000;2.915063
1720.000000;3.042174
1719.000000;3.456721
1718.000000;3.562300
1717.000000;3.166140
1716.000000;3.065020
1715.000000;3.153473
1714.000000;3.303638
1713.000000;3.003060
1712.000000;2.783977
1711.000000;2.799424
1710.000000;2.937343
1709.000000;2.912551
1708.000000;2.786188
1707.000000;2.872353
1706.000000;3.002729
1705.000000;2.919554
1704.000000;3.012613
1703.000000;3.232624
1702.000000;3.083744
1701.000000;3.005621
1700.000000;3.063451
1699.000000;3.091400
1698.000000;3.219500
1697.000000;3.310291
1696.000000;2.975029
1695.000000;2.792810
1694.000000;2.812807
1693.000000;2.894252
1692.000000;3.032247
1691.000000;2.985321
1690.000000;2.686101
1689.000000;2.665211
1688.000000;2.915742
1687.000000;2.928675
1686.000000;2.774784
1685.000000;2.694361
1684.000000;2.936920
1683.000000;3.252213
1682.000000;2.713315
1681.000000;2.575267
1680.000000;2.613881
1679.000000;2.813357
1678.000000;3.086315
1677.000000;3.027203
1676.000000;3.567200
1675.000000;2.958290
1674.000000;2.586946
1673.000000;2.587767
1672.000000;2.855914
1671.000000;3.135896
1670.000000;2.595886
1669.000000;2.426043
1668.000000;2.545987
1667.000000;2.871923
1666.000000;2.853164
1665.000000;2.669343
1664.000000;2.711583
1663.000000;2.796527
1662.000000;2.891263
1661.000000;3.058748
1660.000000;3.385210
1659.000000;3.534161
1658.000000;3.325858
1657.000000;3.136167
1656.000000;3.006840
1655.000000;2.992132
1654.000000;2.989570
1653.000000;3.057577
1652.000000;2.997158
1651.000000;2.801613
1650.000000;2.657734
1649.000000;2.735817
1648.000000;3.126513
1647.000000;2.872956
1646.000000;2.678608
1645.000000;2.805977
1644.000000;3.180749
1643.000000;3.229048
1642.000000;2.892367
1641.000000;2.722872
1640.000000;2.861665
1639.000000;3.506632
1638.000000;2.956504
1637.000000;2.707392
1636.000000;2.631293
1635.000000;2.738501
1634.000000;3.002222
1633.000000;2.754329
1632.000000;2.611997
1631.000000;2.749763
1630.000000;2.724672
1629.000000;2.497771
1628.000000;2.455268
1627.000000;2.554901
1626.000000;2.886653
1625.000000;3.192976
1624.000000;2.803707
1623.000000;2.647608
1622.000000;2.756263
1621.000000;3.271662
1620.000000;3.217224
1619.000000;2.905550
1618.000000;2.940984
1617.000000;3.143051
1616.000000;3.271505
1615.000000;3.041259
1614.000000;2.913228
1613.000000;2.906881
1612.000000;2.903980
1611.000000;2.956407
1610.000000;3.114731
1609.000000;2.895380
1608.000000;2.619217
1607.000000;2.549376
1606.000000;2.601335
1605.000000;2.727594
1604.000000;2.897126
1603.000000;3.042265
1602.000000;3.463098
1601.000000;3.388091
1600.000000;2.918027
1599.000000;2.768501
1598.000000;2.914036
1597.000000;3.218540
1596.000000;2.716530
1595.000000;2.473001
1594.000000;2.535955
1593.000000;2.963690
1592.000000;3.100850
1591.000000;2.741248
1590.000000;2.712180
1589.000000;2.902381
1588.000000;3.284920
1587.000000;2.944385
1586.000000;2.698580
1585.000000;2.619412
1584.000000;2.725218
1583.000000;2.960311
1582.000000;2.751179
1581.000000;2.649812
1580.000000;2.881202
1579.000000;3.209763
1578.000000;2.944793
1577.000000;2.720568
1576.000000;2.633288
1575.000000;2.664862
1574.000000;2.817868
1573.000000;3.298058
1572.000000;3.485800
1571.000000;2.899448
1570.000000;2.703698
1569.000000;2.703701
1568.000000;2.856052
1567.000000;2.846237
1566.000000;2.666744
1565.000000;2.558587
1564.000000;2.548434
1563.000000;2.667726
1562.000000;2.900264
1561.000000;3.240876
1560.000000;3.308880
1559.000000;2.961050
1558.000000;2.892040
1557.000000;3.041659
1556.000000;3.098756
1555.000000;2.905566
1554.000000;3.023112
1553.000000;3.104239
1552.000000;2.604950
1551.000000;2.403540
1550.000000;2.409940
1549.000000;2.627562
1548.000000;2.795815
1547.000000;2.654632
1546.000000;2.659627
1545.000000;2.856037
1544.000000;2.983514
1543.000000;2.918695
1542.000000;2.956772
1541.000000;3.086266
1540.000000;3.378215
1539.000000;3.160767
1538.000000;2.838260
1537.000000;2.733012
1536.000000;2.802731
1535.000000;3.186215
1534.000000;3.193987
1533.000000;2.758767
1532.000000;2.642781
1531.000000;2.653286
1530.000000;2.948799
1529.000000;3.705062
1528.000000;3.045259
1527.000000;3.083354
1526.000000;3.310416
1525.000000;3.193232
1524.000000;3.152389
1523.000000;3.184968
1522.000000;3.620062
1521.000000;3.644436
1520.000000;3.254233
1519.000000;3.040630
1518.000000;2.712716
1517.000000;2.554763
1516.000000;2.571227
1515.000000;2.835792
1514.000000;3.393390
1513.000000;3.052005
1512.000000;3.087555
1511.000000;3.084084
1510.000000;2.793556
1509.000000;2.767931
1508.000000;2.846649
1507.000000;3.104945
1506.000000;3.259109
1505.000000;2.987380
1504.000000;2.889150
1503.000000;3.171580
1502.000000;3.556474
1501.000000;2.808985
1500.000000;2.692039
1499.000000;2.812683
1498.000000;2.973581
1497.000000;2.964083
1496.000000;2.755040
1495.000000;2.678256
1494.000000;2.816495
1493.000000;3.098061
1492.000000;2.823446
1491.000000;2.617811
1490.000000;2.601065
1489.000000;2.592753
1488.000000;2.570706
1487.000000;2.625925
1486.000000;2.877441
1485.000000;3.025642
1484.000000;2.863300
1483.000000;2.877707
1482.000000;2.915974
1481.000000;2.811443
1480.000000;2.795392
1479.000000;3.111694
1478.000000;3.116731
1477.000000;2.661635
1476.000000;2.591101
1475.000000;2.706817
1474.000000;3.036474
1473.000000;3.658528
1472.000000;3.150552
1471.000000;3.097274
1470.000000;3.469181
1469.000000;3.705010
1468.000000;3.598265
1467.000000;3.214311
1466.000000;2.828034
1465.000000;2.710706
1464.000000;2.951806
1463.000000;3.156183
1462.000000;2.800205
1461.000000;2.770925
1460.000000;2.992190
1459.000000;2.935430
1458.000000;2.758544
1457.000000;2.688902
1456.000000;2.713562
1455.000000;2.747947
1454.000000;2.702931
1453.000000;2.669729
1452.000000;2.740626
1451.000000;2.957111
1450.000000;3.246578
1449.000000;3.124167
1448.000000;2.798536
1447.000000;2.592069
1446.000000;2.524434
1445.000000;2.598321
1444.000000;3.042516
1443.000000;3.171904
1442.000000;2.701301
1441.000000;2.686787
1440.000000;2.714189
1439.000000;2.716241
1438.000000;2.728999
1437.000000;2.751792
1436.000000;2.751221
1435.000000;2.717346
1434.000000;2.737778
1433.000000;2.801107
1432.000000;2.868358
1431.000000;2.779148
1430.000000;2.546780
1429.000000;2.436944
1428.000000;2.465342
1427.000000;2.715937
1426.000000;3.397127
1425.000000;2.904189
1424.000000;2.823375
1423.000000;3.023730
1422.000000;2.963968
1421.000000;3.013579
1420.000000;3.162307
1419.000000;3.043006
1418.000000;2.860078
1417.000000;2.834470
1416.000000;2.900626
1415.000000;3.096813
1414.000000;3.527165
1413.000000;3.245648
1412.000000;2.984472
1411.000000;3.262919
1410.000000;3.531320
1409.000000;3.097358
1408.000000;2.933355
1407.000000;2.942683
1406.000000;2.904298
1405.000000;2.738578
1404.000000;2.652770
1403.000000;2.670279
1402.000000;2.711521
1401.000000;2.842909
1400.000000;3.257095
1399.000000;3.270204
1398.000000;3.185414
1397.000000;3.402380
1396.000000;3.125474
1395.000000;2.973208
1394.000000;2.815150
1393.000000;2.636988
1392.000000;2.543514
1391.000000;2.465672
1390.000000;2.401084
1389.000000;2.421251
1388.000000;2.529203
1387.000000;2.548768
1386.000000;2.479713
1385.000000;2.494951
1384.000000;2.754623
1383.000000;3.067640
1382.000000;2.613231
1381.000000;2.422977
1380.000000;2.476113
1379.000000;2.740126
1378.000000;3.144398
1377.000000;2.879996
1376.000000;2.690085
1375.000000;2.671700
1374.000000;2.747097
1373.000000;2.875881
1372.000000;2.955319
1371.000000;2.932994
1370.000000;2.890756
1369.000000;2.888617
1368.000000;3.095399
1367.000000;3.447519
1366.000000;2.927376
1365.000000;2.651597
1364.000000;2.571685
1363.000000;2.637803
1362.000000;2.848523
1361.000000;3.009228
1360.000000;2.943022
1359.000000;2.813146
1358.000000;2.687458
1357.000000;2.655474
1356.000000;2.739904
1355.000000;2.839637
1354.000000;2.755055
1353.000000;2.826362
1352.000000;3.237879
1351.000000;2.771290
1350.000000;2.549607
1349.000000;2.636870
1348.000000;3.014095
1347.000000;3.274562
1346.000000;2.861346
1345.000000;2.830942
1344.000000;3.124846
1343.000000;3.012634
1342.000000;2.642680
1341.000000;2.545917
1340.000000;2.655320
1339.000000;2.861135
1338.000000;2.754116
1337.000000;2.576011
1336.000000;2.525095
1335.000000;2.581018
1334.000000;2.687032
1333.000000;2.735025
1332.000000;2.898537
1331.000000;3.184427
1330.000000;3.002262
1329.000000;2.892663
1328.000000;3.088538
1327.000000;3.031870
1326.000000;2.759788
1325.000000;2.875020
1324.000000;3.248239
1323.000000;2.738957
1322.000000;2.551306
1321.000000;2.571561
1320.000000;2.632632
1319.000000;2.680115
1318.000000;2.610912
1317.000000;2.566596
1316.000000;2.662195
1315.000000;2.901221
1314.000000;3.091950
1313.000000;3.047504
1312.000000;2.894950
1311.000000;2.731966
1310.000000;2.675029
1309.000000;2.893569
1308.000000;2.800106
1307.000000;2.468771
1306.000000;2.432958
1305.000000;2.619117
1304.000000;3.014798
1303.000000;3.198117
1302.000000;3.506214
1301.000000;3.447596
1300.000000;3.037443
1299.000000;2.963197
1298.000000;2.831068
1297.000000;2.704469
1296.000000;2.662922
1295.000000;2.695402
1294.000000;2.661023
1293.000000;2.570849
1292.000000;2.559706
1291.000000;2.727666
1290.000000;2.988579
1289.000000;2.863907
1288.000000;3.065901
1287.000000;3.003076
1286.000000;2.570919
1285.000000;2.540877
1284.000000;2.779423
1283.000000;3.256210
1282.000000;3.082540
1281.000000;2.849897
1280.000000;2.708894
1279.000000;2.594646
1278.000000;2.555713
1277.000000;2.654301
1276.000000;3.239120
1275.000000;3.080183
1274.000000;2.719106
1273.000000;2.613706
1272.000000;2.501637
1271.000000;2.473063
1270.000000;2.556897
1269.000000;2.885206
1268.000000;2.694289
1267.000000;2.378549
1266.000000;2.319886
1265.000000;2.431000
1264.000000;2.813726
1263.000000;3.042399
1262.000000;2.536399
1261.000000;2.381601
1260.000000;2.416265
1259.000000;2.629678
1258.000000;2.766048
1257.000000;2.628332
1256.000000;2.691554
1255.000000;3.104246
1254.000000;3.633151
1253.000000;3.184332
1252.000000;3.590171
1251.000000;3.183234
1250.000000;2.630861
1249.000000;2.437191
1248.000000;2.356420
1247.000000;2.372738
1246.000000;2.471778
1245.000000;2.692264
1244.000000;3.163680
1243.000000;3.560486
1242.000000;3.730310
1241.000000;3.337076
1240.000000;3.083560
1239.000000;2.989990
1238.000000;2.817274
1237.000000;2.670676
1236.000000;2.570231
1235.000000;2.521740
1234.000000;2.624522
1233.000000;3.024403
1232.000000;3.024065
1231.000000;2.742964
1230.000000;2.784392
1229.000000;2.887385
1228.000000;2.959480
1227.000000;2.858404
1226.000000;2.685710
1225.000000;2.628555
1224.000000;2.694048
1223.000000;2.997585
1222.000000;3.187588
1221.000000;2.869630
1220.000000;2.788941
1219.000000;2.991220
1218.000000;2.966148
1217.000000;2.591610
1216.000000;2.415618
1215.000000;2.379065
1214.000000;2.409422
1213.000000;2.455404
1212.000000;2.524016
1211.000000;2.629237
1210.000000;2.914255
1209.000000;3.415151
1208.000000;2.809106
1207.000000;2.642970
1206.000000;2.724051
1205.000000;3.074784
1204.000000;3.231157
1203.000000;3.200687
1202.000000;3.388023
1201.000000;2.862354
1200.000000;2.621962
