Criado como novo conjunto de dados;"0307_DANIEL.spp","19802.6 Secs"
cm-1;Abs
10000.000000;0.971450
9999.000000;0.971206
9998.000000;0.970986
9997.000000;0.970721
9996.000000;0.970606
9995.000000;0.970166
9994.000000;0.968767
9993.000000;0.966703
9992.000000;0.964731
9991.000000;0.963424
9990.000000;0.962717
9989.000000;0.962176
9988.000000;0.961445
9987.000000;0.960490
9986.000000;0.959480
9985.000000;0.958459
9984.000000;0.957217
9983.000000;0.955583
9982.000000;0.953767
9981.000000;0.952232
9980.000000;0.951214
9979.000000;0.950485
9978.000000;0.949641
9977.000000;0.948450
9976.000000;0.946942
9975.000000;0.945327
9974.000000;0.943835
9973.000000;0.942494
9972.000000;0.941105
9971.000000;0.939576
9970.000000;0.938182
9969.000000;0.937238
9968.000000;0.936582
9967.000000;0.935721
9966.000000;0.934479
9965.000000;0.933166
9964.000000;0.932037
9963.000000;0.930953
9962.000000;0.929698
9961.000000;0.928302
9960.000000;0.926870
9959.000000;0.925397
9958.000000;0.923949
9957.000000;0.922791
9956.000000;0.922073
9955.000000;0.921546
9954.000000;0.920762
9953.000000;0.919479
9952.000000;0.917784
9951.000000;0.916009
9950.000000;0.914567
9949.000000;0.913666
9948.000000;0.913027
9947.000000;0.912111
9946.000000;0.910710
9945.000000;0.909137
9944.000000;0.907737
9943.000000;0.906478
9942.000000;0.905193
9941.000000;0.903935
9940.000000;0.902861
9939.000000;0.901938
9938.000000;0.901017
9937.000000;0.900048
9936.000000;0.899027
9935.000000;0.897843
9934.000000;0.896383
9933.000000;0.894722
9932.000000;0.893038
9931.000000;0.891398
9930.000000;0.889768
9929.000000;0.888166
9928.000000;0.886684
9927.000000;0.885398
9926.000000;0.884322
9925.000000;0.883366
9924.000000;0.882317
9923.000000;0.880984
9922.000000;0.879426
9921.000000;0.877937
9920.000000;0.876710
9919.000000;0.875641
9918.000000;0.874512
9917.000000;0.873269
9916.000000;0.872039
9915.000000;0.870933
9914.000000;0.869870
9913.000000;0.868601
9912.000000;0.866980
9911.000000;0.865275
9910.000000;0.864034
9909.000000;0.863425
9908.000000;0.862877
9907.000000;0.861690
9906.000000;0.859911
9905.000000;0.858206
9904.000000;0.856915
9903.000000;0.855705
9902.000000;0.854258
9901.000000;0.852806
9900.000000;0.851692
9899.000000;0.850753
9898.000000;0.849494
9897.000000;0.847688
9896.000000;0.845564
9895.000000;0.843518
9894.000000;0.841829
9893.000000;0.840548
9892.000000;0.839495
9891.000000;0.838452
9890.000000;0.837390
9889.000000;0.836364
9888.000000;0.835225
9887.000000;0.833757
9886.000000;0.832126
9885.000000;0.830812
9884.000000;0.829934
9883.000000;0.829017
9882.000000;0.827634
9881.000000;0.825953
9880.000000;0.824348
9879.000000;0.822836
9878.000000;0.821246
9877.000000;0.819675
9876.000000;0.818349
9875.000000;0.817162
9874.000000;0.815776
9873.000000;0.814110
9872.000000;0.812408
9871.000000;0.810843
9870.000000;0.809358
9869.000000;0.807884
9868.000000;0.806432
9867.000000;0.804943
9866.000000;0.803295
9865.000000;0.801557
9864.000000;0.800024
9863.000000;0.798928
9862.000000;0.798170
9861.000000;0.797376
9860.000000;0.796161
9859.000000;0.794402
9858.000000;0.792390
9857.000000;0.790662
9856.000000;0.789543
9855.000000;0.788835
9854.000000;0.788030
9853.000000;0.786806
9852.000000;0.785246
9851.000000;0.783621
9850.000000;0.782061
9849.000000;0.780447
9848.000000;0.778525
9847.000000;0.776196
9846.000000;0.773735
9845.000000;0.771642
9844.000000;0.770179
9843.000000;0.769125
9842.000000;0.768094
9841.000000;0.766997
9840.000000;0.766022
9839.000000;0.765193
9838.000000;0.764170
9837.000000;0.762564
9836.000000;0.760390
9835.000000;0.758090
9834.000000;0.756130
9833.000000;0.754641
9832.000000;0.753458
9831.000000;0.752384
9830.000000;0.751314
9829.000000;0.750121
9828.000000;0.748649
9827.000000;0.746972
9826.000000;0.745496
9825.000000;0.744579
9824.000000;0.744053
9823.000000;0.743320
9822.000000;0.741916
9821.000000;0.739870
9820.000000;0.737558
9819.000000;0.735423
9818.000000;0.733811
9817.000000;0.732773
9816.000000;0.731902
9815.000000;0.730619
9814.000000;0.728733
9813.000000;0.726591
9812.000000;0.724596
9811.000000;0.722786
9810.000000;0.720980
9809.000000;0.719112
9808.000000;0.717259
9807.000000;0.715494
9806.000000;0.713876
9805.000000;0.712467
9804.000000;0.711198
9803.000000;0.709844
9802.000000;0.708269
9801.000000;0.706580
9800.000000;0.704882
9799.000000;0.703051
9798.000000;0.700974
9797.000000;0.698898
9796.000000;0.697260
9795.000000;0.696172
9794.000000;0.695282
9793.000000;0.694168
9792.000000;0.692722
9791.000000;0.691103
9790.000000;0.689510
9789.000000;0.688066
9788.000000;0.686778
9787.000000;0.685503
9786.000000;0.684019
9785.000000;0.682255
9784.000000;0.680389
9783.000000;0.678633
9782.000000;0.676953
9781.000000;0.675140
9780.000000;0.673154
9779.000000;0.671264
9778.000000;0.669732
9777.000000;0.668454
9776.000000;0.667032
9775.000000;0.665183
9774.000000;0.662967
9773.000000;0.660661
9772.000000;0.658563
9771.000000;0.656887
9770.000000;0.655656
9769.000000;0.654606
9768.000000;0.653349
9767.000000;0.651725
9766.000000;0.649886
9765.000000;0.648003
9764.000000;0.646053
9763.000000;0.643994
9762.000000;0.641952
9761.000000;0.640091
9760.000000;0.638421
9759.000000;0.636890
9758.000000;0.635526
9757.000000;0.634342
9756.000000;0.633196
9755.000000;0.631923
9754.000000;0.630498
9753.000000;0.628903
9752.000000;0.626987
9751.000000;0.624681
9750.000000;0.622237
9749.000000;0.620030
9748.000000;0.618163
9747.000000;0.616478
9746.000000;0.614850
9745.000000;0.613242
9744.000000;0.611527
9743.000000;0.609528
9742.000000;0.607266
9741.000000;0.604985
9740.000000;0.602919
9739.000000;0.601158
9738.000000;0.599688
9737.000000;0.598349
9736.000000;0.596818
9735.000000;0.594855
9734.000000;0.592591
9733.000000;0.590394
9732.000000;0.588508
9731.000000;0.586968
9730.000000;0.585728
9729.000000;0.584628
9728.000000;0.583332
9727.000000;0.581604
9726.000000;0.579640
9725.000000;0.577808
9724.000000;0.576087
9723.000000;0.574104
9722.000000;0.571772
9721.000000;0.569535
9720.000000;0.567823
9719.000000;0.566513
9718.000000;0.565111
9717.000000;0.563283
9716.000000;0.561097
9715.000000;0.558850
9714.000000;0.556777
9713.000000;0.554863
9712.000000;0.552907
9711.000000;0.550831
9710.000000;0.548823
9709.000000;0.547025
9708.000000;0.545226
9707.000000;0.543121
9706.000000;0.540790
9705.000000;0.538596
9704.000000;0.536643
9703.000000;0.534709
9702.000000;0.532727
9701.000000;0.530919
9700.000000;0.529334
9699.000000;0.527661
9698.000000;0.525706
9697.000000;0.523732
9696.000000;0.522046
9695.000000;0.520521
9694.000000;0.518817
9693.000000;0.516869
9692.000000;0.514881
9691.000000;0.512982
9690.000000;0.511194
9689.000000;0.509589
9688.000000;0.508169
9687.000000;0.506620
9686.000000;0.504498
9685.000000;0.501735
9684.000000;0.498752
9683.000000;0.496047
9682.000000;0.493816
9681.000000;0.491978
9680.000000;0.490342
9679.000000;0.488671
9678.000000;0.486766
9677.000000;0.484661
9676.000000;0.482658
9675.000000;0.481001
9674.000000;0.479540
9673.000000;0.477843
9672.000000;0.475681
9671.000000;0.473269
9670.000000;0.470979
9669.000000;0.468939
9668.000000;0.467028
9667.000000;0.465124
9666.000000;0.463128
9665.000000;0.460861
9664.000000;0.458236
9663.000000;0.455578
9662.000000;0.453454
9661.000000;0.452005
9660.000000;0.450677
9659.000000;0.448817
9658.000000;0.446366
9657.000000;0.443756
9656.000000;0.441299
9655.000000;0.438964
9654.000000;0.436637
9653.000000;0.434305
9652.000000;0.431985
9651.000000;0.429713
9650.000000;0.427623
9649.000000;0.425829
9648.000000;0.424221
9647.000000;0.422494
9646.000000;0.420424
9645.000000;0.417991
9644.000000;0.415324
9643.000000;0.412639
9642.000000;0.410178
9641.000000;0.408045
9640.000000;0.406160
9639.000000;0.404451
9638.000000;0.402965
9637.000000;0.401612
9636.000000;0.399963
9635.000000;0.397590
9634.000000;0.394574
9633.000000;0.391477
9632.000000;0.388826
9631.000000;0.386771
9630.000000;0.385096
9629.000000;0.383352
9628.000000;0.381110
9627.000000;0.378362
9626.000000;0.375649
9625.000000;0.373517
9624.000000;0.371895
9623.000000;0.370230
9622.000000;0.368156
9621.000000;0.365775
9620.000000;0.363324
9619.000000;0.360874
9618.000000;0.358401
9617.000000;0.355890
9616.000000;0.353345
9615.000000;0.350862
9614.000000;0.348673
9613.000000;0.346870
9612.000000;0.345135
9611.000000;0.342996
9610.000000;0.340366
9609.000000;0.337597
9608.000000;0.335050
9607.000000;0.332844
9606.000000;0.330959
9605.000000;0.329248
9604.000000;0.327345
9603.000000;0.324899
9602.000000;0.321994
9601.000000;0.319113
9600.000000;0.316623
9599.000000;0.314518
9598.000000;0.312634
9597.000000;0.310843
9596.000000;0.308986
9595.000000;0.306904
9594.000000;0.304628
9593.000000;0.302338
9592.000000;0.300081
9591.000000;0.297736
9590.000000;0.295256
9589.000000;0.292731
9588.000000;0.290215
9587.000000;0.287722
9586.000000;0.285358
9585.000000;0.283182
9584.000000;0.280969
9583.000000;0.278432
9582.000000;0.275684
9581.000000;0.273165
9580.000000;0.271055
9579.000000;0.269087
9578.000000;0.266980
9577.000000;0.264722
9576.000000;0.262356
9575.000000;0.259836
9574.000000;0.257220
9573.000000;0.254724
9572.000000;0.252426
9571.000000;0.250171
9570.000000;0.247879
9569.000000;0.245659
9568.000000;0.243512
9567.000000;0.241223
9566.000000;0.238703
9565.000000;0.236183
9564.000000;0.233886
9563.000000;0.231747
9562.000000;0.229562
9561.000000;0.227258
9560.000000;0.224899
9559.000000;0.222625
9558.000000;0.220622
9557.000000;0.218906
9556.000000;0.217093
9555.000000;0.214695
9554.000000;0.211750
9553.000000;0.208861
9552.000000;0.206473
9551.000000;0.204457
9550.000000;0.202495
9549.000000;0.200489
9548.000000;0.198376
9547.000000;0.195946
9546.000000;0.193186
9545.000000;0.190542
9544.000000;0.188453
9543.000000;0.186779
9542.000000;0.184999
9541.000000;0.182867
9540.000000;0.180608
9539.000000;0.178501
9538.000000;0.176533
9537.000000;0.174447
9536.000000;0.172012
9535.000000;0.169283
9534.000000;0.166650
9533.000000;0.164503
9532.000000;0.162774
9531.000000;0.160992
9530.000000;0.158863
9529.000000;0.156570
9528.000000;0.154393
9527.000000;0.152306
9526.000000;0.150161
9525.000000;0.148012
9524.000000;0.145968
9523.000000;0.143915
9522.000000;0.141677
9521.000000;0.139361
9520.000000;0.137266
9519.000000;0.135492
9518.000000;0.133879
9517.000000;0.132261
9516.000000;0.130569
9515.000000;0.128731
9514.000000;0.126680
9513.000000;0.124492
9512.000000;0.122340
9511.000000;0.120302
9510.000000;0.118340
9509.000000;0.116430
9508.000000;0.114580
9507.000000;0.112735
9506.000000;0.110811
9505.000000;0.108825
9504.000000;0.106917
9503.000000;0.105236
9502.000000;0.103853
9501.000000;0.102719
9500.000000;0.101625
9499.000000;0.100291
9498.000000;0.098609
9497.000000;0.096764
9496.000000;0.095042
9495.000000;0.093541
9494.000000;0.092122
9493.000000;0.090619
9492.000000;0.089006
9491.000000;0.087386
9490.000000;0.085882
9489.000000;0.084512
9488.000000;0.083186
9487.000000;0.081829
9486.000000;0.080484
9485.000000;0.079218
9484.000000;0.077965
9483.000000;0.076603
9482.000000;0.075201
9481.000000;0.074026
9480.000000;0.073238
9479.000000;0.072676
9478.000000;0.072057
9477.000000;0.071274
9476.000000;0.070426
9475.000000;0.069618
9474.000000;0.068809
9473.000000;0.067865
9472.000000;0.066719
9471.000000;0.065478
9470.000000;0.064310
9469.000000;0.063213
9468.000000;0.061976
9467.000000;0.060495
9466.000000;0.059048
9465.000000;0.058071
9464.000000;0.057663
9463.000000;0.057467
9462.000000;0.057071
9461.000000;0.056383
9460.000000;0.055614
9459.000000;0.055032
9458.000000;0.054747
9457.000000;0.054605
9456.000000;0.054270
9455.000000;0.053564
9454.000000;0.052731
9453.000000;0.052208
9452.000000;0.052137
9451.000000;0.052239
9450.000000;0.052185
9449.000000;0.051916
9448.000000;0.051580
9447.000000;0.051339
9446.000000;0.051286
9445.000000;0.051388
9444.000000;0.051451
9443.000000;0.051272
9442.000000;0.050878
9441.000000;0.050502
9440.000000;0.050321
9439.000000;0.050361
9438.000000;0.050618
9437.000000;0.051068
9436.000000;0.051527
9435.000000;0.051748
9434.000000;0.051730
9433.000000;0.051754
9432.000000;0.052022
9431.000000;0.052414
9430.000000;0.052681
9429.000000;0.052716
9428.000000;0.052556
9427.000000;0.052285
9426.000000;0.052065
9425.000000;0.052128
9424.000000;0.052608
9423.000000;0.053450
9422.000000;0.054486
9421.000000;0.055507
9420.000000;0.056283
9419.000000;0.056708
9418.000000;0.056977
9417.000000;0.057431
9416.000000;0.058148
9415.000000;0.058846
9414.000000;0.059241
9413.000000;0.059368
9412.000000;0.059487
9411.000000;0.059836
9410.000000;0.060526
9409.000000;0.061509
9408.000000;0.062544
9407.000000;0.063387
9406.000000;0.064098
9405.000000;0.064991
9404.000000;0.066186
9403.000000;0.067386
9402.000000;0.068258
9401.000000;0.068879
9400.000000;0.069584
9399.000000;0.070484
9398.000000;0.071333
9397.000000;0.071880
9396.000000;0.072198
9395.000000;0.072602
9394.000000;0.073328
9393.000000;0.074321
9392.000000;0.075371
9391.000000;0.076398
9390.000000;0.077520
9389.000000;0.078812
9388.000000;0.080113
9387.000000;0.081198
9386.000000;0.082048
9385.000000;0.082811
9384.000000;0.083577
9383.000000;0.084388
9382.000000;0.085407
9381.000000;0.086808
9380.000000;0.088452
9379.000000;0.089923
9378.000000;0.090991
9377.000000;0.091849
9376.000000;0.092815
9375.000000;0.093962
9374.000000;0.095125
9373.000000;0.096145
9372.000000;0.096999
9371.000000;0.097800
9370.000000;0.098738
9369.000000;0.099925
9368.000000;0.101253
9367.000000;0.102503
9366.000000;0.103604
9365.000000;0.104653
9364.000000;0.105704
9363.000000;0.106711
9362.000000;0.107713
9361.000000;0.108857
9360.000000;0.110173
9359.000000;0.111498
9358.000000;0.112703
9357.000000;0.113830
9356.000000;0.114965
9355.000000;0.116114
9354.000000;0.117292
9353.000000;0.118573
9352.000000;0.119940
9351.000000;0.121247
9350.000000;0.122402
9349.000000;0.123473
9348.000000;0.124559
9347.000000;0.125677
9346.000000;0.126840
9345.000000;0.128088
9344.000000;0.129364
9343.000000;0.130521
9342.000000;0.131525
9341.000000;0.132523
9340.000000;0.133653
9339.000000;0.134908
9338.000000;0.136241
9337.000000;0.137644
9336.000000;0.139044
9335.000000;0.140293
9334.000000;0.141366
9333.000000;0.142430
9332.000000;0.143637
9331.000000;0.144952
9330.000000;0.146269
9329.000000;0.147541
9328.000000;0.148716
9327.000000;0.149721
9326.000000;0.150602
9325.000000;0.151537
9324.000000;0.152608
9323.000000;0.153705
9322.000000;0.154737
9321.000000;0.155771
9320.000000;0.156863
9319.000000;0.157927
9318.000000;0.158929
9317.000000;0.160020
9316.000000;0.161298
9315.000000;0.162578
9314.000000;0.163623
9313.000000;0.164507
9312.000000;0.165545
9311.000000;0.166917
9310.000000;0.168534
9309.000000;0.170217
9308.000000;0.171826
9307.000000;0.173232
9306.000000;0.174359
9305.000000;0.175283
9304.000000;0.176187
9303.000000;0.177176
9302.000000;0.178216
9301.000000;0.179233
9300.000000;0.180187
9299.000000;0.181059
9298.000000;0.181873
9297.000000;0.182722
9296.000000;0.183713
9295.000000;0.184865
9294.000000;0.186097
9293.000000;0.187312
9292.000000;0.188464
9291.000000;0.189588
9290.000000;0.190783
9289.000000;0.192119
9288.000000;0.193498
9287.000000;0.194693
9286.000000;0.195581
9285.000000;0.196327
9284.000000;0.197241
9283.000000;0.198475
9282.000000;0.199884
9281.000000;0.201166
9280.000000;0.202101
9279.000000;0.202707
9278.000000;0.203208
9277.000000;0.203838
9276.000000;0.204639
9275.000000;0.205498
9274.000000;0.206364
9273.000000;0.207357
9272.000000;0.208598
9271.000000;0.210041
9270.000000;0.211525
9269.000000;0.212938
9268.000000;0.214236
9267.000000;0.215372
9266.000000;0.216326
9265.000000;0.217171
9264.000000;0.218010
9263.000000;0.218841
9262.000000;0.219605
9261.000000;0.220355
9260.000000;0.221260
9259.000000;0.222383
9258.000000;0.223556
9257.000000;0.224568
9256.000000;0.225403
9255.000000;0.226197
9254.000000;0.227021
9253.000000;0.227839
9252.000000;0.228681
9251.000000;0.229680
9250.000000;0.230852
9249.000000;0.231974
9248.000000;0.232830
9247.000000;0.233485
9246.000000;0.234168
9245.000000;0.234930
9244.000000;0.235617
9243.000000;0.236195
9242.000000;0.236881
9241.000000;0.237876
9240.000000;0.239109
9239.000000;0.240348
9238.000000;0.241451
9237.000000;0.242389
9236.000000;0.243157
9235.000000;0.243824
9234.000000;0.244562
9233.000000;0.245499
9232.000000;0.246571
9231.000000;0.247618
9230.000000;0.248572
9229.000000;0.249434
9228.000000;0.250162
9227.000000;0.250744
9226.000000;0.251326
9225.000000;0.252099
9224.000000;0.253070
9223.000000;0.254085
9222.000000;0.255043
9221.000000;0.255968
9220.000000;0.256862
9219.000000;0.257664
9218.000000;0.258345
9217.000000;0.258929
9216.000000;0.259427
9215.000000;0.259852
9214.000000;0.260307
9213.000000;0.260930
9212.000000;0.261740
9211.000000;0.262642
9210.000000;0.263579
9209.000000;0.264562
9208.000000;0.265550
9207.000000;0.266431
9206.000000;0.267162
9205.000000;0.267821
9204.000000;0.268484
9203.000000;0.269150
9202.000000;0.269805
9201.000000;0.270475
9200.000000;0.271166
9199.000000;0.271832
9198.000000;0.272436
9197.000000;0.272983
9196.000000;0.273506
9195.000000;0.274066
9194.000000;0.274771
9193.000000;0.275691
9192.000000;0.276732
9191.000000;0.277668
9190.000000;0.278356
9189.000000;0.278873
9188.000000;0.279419
9187.000000;0.280135
9186.000000;0.281007
9185.000000;0.281920
9184.000000;0.282763
9183.000000;0.283526
9182.000000;0.284273
9181.000000;0.285051
9180.000000;0.285840
9179.000000;0.286607
9178.000000;0.287337
9177.000000;0.287971
9176.000000;0.288421
9175.000000;0.288687
9174.000000;0.288917
9173.000000;0.289253
9172.000000;0.289693
9171.000000;0.290167
9170.000000;0.290683
9169.000000;0.291300
9168.000000;0.292010
9167.000000;0.292744
9166.000000;0.293454
9165.000000;0.294110
9164.000000;0.294680
9163.000000;0.295188
9162.000000;0.295723
9161.000000;0.296317
9160.000000;0.296876
9159.000000;0.297324
9158.000000;0.297735
9157.000000;0.298245
9156.000000;0.298884
9155.000000;0.299605
9154.000000;0.300373
9153.000000;0.301128
9152.000000;0.301756
9151.000000;0.302234
9150.000000;0.302721
9149.000000;0.303346
9148.000000;0.303992
9147.000000;0.304460
9146.000000;0.304787
9145.000000;0.305212
9144.000000;0.305858
9143.000000;0.306600
9142.000000;0.307263
9141.000000;0.307786
9140.000000;0.308206
9139.000000;0.308628
9138.000000;0.309188
9137.000000;0.309912
9136.000000;0.310592
9135.000000;0.310955
9134.000000;0.310991
9133.000000;0.310989
9132.000000;0.311229
9131.000000;0.311744
9130.000000;0.312380
9129.000000;0.312995
9128.000000;0.313565
9127.000000;0.314156
9126.000000;0.314805
9125.000000;0.315415
9124.000000;0.315818
9123.000000;0.316005
9122.000000;0.316207
9121.000000;0.316616
9120.000000;0.317126
9119.000000;0.317486
9118.000000;0.317649
9117.000000;0.317817
9116.000000;0.318181
9115.000000;0.318758
9114.000000;0.319481
9113.000000;0.320265
9112.000000;0.320979
9111.000000;0.321474
9110.000000;0.321725
9109.000000;0.321861
9108.000000;0.322063
9107.000000;0.322451
9106.000000;0.323018
9105.000000;0.323602
9104.000000;0.323995
9103.000000;0.324175
9102.000000;0.324352
9101.000000;0.324687
9100.000000;0.325064
9099.000000;0.325287
9098.000000;0.325415
9097.000000;0.325702
9096.000000;0.326254
9095.000000;0.326916
9094.000000;0.327509
9093.000000;0.327990
9092.000000;0.328386
9091.000000;0.328733
9090.000000;0.329096
9089.000000;0.329534
9088.000000;0.330007
9087.000000;0.330428
9086.000000;0.330795
9085.000000;0.331173
9084.000000;0.331574
9083.000000;0.331974
9082.000000;0.332397
9081.000000;0.332868
9080.000000;0.333314
9079.000000;0.333638
9078.000000;0.333888
9077.000000;0.334198
9076.000000;0.334619
9075.000000;0.335114
9074.000000;0.335678
9073.000000;0.336279
9072.000000;0.336747
9071.000000;0.336904
9070.000000;0.336819
9069.000000;0.336759
9068.000000;0.336886
9067.000000;0.337154
9066.000000;0.337475
9065.000000;0.337809
9064.000000;0.338109
9063.000000;0.338351
9062.000000;0.338640
9061.000000;0.339102
9060.000000;0.339643
9059.000000;0.339991
9058.000000;0.340015
9057.000000;0.339855
9056.000000;0.339716
9055.000000;0.339692
9054.000000;0.339829
9053.000000;0.340182
9052.000000;0.340702
9051.000000;0.341217
9050.000000;0.341628
9049.000000;0.342032
9048.000000;0.342569
9047.000000;0.343215
9046.000000;0.343781
9045.000000;0.344088
9044.000000;0.344084
9043.000000;0.343879
9042.000000;0.343682
9041.000000;0.343662
9040.000000;0.343854
9039.000000;0.344200
9038.000000;0.344625
9037.000000;0.345015
9036.000000;0.345237
9035.000000;0.345296
9034.000000;0.345439
9033.000000;0.345926
9032.000000;0.346700
9031.000000;0.347425
9030.000000;0.347843
9029.000000;0.347995
9028.000000;0.348074
9027.000000;0.348203
9026.000000;0.348359
9025.000000;0.348429
9024.000000;0.348335
9023.000000;0.348169
9022.000000;0.348170
9021.000000;0.348463
9020.000000;0.348859
9019.000000;0.349058
9018.000000;0.349004
9017.000000;0.348926
9016.000000;0.349056
9015.000000;0.349440
9014.000000;0.349986
9013.000000;0.350528
9012.000000;0.350853
9011.000000;0.350834
9010.000000;0.350600
9009.000000;0.350424
9008.000000;0.350473
9007.000000;0.350729
9006.000000;0.351121
9005.000000;0.351571
9004.000000;0.351928
9003.000000;0.352059
9002.000000;0.352026
9001.000000;0.352031
9000.000000;0.352168
8999.000000;0.352353
8998.000000;0.352497
8997.000000;0.352600
8996.000000;0.352680
8995.000000;0.352759
8994.000000;0.352932
8993.000000;0.353281
8992.000000;0.353691
8991.000000;0.353909
8990.000000;0.353843
8989.000000;0.353672
8988.000000;0.353633
8987.000000;0.353816
8986.000000;0.354191
8985.000000;0.354669
8984.000000;0.355070
8983.000000;0.355203
8982.000000;0.355054
8981.000000;0.354828
8980.000000;0.354738
8979.000000;0.354835
8978.000000;0.355041
8977.000000;0.355228
8976.000000;0.355248
8975.000000;0.355028
8974.000000;0.354699
8973.000000;0.354537
8972.000000;0.354706
8971.000000;0.355122
8970.000000;0.355590
8969.000000;0.355960
8968.000000;0.356154
8967.000000;0.356153
8966.000000;0.356024
8965.000000;0.355905
8964.000000;0.355893
8963.000000;0.355975
8962.000000;0.356081
8961.000000;0.356163
8960.000000;0.356231
8959.000000;0.356363
8958.000000;0.356642
8957.000000;0.357027
8956.000000;0.357321
8955.000000;0.357374
8954.000000;0.357260
8953.000000;0.357182
8952.000000;0.357225
8951.000000;0.357317
8950.000000;0.357380
8949.000000;0.357408
8948.000000;0.357421
8947.000000;0.357443
8946.000000;0.357526
8945.000000;0.357667
8944.000000;0.357756
8943.000000;0.357708
8942.000000;0.357619
8941.000000;0.357643
8940.000000;0.357778
8939.000000;0.357906
8938.000000;0.358013
8937.000000;0.358197
8936.000000;0.358460
8935.000000;0.358681
8934.000000;0.358799
8933.000000;0.358880
8932.000000;0.358969
8931.000000;0.359013
8930.000000;0.358964
8929.000000;0.358852
8928.000000;0.358715
8927.000000;0.358582
8926.000000;0.358519
8925.000000;0.358572
8924.000000;0.358650
8923.000000;0.358605
8922.000000;0.358453
8921.000000;0.358366
8920.000000;0.358419
8919.000000;0.358485
8918.000000;0.358424
8917.000000;0.358260
8916.000000;0.358119
8915.000000;0.358077
8914.000000;0.358118
8913.000000;0.358190
8912.000000;0.358263
8911.000000;0.358372
8910.000000;0.358592
8909.000000;0.358894
8908.000000;0.359083
8907.000000;0.358992
8906.000000;0.358710
8905.000000;0.358499
8904.000000;0.358479
8903.000000;0.358550
8902.000000;0.358612
8901.000000;0.358720
8900.000000;0.358962
8899.000000;0.359286
8898.000000;0.359518
8897.000000;0.359501
8896.000000;0.359211
8895.000000;0.358800
8894.000000;0.358515
8893.000000;0.358516
8892.000000;0.358739
8891.000000;0.358989
8890.000000;0.359113
8889.000000;0.359071
8888.000000;0.358910
8887.000000;0.358767
8886.000000;0.358796
8885.000000;0.358984
8884.000000;0.359118
8883.000000;0.359075
8882.000000;0.359035
8881.000000;0.359224
8880.000000;0.359526
8879.000000;0.359559
8878.000000;0.359146
8877.000000;0.358518
8876.000000;0.358019
8875.000000;0.357825
8874.000000;0.357932
8873.000000;0.358233
8872.000000;0.358513
8871.000000;0.358559
8870.000000;0.358376
8869.000000;0.358203
8868.000000;0.358253
8867.000000;0.358494
8866.000000;0.358716
8865.000000;0.358740
8864.000000;0.358540
8863.000000;0.358256
8862.000000;0.358090
8861.000000;0.358133
8860.000000;0.358290
8859.000000;0.358412
8858.000000;0.358437
8857.000000;0.358342
8856.000000;0.358073
8855.000000;0.357677
8854.000000;0.357416
8853.000000;0.357541
8852.000000;0.357973
8851.000000;0.358383
8850.000000;0.358562
8849.000000;0.358536
8848.000000;0.358366
8847.000000;0.358050
8846.000000;0.357652
8845.000000;0.357335
8844.000000;0.357176
8843.000000;0.357119
8842.000000;0.357127
8841.000000;0.357244
8840.000000;0.357464
8839.000000;0.357653
8838.000000;0.357684
8837.000000;0.357551
8836.000000;0.357351
8835.000000;0.357232
8834.000000;0.357338
8833.000000;0.357668
8832.000000;0.357999
8831.000000;0.358088
8830.000000;0.357928
8829.000000;0.357694
8828.000000;0.357490
8827.000000;0.357304
8826.000000;0.357196
8825.000000;0.357292
8824.000000;0.357569
8823.000000;0.357824
8822.000000;0.357929
8821.000000;0.357949
8820.000000;0.357971
8819.000000;0.357973
8818.000000;0.357932
8817.000000;0.357915
8816.000000;0.357996
8815.000000;0.358187
8814.000000;0.358466
8813.000000;0.358775
8812.000000;0.358957
8811.000000;0.358850
8810.000000;0.358465
8809.000000;0.357966
8808.000000;0.357487
8807.000000;0.357075
8806.000000;0.356831
8805.000000;0.356909
8804.000000;0.357329
8803.000000;0.357893
8802.000000;0.358318
8801.000000;0.358403
8800.000000;0.358096
8799.000000;0.357558
8798.000000;0.357126
8797.000000;0.357047
8796.000000;0.357233
8795.000000;0.357416
8794.000000;0.357511
8793.000000;0.357660
8792.000000;0.357937
8791.000000;0.358204
8790.000000;0.358320
8789.000000;0.358275
8788.000000;0.358121
8787.000000;0.357930
8786.000000;0.357858
8785.000000;0.358034
8784.000000;0.358335
8783.000000;0.358454
8782.000000;0.358260
8781.000000;0.357921
8780.000000;0.357635
8779.000000;0.357432
8778.000000;0.357310
8777.000000;0.357355
8776.000000;0.357593
8775.000000;0.357900
8774.000000;0.358165
8773.000000;0.358393
8772.000000;0.358573
8771.000000;0.358621
8770.000000;0.358544
8769.000000;0.358528
8768.000000;0.358700
8767.000000;0.358952
8766.000000;0.359093
8765.000000;0.359073
8764.000000;0.358943
8763.000000;0.358726
8762.000000;0.358456
8761.000000;0.358232
8760.000000;0.358131
8759.000000;0.358125
8758.000000;0.358169
8757.000000;0.358280
8756.000000;0.358454
8755.000000;0.358610
8754.000000;0.358716
8753.000000;0.358850
8752.000000;0.359045
8751.000000;0.359181
8750.000000;0.359145
8749.000000;0.358996
8748.000000;0.358876
8747.000000;0.358830
8746.000000;0.358832
8745.000000;0.358909
8744.000000;0.359115
8743.000000;0.359428
8742.000000;0.359740
8741.000000;0.359935
8740.000000;0.359917
8739.000000;0.359653
8738.000000;0.359255
8737.000000;0.358958
8736.000000;0.358898
8735.000000;0.358973
8734.000000;0.358995
8733.000000;0.358941
8732.000000;0.358953
8731.000000;0.359131
8730.000000;0.359407
8729.000000;0.359634
8728.000000;0.359729
8727.000000;0.359721
8726.000000;0.359691
8725.000000;0.359686
8724.000000;0.359702
8723.000000;0.359737
8722.000000;0.359813
8721.000000;0.359915
8720.000000;0.359944
8719.000000;0.359828
8718.000000;0.359652
8717.000000;0.359577
8716.000000;0.359644
8715.000000;0.359739
8714.000000;0.359754
8713.000000;0.359681
8712.000000;0.359573
8711.000000;0.359482
8710.000000;0.359441
8709.000000;0.359420
8708.000000;0.359313
8707.000000;0.359062
8706.000000;0.358774
8705.000000;0.358602
8704.000000;0.358548
8703.000000;0.358510
8702.000000;0.358492
8701.000000;0.358615
8700.000000;0.358886
8699.000000;0.359119
8698.000000;0.359132
8697.000000;0.358914
8696.000000;0.358558
8695.000000;0.358163
8694.000000;0.357843
8693.000000;0.357695
8692.000000;0.357688
8691.000000;0.357690
8690.000000;0.357642
8689.000000;0.357602
8688.000000;0.357604
8687.000000;0.357574
8686.000000;0.357450
8685.000000;0.357277
8684.000000;0.357135
8683.000000;0.357068
8682.000000;0.357098
8681.000000;0.357207
8680.000000;0.357281
8679.000000;0.357185
8678.000000;0.356955
8677.000000;0.356757
8676.000000;0.356627
8675.000000;0.356380
8674.000000;0.355854
8673.000000;0.355152
8672.000000;0.354535
8671.000000;0.354164
8670.000000;0.354010
8669.000000;0.353937
8668.000000;0.353803
8667.000000;0.353559
8666.000000;0.353309
8665.000000;0.353197
8664.000000;0.353213
8663.000000;0.353189
8662.000000;0.353029
8661.000000;0.352820
8660.000000;0.352671
8659.000000;0.352540
8658.000000;0.352322
8657.000000;0.351989
8656.000000;0.351604
8655.000000;0.351240
8654.000000;0.350966
8653.000000;0.350825
8652.000000;0.350749
8651.000000;0.350584
8650.000000;0.350261
8649.000000;0.349894
8648.000000;0.349633
8647.000000;0.349490
8646.000000;0.349364
8645.000000;0.349184
8644.000000;0.348964
8643.000000;0.348760
8642.000000;0.348618
8641.000000;0.348531
8640.000000;0.348401
8639.000000;0.348114
8638.000000;0.347674
8637.000000;0.347235
8636.000000;0.346932
8635.000000;0.346750
8634.000000;0.346575
8633.000000;0.346339
8632.000000;0.346062
8631.000000;0.345805
8630.000000;0.345607
8629.000000;0.345429
8628.000000;0.345163
8627.000000;0.344735
8626.000000;0.344221
8625.000000;0.343798
8624.000000;0.343556
8623.000000;0.343416
8622.000000;0.343253
8621.000000;0.343015
8620.000000;0.342707
8619.000000;0.342345
8618.000000;0.341980
8617.000000;0.341711
8616.000000;0.341584
8615.000000;0.341516
8614.000000;0.341351
8613.000000;0.341004
8612.000000;0.340516
8611.000000;0.340011
8610.000000;0.339608
8609.000000;0.339342
8608.000000;0.339172
8607.000000;0.339028
8606.000000;0.338865
8605.000000;0.338645
8604.000000;0.338321
8603.000000;0.337895
8602.000000;0.337443
8601.000000;0.337039
8600.000000;0.336680
8599.000000;0.336325
8598.000000;0.336000
8597.000000;0.335770
8596.000000;0.335634
8595.000000;0.335505
8594.000000;0.335286
8593.000000;0.334920
8592.000000;0.334412
8591.000000;0.333857
8590.000000;0.333413
8589.000000;0.333158
8588.000000;0.333011
8587.000000;0.332822
8586.000000;0.332511
8585.000000;0.332068
8584.000000;0.331487
8583.000000;0.330810
8582.000000;0.330176
8581.000000;0.329710
8580.000000;0.329395
8579.000000;0.329141
8578.000000;0.328939
8577.000000;0.328825
8576.000000;0.328734
8575.000000;0.328537
8574.000000;0.328195
8573.000000;0.327778
8572.000000;0.327342
8571.000000;0.326915
8570.000000;0.326575
8569.000000;0.326383
8568.000000;0.326238
8567.000000;0.325949
8566.000000;0.325491
8565.000000;0.325051
8564.000000;0.324784
8563.000000;0.324634
8562.000000;0.324433
8561.000000;0.324088
8560.000000;0.323614
8559.000000;0.323083
8558.000000;0.322591
8557.000000;0.322196
8556.000000;0.321879
8555.000000;0.321588
8554.000000;0.321311
8553.000000;0.321044
8552.000000;0.320726
8551.000000;0.320300
8550.000000;0.319831
8549.000000;0.319449
8548.000000;0.319185
8547.000000;0.318938
8546.000000;0.318609
8545.000000;0.318176
8544.000000;0.317675
8543.000000;0.317199
8542.000000;0.316873
8541.000000;0.316717
8540.000000;0.316563
8539.000000;0.316232
8538.000000;0.315779
8537.000000;0.315417
8536.000000;0.315227
8535.000000;0.315086
8534.000000;0.314867
8533.000000;0.314554
8532.000000;0.314143
8531.000000;0.313628
8530.000000;0.313105
8529.000000;0.312736
8528.000000;0.312535
8527.000000;0.312339
8526.000000;0.312034
8525.000000;0.311674
8524.000000;0.311346
8523.000000;0.311050
8522.000000;0.310778
8521.000000;0.310567
8520.000000;0.310388
8519.000000;0.310104
8518.000000;0.309638
8517.000000;0.309093
8516.000000;0.308629
8515.000000;0.308283
8514.000000;0.307995
8513.000000;0.307701
8512.000000;0.307365
8511.000000;0.306985
8510.000000;0.306616
8509.000000;0.306329
8508.000000;0.306082
8507.000000;0.305739
8506.000000;0.305253
8505.000000;0.304754
8504.000000;0.304376
8503.000000;0.304085
8502.000000;0.303760
8501.000000;0.303361
8500.000000;0.302937
8499.000000;0.302530
8498.000000;0.302151
8497.000000;0.301842
8496.000000;0.301666
8495.000000;0.301631
8494.000000;0.301645
8493.000000;0.301556
8492.000000;0.301234
8491.000000;0.300680
8490.000000;0.300064
8489.000000;0.299607
8488.000000;0.299381
8487.000000;0.299244
8486.000000;0.298992
8485.000000;0.298552
8484.000000;0.298015
8483.000000;0.297520
8482.000000;0.297128
8481.000000;0.296806
8480.000000;0.296505
8479.000000;0.296221
8478.000000;0.295971
8477.000000;0.295723
8476.000000;0.295406
8475.000000;0.295004
8474.000000;0.294577
8473.000000;0.294149
8472.000000;0.293656
8471.000000;0.293073
8470.000000;0.292522
8469.000000;0.292158
8468.000000;0.292006
8467.000000;0.291979
8466.000000;0.292018
8465.000000;0.292086
8464.000000;0.292090
8463.000000;0.291904
8462.000000;0.291485
8461.000000;0.290873
8460.000000;0.290135
8459.000000;0.289385
8458.000000;0.288817
8457.000000;0.288565
8456.000000;0.288544
8455.000000;0.288539
8454.000000;0.288433
8453.000000;0.288260
8452.000000;0.288049
8451.000000;0.287764
8450.000000;0.287392
8449.000000;0.286985
8448.000000;0.286581
8447.000000;0.286188
8446.000000;0.285838
8445.000000;0.285566
8444.000000;0.285330
8443.000000;0.285049
8442.000000;0.284706
8441.000000;0.284353
8440.000000;0.284004
8439.000000;0.283648
8438.000000;0.283338
8437.000000;0.283136
8436.000000;0.282986
8435.000000;0.282756
8434.000000;0.282428
8433.000000;0.282122
8432.000000;0.281899
8431.000000;0.281660
8430.000000;0.281276
8429.000000;0.280752
8428.000000;0.280216
8427.000000;0.279810
8426.000000;0.279596
8425.000000;0.279508
8424.000000;0.279386
8423.000000;0.279114
8422.000000;0.278737
8421.000000;0.278369
8420.000000;0.278054
8419.000000;0.277769
8418.000000;0.277539
8417.000000;0.277407
8416.000000;0.277317
8415.000000;0.277133
8414.000000;0.276795
8413.000000;0.276363
8412.000000;0.275925
8411.000000;0.275554
8410.000000;0.275302
8409.000000;0.275162
8408.000000;0.275017
8407.000000;0.274761
8406.000000;0.274427
8405.000000;0.274104
8404.000000;0.273771
8403.000000;0.273346
8402.000000;0.272869
8401.000000;0.272491
8400.000000;0.272275
8399.000000;0.272151
8398.000000;0.272043
8397.000000;0.271936
8396.000000;0.271795
8395.000000;0.271582
8394.000000;0.271327
8393.000000;0.271078
8392.000000;0.270784
8391.000000;0.270392
8390.000000;0.270015
8389.000000;0.269826
8388.000000;0.269785
8387.000000;0.269647
8386.000000;0.269302
8385.000000;0.268903
8384.000000;0.268616
8383.000000;0.268409
8382.000000;0.268165
8381.000000;0.267855
8380.000000;0.267490
8379.000000;0.267057
8378.000000;0.266599
8377.000000;0.266253
8376.000000;0.266100
8375.000000;0.266052
8374.000000;0.265965
8373.000000;0.265779
8372.000000;0.265504
8371.000000;0.265165
8370.000000;0.264813
8369.000000;0.264507
8368.000000;0.264236
8367.000000;0.263932
8366.000000;0.263604
8365.000000;0.263349
8364.000000;0.263178
8363.000000;0.262968
8362.000000;0.262637
8361.000000;0.262292
8360.000000;0.262090
8359.000000;0.262035
8358.000000;0.261989
8357.000000;0.261812
8356.000000;0.261454
8355.000000;0.260972
8354.000000;0.260514
8353.000000;0.260213
8352.000000;0.260062
8351.000000;0.259919
8350.000000;0.259662
8349.000000;0.259278
8348.000000;0.258808
8347.000000;0.258306
8346.000000;0.257886
8345.000000;0.257671
8344.000000;0.257640
8343.000000;0.257614
8342.000000;0.257468
8341.000000;0.257247
8340.000000;0.257030
8339.000000;0.256778
8338.000000;0.256413
8337.000000;0.255992
8336.000000;0.255664
8335.000000;0.255502
8334.000000;0.255430
8333.000000;0.255324
8332.000000;0.255110
8331.000000;0.254807
8330.000000;0.254502
8329.000000;0.254278
8328.000000;0.254151
8327.000000;0.254056
8326.000000;0.253905
8325.000000;0.253632
8324.000000;0.253229
8323.000000;0.252782
8322.000000;0.252447
8321.000000;0.252304
8320.000000;0.252240
8319.000000;0.252059
8318.000000;0.251688
8317.000000;0.251207
8316.000000;0.250710
8315.000000;0.250239
8314.000000;0.249856
8313.000000;0.249642
8312.000000;0.249598
8311.000000;0.249624
8310.000000;0.249633
8309.000000;0.249584
8308.000000;0.249423
8307.000000;0.249101
8306.000000;0.248696
8305.000000;0.248386
8304.000000;0.248242
8303.000000;0.248148
8302.000000;0.247960
8301.000000;0.247690
8300.000000;0.247445
8299.000000;0.247283
8298.000000;0.247179
8297.000000;0.247070
8296.000000;0.246891
8295.000000;0.246620
8294.000000;0.246317
8293.000000;0.246084
8292.000000;0.245949
8291.000000;0.245835
8290.000000;0.245655
8289.000000;0.245366
8288.000000;0.244935
8287.000000;0.244370
8286.000000;0.243800
8285.000000;0.243423
8284.000000;0.243322
8283.000000;0.243377
8282.000000;0.243404
8281.000000;0.243304
8280.000000;0.243078
8279.000000;0.242776
8278.000000;0.242486
8277.000000;0.242300
8276.000000;0.242218
8275.000000;0.242137
8274.000000;0.241969
8273.000000;0.241713
8272.000000;0.241429
8271.000000;0.241188
8270.000000;0.241051
8269.000000;0.241032
8268.000000;0.241041
8267.000000;0.240955
8266.000000;0.240759
8265.000000;0.240548
8264.000000;0.240387
8263.000000;0.240232
8262.000000;0.240032
8261.000000;0.239809
8260.000000;0.239601
8259.000000;0.239408
8258.000000;0.239226
8257.000000;0.239072
8256.000000;0.238926
8255.000000;0.238726
8254.000000;0.238451
8253.000000;0.238145
8252.000000;0.237849
8251.000000;0.237573
8250.000000;0.237343
8249.000000;0.237213
8248.000000;0.237187
8247.000000;0.237191
8246.000000;0.237141
8245.000000;0.236996
8244.000000;0.236740
8243.000000;0.236398
8242.000000;0.236058
8241.000000;0.235803
8240.000000;0.235598
8239.000000;0.235339
8238.000000;0.235010
8237.000000;0.234704
8236.000000;0.234482
8235.000000;0.234326
8234.000000;0.234238
8233.000000;0.234265
8232.000000;0.234371
8231.000000;0.234396
8230.000000;0.234220
8229.000000;0.233904
8228.000000;0.233619
8227.000000;0.233475
8226.000000;0.233470
8225.000000;0.233524
8224.000000;0.233532
8223.000000;0.233438
8222.000000;0.233274
8221.000000;0.233089
8220.000000;0.232856
8219.000000;0.232539
8218.000000;0.232233
8217.000000;0.232108
8216.000000;0.232171
8215.000000;0.232216
8214.000000;0.232083
8213.000000;0.231834
8212.000000;0.231618
8211.000000;0.231468
8210.000000;0.231341
8209.000000;0.231245
8208.000000;0.231203
8207.000000;0.231151
8206.000000;0.230990
8205.000000;0.230710
8204.000000;0.230389
8203.000000;0.230097
8202.000000;0.229858
8201.000000;0.229690
8200.000000;0.229593
8199.000000;0.229533
8198.000000;0.229474
8197.000000;0.229415
8196.000000;0.229352
8195.000000;0.229249
8194.000000;0.229082
8193.000000;0.228883
8192.000000;0.228698
8191.000000;0.228540
8190.000000;0.228405
8189.000000;0.228292
8188.000000;0.228168
8187.000000;0.227975
8186.000000;0.227711
8185.000000;0.227459
8184.000000;0.227298
8183.000000;0.227226
8182.000000;0.227200
8181.000000;0.227202
8180.000000;0.227207
8179.000000;0.227157
8178.000000;0.227023
8177.000000;0.226870
8176.000000;0.226792
8175.000000;0.226786
8174.000000;0.226747
8173.000000;0.226583
8172.000000;0.226302
8171.000000;0.226003
8170.000000;0.225800
8169.000000;0.225741
8168.000000;0.225774
8167.000000;0.225793
8166.000000;0.225737
8165.000000;0.225609
8164.000000;0.225451
8163.000000;0.225310
8162.000000;0.225241
8161.000000;0.225262
8160.000000;0.225300
8159.000000;0.225232
8158.000000;0.225014
8157.000000;0.224723
8156.000000;0.224474
8155.000000;0.224329
8154.000000;0.224295
8153.000000;0.224345
8152.000000;0.224413
8151.000000;0.224415
8150.000000;0.224320
8149.000000;0.224157
8148.000000;0.223958
8147.000000;0.223735
8146.000000;0.223527
8145.000000;0.223394
8144.000000;0.223349
8143.000000;0.223331
8142.000000;0.223278
8141.000000;0.223178
8140.000000;0.223038
8139.000000;0.222863
8138.000000;0.222697
8137.000000;0.222615
8136.000000;0.222625
8135.000000;0.222629
8134.000000;0.222533
8133.000000;0.222347
8132.000000;0.222166
8131.000000;0.222071
8130.000000;0.222082
8129.000000;0.222164
8128.000000;0.222221
8127.000000;0.222162
8126.000000;0.221989
8125.000000;0.221822
8124.000000;0.221763
8123.000000;0.221785
8122.000000;0.221770
8121.000000;0.221653
8120.000000;0.221476
8119.000000;0.221316
8118.000000;0.221215
8117.000000;0.221161
8116.000000;0.221120
8115.000000;0.221069
8114.000000;0.221012
8113.000000;0.220962
8112.000000;0.220917
8111.000000;0.220859
8110.000000;0.220778
8109.000000;0.220674
8108.000000;0.220546
8107.000000;0.220406
8106.000000;0.220280
8105.000000;0.220184
8104.000000;0.220101
8103.000000;0.220017
8102.000000;0.219958
8101.000000;0.219950
8100.000000;0.219968
8099.000000;0.219954
8098.000000;0.219886
8097.000000;0.219787
8096.000000;0.219694
8095.000000;0.219646
8094.000000;0.219682
8093.000000;0.219786
8092.000000;0.219867
8091.000000;0.219849
8090.000000;0.219758
8089.000000;0.219670
8088.000000;0.219592
8087.000000;0.219480
8086.000000;0.219351
8085.000000;0.219276
8084.000000;0.219253
8083.000000;0.219202
8082.000000;0.219094
8081.000000;0.219006
8080.000000;0.218989
8079.000000;0.218984
8078.000000;0.218922
8077.000000;0.218849
8076.000000;0.218868
8075.000000;0.219003
8074.000000;0.219166
8073.000000;0.219242
8072.000000;0.219169
8071.000000;0.218967
8070.000000;0.218727
8069.000000;0.218552
8068.000000;0.218479
8067.000000;0.218450
8066.000000;0.218394
8065.000000;0.218298
8064.000000;0.218185
8063.000000;0.218058
8062.000000;0.217899
8061.000000;0.217724
8060.000000;0.217601
8059.000000;0.217598
8058.000000;0.217712
8057.000000;0.217852
8056.000000;0.217917
8055.000000;0.217897
8054.000000;0.217892
8053.000000;0.217992
8052.000000;0.218173
8051.000000;0.218319
8050.000000;0.218335
8049.000000;0.218209
8048.000000;0.217982
8047.000000;0.217723
8046.000000;0.217506
8045.000000;0.217380
8044.000000;0.217349
8043.000000;0.217395
8042.000000;0.217492
8041.000000;0.217583
8040.000000;0.217576
8039.000000;0.217431
8038.000000;0.217230
8037.000000;0.217111
8036.000000;0.217139
8035.000000;0.217278
8034.000000;0.217441
8033.000000;0.217538
8032.000000;0.217509
8031.000000;0.217382
8030.000000;0.217284
8029.000000;0.217315
8028.000000;0.217433
8027.000000;0.217511
8026.000000;0.217488
8025.000000;0.217401
8024.000000;0.217289
8023.000000;0.217160
8022.000000;0.217035
8021.000000;0.216951
8020.000000;0.216908
8019.000000;0.216873
8018.000000;0.216842
8017.000000;0.216841
8016.000000;0.216863
8015.000000;0.216879
8014.000000;0.216890
8013.000000;0.216917
8012.000000;0.216924
8011.000000;0.216857
8010.000000;0.216744
8009.000000;0.216688
8008.000000;0.216731
8007.000000;0.216812
8006.000000;0.216857
8005.000000;0.216856
8004.000000;0.216819
8003.000000;0.216755
8002.000000;0.216701
8001.000000;0.216707
8000.000000;0.216753
7999.000000;0.216747
7998.000000;0.216646
7997.000000;0.216509
7996.000000;0.216414
7995.000000;0.216371
7994.000000;0.216354
7993.000000;0.216361
7992.000000;0.216395
7991.000000;0.216439
7990.000000;0.216469
7989.000000;0.216472
7988.000000;0.216432
7987.000000;0.216339
7986.000000;0.216231
7985.000000;0.216180
7984.000000;0.216201
7983.000000;0.216233
7982.000000;0.216228
7981.000000;0.216211
7980.000000;0.216229
7979.000000;0.216287
7978.000000;0.216353
7977.000000;0.216393
7976.000000;0.216384
7975.000000;0.216318
7974.000000;0.216218
7973.000000;0.216131
7972.000000;0.216089
7971.000000;0.216108
7970.000000;0.216196
7969.000000;0.216328
7968.000000;0.216421
7967.000000;0.216400
7966.000000;0.216285
7965.000000;0.216167
7964.000000;0.216093
7963.000000;0.216031
7962.000000;0.215961
7961.000000;0.215923
7960.000000;0.215955
7959.000000;0.216040
7958.000000;0.216139
7957.000000;0.216243
7956.000000;0.216352
7955.000000;0.216436
7954.000000;0.216464
7953.000000;0.216426
7952.000000;0.216316
7951.000000;0.216147
7950.000000;0.215987
7949.000000;0.215918
7948.000000;0.215949
7947.000000;0.215996
7946.000000;0.216004
7945.000000;0.216012
7944.000000;0.216086
7943.000000;0.216217
7942.000000;0.216338
7941.000000;0.216410
7940.000000;0.216448
7939.000000;0.216486
7938.000000;0.216538
7937.000000;0.216592
7936.000000;0.216616
7935.000000;0.216583
7934.000000;0.216511
7933.000000;0.216462
7932.000000;0.216479
7931.000000;0.216547
7930.000000;0.216625
7929.000000;0.216672
7928.000000;0.216644
7927.000000;0.216507
7926.000000;0.216291
7925.000000;0.216112
7924.000000;0.216090
7923.000000;0.216234
7922.000000;0.216433
7921.000000;0.216559
7920.000000;0.216565
7919.000000;0.216492
7918.000000;0.216410
7917.000000;0.216366
7916.000000;0.216375
7915.000000;0.216436
7914.000000;0.216533
7913.000000;0.216617
7912.000000;0.216615
7911.000000;0.216498
7910.000000;0.216316
7909.000000;0.216180
7908.000000;0.216181
7907.000000;0.216321
7906.000000;0.216509
7905.000000;0.216618
7904.000000;0.216595
7903.000000;0.216531
7902.000000;0.216564
7901.000000;0.216722
7900.000000;0.216894
7899.000000;0.216974
7898.000000;0.216976
7897.000000;0.216970
7896.000000;0.216959
7895.000000;0.216905
7894.000000;0.216825
7893.000000;0.216791
7892.000000;0.216828
7891.000000;0.216879
7890.000000;0.216894
7889.000000;0.216882
7888.000000;0.216891
7887.000000;0.216954
7886.000000;0.217069
7885.000000;0.217183
7884.000000;0.217211
7883.000000;0.217123
7882.000000;0.217003
7881.000000;0.216974
7880.000000;0.217072
7879.000000;0.217224
7878.000000;0.217355
7877.000000;0.217456
7876.000000;0.217540
7875.000000;0.217586
7874.000000;0.217568
7873.000000;0.217503
7872.000000;0.217446
7871.000000;0.217441
7870.000000;0.217480
7869.000000;0.217519
7868.000000;0.217520
7867.000000;0.217499
7866.000000;0.217516
7865.000000;0.217603
7864.000000;0.217722
7863.000000;0.217806
7862.000000;0.217828
7861.000000;0.217812
7860.000000;0.217785
7859.000000;0.217760
7858.000000;0.217753
7857.000000;0.217787
7856.000000;0.217872
7855.000000;0.217990
7854.000000;0.218102
7853.000000;0.218153
7852.000000;0.218112
7851.000000;0.218022
7850.000000;0.217976
7849.000000;0.218025
7848.000000;0.218135
7847.000000;0.218241
7846.000000;0.218312
7845.000000;0.218344
7844.000000;0.218352
7843.000000;0.218391
7842.000000;0.218533
7841.000000;0.218758
7840.000000;0.218932
7839.000000;0.218943
7838.000000;0.218835
7837.000000;0.218742
7836.000000;0.218727
7835.000000;0.218765
7834.000000;0.218844
7833.000000;0.218990
7832.000000;0.219193
7831.000000;0.219386
7830.000000;0.219518
7829.000000;0.219591
7828.000000;0.219620
7827.000000;0.219611
7826.000000;0.219580
7825.000000;0.219556
7824.000000;0.219550
7823.000000;0.219561
7822.000000;0.219596
7821.000000;0.219656
7820.000000;0.219710
7819.000000;0.219731
7818.000000;0.219742
7817.000000;0.219782
7816.000000;0.219841
7815.000000;0.219883
7814.000000;0.219915
7813.000000;0.219984
7812.000000;0.220105
7811.000000;0.220237
7810.000000;0.220338
7809.000000;0.220396
7808.000000;0.220419
7807.000000;0.220429
7806.000000;0.220480
7805.000000;0.220628
7804.000000;0.220872
7803.000000;0.221134
7802.000000;0.221320
7801.000000;0.221372
7800.000000;0.221298
7799.000000;0.221175
7798.000000;0.221115
7797.000000;0.221167
7796.000000;0.221274
7795.000000;0.221340
7794.000000;0.221342
7793.000000;0.221328
7792.000000;0.221345
7791.000000;0.221406
7790.000000;0.221518
7789.000000;0.221688
7788.000000;0.221888
7787.000000;0.222073
7786.000000;0.222211
7785.000000;0.222288
7784.000000;0.222309
7783.000000;0.222308
7782.000000;0.222341
7781.000000;0.222422
7780.000000;0.222507
7779.000000;0.222580
7778.000000;0.222695
7777.000000;0.222883
7776.000000;0.223058
7775.000000;0.223098
7774.000000;0.223020
7773.000000;0.222966
7772.000000;0.223030
7771.000000;0.223160
7770.000000;0.223252
7769.000000;0.223276
7768.000000;0.223279
7767.000000;0.223313
7766.000000;0.223401
7765.000000;0.223541
7764.000000;0.223718
7763.000000;0.223910
7762.000000;0.224091
7761.000000;0.224225
7760.000000;0.224280
7759.000000;0.224283
7758.000000;0.224326
7757.000000;0.224481
7756.000000;0.224701
7755.000000;0.224872
7754.000000;0.224936
7753.000000;0.224946
7752.000000;0.224987
7751.000000;0.225103
7750.000000;0.225281
7749.000000;0.225463
7748.000000;0.225585
7747.000000;0.225624
7746.000000;0.225625
7745.000000;0.225654
7744.000000;0.225744
7743.000000;0.225892
7742.000000;0.226086
7741.000000;0.226297
7740.000000;0.226471
7739.000000;0.226579
7738.000000;0.226649
7737.000000;0.226728
7736.000000;0.226819
7735.000000;0.226906
7734.000000;0.227001
7733.000000;0.227123
7732.000000;0.227249
7731.000000;0.227330
7730.000000;0.227363
7729.000000;0.227397
7728.000000;0.227479
7727.000000;0.227620
7726.000000;0.227799
7725.000000;0.227964
7724.000000;0.228057
7723.000000;0.228082
7722.000000;0.228122
7721.000000;0.228246
7720.000000;0.228410
7719.000000;0.228509
7718.000000;0.228530
7717.000000;0.228575
7716.000000;0.228735
7715.000000;0.228996
7714.000000;0.229267
7713.000000;0.229485
7712.000000;0.229651
7711.000000;0.229795
7710.000000;0.229935
7709.000000;0.230054
7708.000000;0.230145
7707.000000;0.230251
7706.000000;0.230432
7705.000000;0.230681
7704.000000;0.230904
7703.000000;0.231014
7702.000000;0.231018
7701.000000;0.230990
7700.000000;0.230992
7699.000000;0.231046
7698.000000;0.231160
7697.000000;0.231322
7696.000000;0.231502
7695.000000;0.231676
7694.000000;0.231845
7693.000000;0.232006
7692.000000;0.232147
7691.000000;0.232288
7690.000000;0.232465
7689.000000;0.232667
7688.000000;0.232828
7687.000000;0.232924
7686.000000;0.233017
7685.000000;0.233151
7684.000000;0.233273
7683.000000;0.233330
7682.000000;0.233371
7681.000000;0.233502
7680.000000;0.233747
7679.000000;0.234040
7678.000000;0.234305
7677.000000;0.234501
7676.000000;0.234615
7675.000000;0.234677
7674.000000;0.234764
7673.000000;0.234913
7672.000000;0.235077
7671.000000;0.235199
7670.000000;0.235310
7669.000000;0.235474
7668.000000;0.235689
7667.000000;0.235903
7666.000000;0.236118
7665.000000;0.236386
7664.000000;0.236714
7663.000000;0.237036
7662.000000;0.237269
7661.000000;0.237365
7660.000000;0.237341
7659.000000;0.237291
7658.000000;0.237344
7657.000000;0.237536
7656.000000;0.237770
7655.000000;0.237941
7654.000000;0.238060
7653.000000;0.238203
7652.000000;0.238384
7651.000000;0.238565
7650.000000;0.238755
7649.000000;0.238993
7648.000000;0.239272
7647.000000;0.239545
7646.000000;0.239813
7645.000000;0.240108
7644.000000;0.240410
7643.000000;0.240668
7642.000000;0.240875
7641.000000;0.241069
7640.000000;0.241255
7639.000000;0.241415
7638.000000;0.241566
7637.000000;0.241752
7636.000000;0.241975
7635.000000;0.242209
7634.000000;0.242470
7633.000000;0.242774
7632.000000;0.243062
7631.000000;0.243235
7630.000000;0.243287
7629.000000;0.243327
7628.000000;0.243445
7627.000000;0.243634
7626.000000;0.243843
7625.000000;0.244055
7624.000000;0.244284
7623.000000;0.244550
7622.000000;0.244862
7621.000000;0.245179
7620.000000;0.245421
7619.000000;0.245565
7618.000000;0.245712
7617.000000;0.245974
7616.000000;0.246323
7615.000000;0.246631
7614.000000;0.246846
7613.000000;0.247042
7612.000000;0.247287
7611.000000;0.247554
7610.000000;0.247798
7609.000000;0.248025
7608.000000;0.248266
7607.000000;0.248514
7606.000000;0.248741
7605.000000;0.248937
7604.000000;0.249112
7603.000000;0.249306
7602.000000;0.249577
7601.000000;0.249947
7600.000000;0.250351
7599.000000;0.250689
7598.000000;0.250929
7597.000000;0.251126
7596.000000;0.251338
7595.000000;0.251582
7594.000000;0.251857
7593.000000;0.252153
7592.000000;0.252435
7591.000000;0.252674
7590.000000;0.252903
7589.000000;0.253189
7588.000000;0.253535
7587.000000;0.253863
7586.000000;0.254110
7585.000000;0.254297
7584.000000;0.254496
7583.000000;0.254764
7582.000000;0.255114
7581.000000;0.255520
7580.000000;0.255927
7579.000000;0.256293
7578.000000;0.256616
7577.000000;0.256913
7576.000000;0.257191
7575.000000;0.257462
7574.000000;0.257756
7573.000000;0.258092
7572.000000;0.258434
7571.000000;0.258735
7570.000000;0.259001
7569.000000;0.259279
7568.000000;0.259587
7567.000000;0.259902
7566.000000;0.260203
7565.000000;0.260483
7564.000000;0.260756
7563.000000;0.261049
7562.000000;0.261406
7561.000000;0.261826
7560.000000;0.262242
7559.000000;0.262586
7558.000000;0.262867
7557.000000;0.263140
7556.000000;0.263430
7555.000000;0.263716
7554.000000;0.263984
7553.000000;0.264237
7552.000000;0.264484
7551.000000;0.264752
7550.000000;0.265104
7549.000000;0.265580
7548.000000;0.266136
7547.000000;0.266677
7546.000000;0.267139
7545.000000;0.267499
7544.000000;0.267761
7543.000000;0.267960
7542.000000;0.268177
7541.000000;0.268471
7540.000000;0.268829
7539.000000;0.269198
7538.000000;0.269568
7537.000000;0.269965
7536.000000;0.270394
7535.000000;0.270832
7534.000000;0.271257
7533.000000;0.271646
7532.000000;0.271975
7531.000000;0.272259
7530.000000;0.272569
7529.000000;0.272952
7528.000000;0.273378
7527.000000;0.273787
7526.000000;0.274159
7525.000000;0.274498
7524.000000;0.274799
7523.000000;0.275095
7522.000000;0.275466
7521.000000;0.275954
7520.000000;0.276485
7519.000000;0.276942
7518.000000;0.277290
7517.000000;0.277583
7516.000000;0.277878
7515.000000;0.278212
7514.000000;0.278628
7513.000000;0.279136
7512.000000;0.279669
7511.000000;0.280154
7510.000000;0.280588
7509.000000;0.281006
7508.000000;0.281400
7507.000000;0.281745
7506.000000;0.282074
7505.000000;0.282443
7504.000000;0.282846
7503.000000;0.283232
7502.000000;0.283591
7501.000000;0.283962
7500.000000;0.284356
7499.000000;0.284756
7498.000000;0.285159
7497.000000;0.285608
7496.000000;0.286070
7495.000000;0.286502
7494.000000;0.286988
7493.000000;0.287452
7492.000000;0.287903
7491.000000;0.288319
7490.000000;0.288727
7489.000000;0.289143
7488.000000;0.289556
7487.000000;0.289948
7486.000000;0.290339
7485.000000;0.290733
7484.000000;0.291089
7483.000000;0.291384
7482.000000;0.291684
7481.000000;0.292071
7480.000000;0.292538
7479.000000;0.293015
7478.000000;0.293466
7477.000000;0.293899
7476.000000;0.294299
7475.000000;0.294641
7474.000000;0.294955
7473.000000;0.295313
7472.000000;0.295747
7471.000000;0.296237
7470.000000;0.296748
7469.000000;0.297252
7468.000000;0.297712
7467.000000;0.298120
7466.000000;0.298524
7465.000000;0.298980
7464.000000;0.299481
7463.000000;0.299973
7462.000000;0.300426
7461.000000;0.300853
7460.000000;0.301276
7459.000000;0.301704
7458.000000;0.302119
7457.000000;0.302487
7456.000000;0.302787
7455.000000;0.303058
7454.000000;0.303380
7453.000000;0.303793
7452.000000;0.304281
7451.000000;0.304814
7450.000000;0.305363
7449.000000;0.305858
7448.000000;0.306238
7447.000000;0.306547
7446.000000;0.306907
7445.000000;0.307365
7444.000000;0.307853
7443.000000;0.308320
7442.000000;0.308801
7441.000000;0.309288
7440.000000;0.309689
7439.000000;0.309976
7438.000000;0.310275
7437.000000;0.310709
7436.000000;0.311236
7435.000000;0.311734
7434.000000;0.312159
7433.000000;0.312526
7432.000000;0.312825
7431.000000;0.313069
7430.000000;0.313354
7429.000000;0.313771
7428.000000;0.314289
7427.000000;0.314792
7426.000000;0.315198
7425.000000;0.315487
7424.000000;0.315693
7423.000000;0.315944
7422.000000;0.316401
7421.000000;0.317061
7420.000000;0.317692
7419.000000;0.318089
7418.000000;0.318314
7417.000000;0.318579
7416.000000;0.318973
7415.000000;0.319432
7414.000000;0.319907
7413.000000;0.320390
7412.000000;0.320844
7411.000000;0.321223
7410.000000;0.321540
7409.000000;0.321842
7408.000000;0.322148
7407.000000;0.322477
7406.000000;0.322849
7405.000000;0.323222
7404.000000;0.323522
7403.000000;0.323804
7402.000000;0.324259
7401.000000;0.324967
7400.000000;0.325761
7399.000000;0.326394
7398.000000;0.326764
7397.000000;0.326939
7396.000000;0.327078
7395.000000;0.327317
7394.000000;0.327610
7393.000000;0.327764
7392.000000;0.327729
7391.000000;0.327743
7390.000000;0.328054
7389.000000;0.328607
7388.000000;0.329195
7387.000000;0.329821
7386.000000;0.330601
7385.000000;0.331391
7384.000000;0.331881
7383.000000;0.332101
7382.000000;0.332407
7381.000000;0.332867
7380.000000;0.333095
7379.000000;0.332996
7378.000000;0.333221
7377.000000;0.334330
7376.000000;0.335829
7375.000000;0.336639
7374.000000;0.336421
7373.000000;0.335927
7372.000000;0.336023
7371.000000;0.336838
7370.000000;0.337870
7369.000000;0.338521
7368.000000;0.338517
7367.000000;0.338165
7366.000000;0.338148
7365.000000;0.338813
7364.000000;0.339780
7363.000000;0.340462
7362.000000;0.340759
7361.000000;0.340946
7360.000000;0.341116
7359.000000;0.341255
7358.000000;0.341728
7357.000000;0.342877
7356.000000;0.344210
7355.000000;0.344744
7354.000000;0.344348
7353.000000;0.343986
7352.000000;0.344465
7351.000000;0.345619
7350.000000;0.346819
7349.000000;0.347595
7348.000000;0.347656
7347.000000;0.347087
7346.000000;0.346653
7345.000000;0.347126
7344.000000;0.348254
7343.000000;0.349190
7342.000000;0.349950
7341.000000;0.351338
7340.000000;0.353240
7339.000000;0.354283
7338.000000;0.353858
7337.000000;0.353251
7336.000000;0.353834
7335.000000;0.355225
7334.000000;0.356116
7333.000000;0.356107
7332.000000;0.355765
7331.000000;0.355608
7330.000000;0.355964
7329.000000;0.357051
7328.000000;0.358365
7327.000000;0.358813
7326.000000;0.358336
7325.000000;0.358431
7324.000000;0.360069
7323.000000;0.362134
7322.000000;0.362996
7321.000000;0.362773
7320.000000;0.362918
7319.000000;0.364060
7318.000000;0.365458
7317.000000;0.366380
7316.000000;0.366837
7315.000000;0.367051
7314.000000;0.367224
7313.000000;0.367844
7312.000000;0.369205
7311.000000;0.370642
7310.000000;0.371321
7309.000000;0.371643
7308.000000;0.372634
7307.000000;0.374138
7306.000000;0.374926
7305.000000;0.374715
7304.000000;0.374760
7303.000000;0.375992
7302.000000;0.377784
7301.000000;0.379055
7300.000000;0.379592
7299.000000;0.379781
7298.000000;0.379898
7297.000000;0.380384
7296.000000;0.381948
7295.000000;0.384473
7294.000000;0.386558
7293.000000;0.387093
7292.000000;0.386902
7291.000000;0.387768
7290.000000;0.390141
7289.000000;0.392815
7288.000000;0.394552
7287.000000;0.395239
7286.000000;0.395515
7285.000000;0.395937
7284.000000;0.396714
7283.000000;0.397813
7282.000000;0.399054
7281.000000;0.400249
7280.000000;0.401386
7279.000000;0.402621
7278.000000;0.404013
7277.000000;0.405457
7276.000000;0.406903
7275.000000;0.408415
7274.000000;0.410029
7273.000000;0.411665
7272.000000;0.413202
7271.000000;0.414619
7270.000000;0.416053
7269.000000;0.417662
7268.000000;0.419431
7267.000000;0.421152
7266.000000;0.422699
7265.000000;0.424287
7264.000000;0.426277
7263.000000;0.428668
7262.000000;0.430965
7261.000000;0.432701
7260.000000;0.433975
7259.000000;0.435299
7258.000000;0.437006
7257.000000;0.439001
7256.000000;0.441082
7255.000000;0.443258
7254.000000;0.445580
7253.000000;0.447877
7252.000000;0.449900
7251.000000;0.451664
7250.000000;0.453507
7249.000000;0.455740
7248.000000;0.458296
7247.000000;0.460797
7246.000000;0.463111
7245.000000;0.465680
7244.000000;0.468866
7243.000000;0.472182
7242.000000;0.474715
7241.000000;0.476425
7240.000000;0.478408
7239.000000;0.481522
7238.000000;0.485251
7237.000000;0.488379
7236.000000;0.490519
7235.000000;0.492565
7234.000000;0.495540
7233.000000;0.499273
7232.000000;0.502526
7231.000000;0.504488
7230.000000;0.505918
7229.000000;0.508439
7228.000000;0.512742
7227.000000;0.517772
7226.000000;0.521868
7225.000000;0.524458
7224.000000;0.526321
7223.000000;0.528545
7222.000000;0.531630
7221.000000;0.535371
7220.000000;0.539168
7219.000000;0.542509
7218.000000;0.545468
7217.000000;0.548666
7216.000000;0.552528
7215.000000;0.556775
7214.000000;0.560827
7213.000000;0.564555
7212.000000;0.568363
7211.000000;0.572565
7210.000000;0.576965
7209.000000;0.581198
7208.000000;0.585258
7207.000000;0.589456
7206.000000;0.593982
7205.000000;0.598697
7204.000000;0.603268
7203.000000;0.607521
7202.000000;0.611681
7201.000000;0.616162
7200.000000;0.621054
7199.000000;0.625955
7198.000000;0.630468
7197.000000;0.634722
7196.000000;0.639188
7195.000000;0.644054
7194.000000;0.649040
7193.000000;0.653892
7192.000000;0.658732
7191.000000;0.663747
7190.000000;0.668831
7189.000000;0.673823
7188.000000;0.678906
7187.000000;0.684334
7186.000000;0.689923
7185.000000;0.695247
7184.000000;0.700357
7183.000000;0.705783
7182.000000;0.711659
7181.000000;0.717427
7180.000000;0.722733
7179.000000;0.728116
7178.000000;0.734283
7177.000000;0.741039
7176.000000;0.747485
7175.000000;0.753120
7174.000000;0.758270
7173.000000;0.763528
7172.000000;0.769214
7171.000000;0.775441
7170.000000;0.782175
7169.000000;0.789042
7168.000000;0.795525
7167.000000;0.801487
7166.000000;0.807231
7165.000000;0.812996
7164.000000;0.818857
7163.000000;0.825019
7162.000000;0.831591
7161.000000;0.838163
7160.000000;0.844178
7159.000000;0.849858
7158.000000;0.856113
7157.000000;0.863264
7156.000000;0.870460
7155.000000;0.876758
7154.000000;0.882280
7153.000000;0.887897
7152.000000;0.894107
7151.000000;0.900716
7150.000000;0.907311
7149.000000;0.913649
7148.000000;0.919745
7147.000000;0.925837
7146.000000;0.932177
7145.000000;0.938730
7144.000000;0.945232
7143.000000;0.951674
7142.000000;0.958487
7141.000000;0.965917
7140.000000;0.973339
7139.000000;0.979755
7138.000000;0.985081
7137.000000;0.990409
7136.000000;0.996699
7135.000000;1.003675
7134.000000;1.010411
7133.000000;1.016593
7132.000000;1.022717
7131.000000;1.029219
7130.000000;1.035926
7129.000000;1.042408
7128.000000;1.048545
7127.000000;1.054509
7126.000000;1.060425
7125.000000;1.066327
7124.000000;1.072252
7123.000000;1.078141
7122.000000;1.083762
7121.000000;1.089030
7120.000000;1.094347
7119.000000;1.100267
7118.000000;1.106706
7117.000000;1.112891
7116.000000;1.118394
7115.000000;1.123884
7114.000000;1.130298
7113.000000;1.137477
7112.000000;1.144253
7111.000000;1.149861
7110.000000;1.154673
7109.000000;1.159414
7108.000000;1.164267
7107.000000;1.169113
7106.000000;1.174092
7105.000000;1.179413
7104.000000;1.184962
7103.000000;1.190602
7102.000000;1.196487
7101.000000;1.202631
7100.000000;1.208472
7099.000000;1.213341
7098.000000;1.217287
7097.000000;1.220971
7096.000000;1.224789
7095.000000;1.228662
7094.000000;1.232686
7093.000000;1.237263
7092.000000;1.242414
7091.000000;1.247570
7090.000000;1.252338
7089.000000;1.256949
7088.000000;1.261680
7087.000000;1.266327
7086.000000;1.270626
7085.000000;1.274782
7084.000000;1.279164
7083.000000;1.283743
7082.000000;1.288138
7081.000000;1.292048
7080.000000;1.295410
7079.000000;1.298385
7078.000000;1.301416
7077.000000;1.304994
7076.000000;1.309073
7075.000000;1.313021
7074.000000;1.316418
7073.000000;1.319516
7072.000000;1.322689
7071.000000;1.325903
7070.000000;1.329072
7069.000000;1.332452
7068.000000;1.336231
7067.000000;1.340020
7066.000000;1.343225
7065.000000;1.345764
7064.000000;1.348078
7063.000000;1.350634
7062.000000;1.353663
7061.000000;1.357125
7060.000000;1.360632
7059.000000;1.363618
7058.000000;1.365947
7057.000000;1.368198
7056.000000;1.370984
7055.000000;1.374196
7054.000000;1.377236
7053.000000;1.379770
7052.000000;1.381902
7051.000000;1.383885
7050.000000;1.385987
7049.000000;1.388445
7048.000000;1.391191
7047.000000;1.393727
7046.000000;1.395614
7045.000000;1.397023
7044.000000;1.398584
7043.000000;1.400744
7042.000000;1.403467
7041.000000;1.406398
7040.000000;1.409102
7039.000000;1.411302
7038.000000;1.413065
7037.000000;1.414674
7036.000000;1.416196
7035.000000;1.417401
7034.000000;1.418240
7033.000000;1.419131
7032.000000;1.420542
7031.000000;1.422521
7030.000000;1.424827
7029.000000;1.427299
7028.000000;1.429807
7027.000000;1.432091
7026.000000;1.433958
7025.000000;1.435514
7024.000000;1.436958
7023.000000;1.438236
7022.000000;1.439151
7021.000000;1.439709
7020.000000;1.440133
7019.000000;1.440628
7018.000000;1.441313
7017.000000;1.442283
7016.000000;1.443558
7015.000000;1.445001
7014.000000;1.446419
7013.000000;1.447719
7012.000000;1.448974
7011.000000;1.450406
7010.000000;1.452271
7009.000000;1.454530
7008.000000;1.456614
7007.000000;1.457811
7006.000000;1.458052
7005.000000;1.458074
7004.000000;1.458638
7003.000000;1.459780
7002.000000;1.460981
7001.000000;1.461874
7000.000000;1.462546
6999.000000;1.463243
6998.000000;1.464045
6997.000000;1.464842
6996.000000;1.465502
6995.000000;1.465991
6994.000000;1.466334
6993.000000;1.466531
6992.000000;1.466601
6991.000000;1.466693
6990.000000;1.467017
6989.000000;1.467550
6988.000000;1.468016
6987.000000;1.468322
6986.000000;1.468800
6985.000000;1.469763
6984.000000;1.470997
6983.000000;1.471973
6982.000000;1.472443
6981.000000;1.472604
6980.000000;1.472780
6979.000000;1.473210
6978.000000;1.473979
6977.000000;1.474819
6976.000000;1.475070
6975.000000;1.474226
6974.000000;1.472551
6973.000000;1.470925
6972.000000;1.470134
6971.000000;1.470497
6970.000000;1.471906
6969.000000;1.473793
6968.000000;1.475204
6967.000000;1.475402
6966.000000;1.474436
6965.000000;1.472966
6964.000000;1.471704
6963.000000;1.471241
6962.000000;1.471949
6961.000000;1.473497
6960.000000;1.474715
6959.000000;1.474616
6958.000000;1.473535
6957.000000;1.472690
6956.000000;1.472668
6955.000000;1.472954
6954.000000;1.472873
6953.000000;1.472319
6952.000000;1.471524
6951.000000;1.470769
6950.000000;1.470506
6949.000000;1.471134
6948.000000;1.472376
6947.000000;1.473311
6946.000000;1.473272
6945.000000;1.472398
6944.000000;1.471205
6943.000000;1.470089
6942.000000;1.469365
6941.000000;1.469276
6940.000000;1.469649
6939.000000;1.469851
6938.000000;1.469370
6937.000000;1.468320
6936.000000;1.467266
6935.000000;1.466724
6934.000000;1.466824
6933.000000;1.467219
6932.000000;1.467346
6931.000000;1.467019
6930.000000;1.466627
6929.000000;1.466458
6928.000000;1.466102
6927.000000;1.465030
6926.000000;1.463579
6925.000000;1.462661
6924.000000;1.462510
6923.000000;1.462396
6922.000000;1.461770
6921.000000;1.461097
6920.000000;1.461214
6919.000000;1.462184
6918.000000;1.463073
6917.000000;1.462789
6916.000000;1.461133
6915.000000;1.459116
6914.000000;1.458100
6913.000000;1.458437
6912.000000;1.459102
6911.000000;1.458903
6910.000000;1.457818
6909.000000;1.456746
6908.000000;1.456235
6907.000000;1.456086
6906.000000;1.455990
6905.000000;1.455813
6904.000000;1.455251
6903.000000;1.453948
6902.000000;1.452112
6901.000000;1.450472
6900.000000;1.449483
6899.000000;1.449025
6898.000000;1.448881
6897.000000;1.449006
6896.000000;1.449246
6895.000000;1.449312
6894.000000;1.449151
6893.000000;1.448901
6892.000000;1.448404
6891.000000;1.447302
6890.000000;1.445723
6889.000000;1.444327
6888.000000;1.443504
6887.000000;1.442956
6886.000000;1.442241
6885.000000;1.441315
6884.000000;1.440403
6883.000000;1.439684
6882.000000;1.439245
6881.000000;1.438992
6880.000000;1.438539
6879.000000;1.437566
6878.000000;1.436303
6877.000000;1.435297
6876.000000;1.434707
6875.000000;1.434269
6874.000000;1.433902
6873.000000;1.433770
6872.000000;1.433697
6871.000000;1.433159
6870.000000;1.432031
6869.000000;1.430795
6868.000000;1.429817
6867.000000;1.428947
6866.000000;1.428013
6865.000000;1.427181
6864.000000;1.426582
6863.000000;1.426047
6862.000000;1.425433
6861.000000;1.424763
6860.000000;1.423875
6859.000000;1.422428
6858.000000;1.420525
6857.000000;1.418823
6856.000000;1.417777
6855.000000;1.417141
6854.000000;1.416447
6853.000000;1.415545
6852.000000;1.414455
6851.000000;1.413146
6850.000000;1.411727
6849.000000;1.410460
6848.000000;1.409355
6847.000000;1.408121
6846.000000;1.406735
6845.000000;1.405605
6844.000000;1.404909
6843.000000;1.404194
6842.000000;1.402920
6841.000000;1.401041
6840.000000;1.398810
6839.000000;1.396419
6838.000000;1.394123
6837.000000;1.392289
6836.000000;1.390955
6835.000000;1.389638
6834.000000;1.387921
6833.000000;1.385964
6832.000000;1.384117
6831.000000;1.382351
6830.000000;1.380431
6829.000000;1.378398
6828.000000;1.376518
6827.000000;1.374874
6826.000000;1.373319
6825.000000;1.371705
6824.000000;1.369953
6823.000000;1.368038
6822.000000;1.366085
6821.000000;1.364340
6820.000000;1.362847
6819.000000;1.361344
6818.000000;1.359602
6817.000000;1.357699
6816.000000;1.355762
6815.000000;1.353673
6814.000000;1.351282
6813.000000;1.348736
6812.000000;1.346336
6811.000000;1.344142
6810.000000;1.341922
6809.000000;1.339452
6808.000000;1.336733
6807.000000;1.333946
6806.000000;1.331280
6805.000000;1.328774
6804.000000;1.326277
6803.000000;1.323645
6802.000000;1.320967
6801.000000;1.318449
6800.000000;1.316051
6799.000000;1.313471
6798.000000;1.310554
6797.000000;1.307546
6796.000000;1.304808
6795.000000;1.302396
6794.000000;1.300043
6793.000000;1.297463
6792.000000;1.294628
6791.000000;1.291801
6790.000000;1.289303
6789.000000;1.287171
6788.000000;1.285087
6787.000000;1.282735
6786.000000;1.280129
6785.000000;1.277446
6784.000000;1.274675
6783.000000;1.271685
6782.000000;1.268587
6781.000000;1.265745
6780.000000;1.263342
6779.000000;1.261147
6778.000000;1.258795
6777.000000;1.256132
6776.000000;1.253223
6775.000000;1.250217
6774.000000;1.247237
6773.000000;1.244308
6772.000000;1.241338
6771.000000;1.238264
6770.000000;1.235178
6769.000000;1.232210
6768.000000;1.229364
6767.000000;1.226573
6766.000000;1.223839
6765.000000;1.221157
6764.000000;1.218401
6763.000000;1.215481
6762.000000;1.212546
6761.000000;1.209814
6760.000000;1.207250
6759.000000;1.204661
6758.000000;1.202047
6757.000000;1.199596
6756.000000;1.197326
6755.000000;1.195007
6754.000000;1.192449
6753.000000;1.189639
6752.000000;1.186587
6751.000000;1.183288
6750.000000;1.179890
6749.000000;1.176671
6748.000000;1.173781
6747.000000;1.171147
6746.000000;1.168648
6745.000000;1.166182
6744.000000;1.163586
6743.000000;1.160721
6742.000000;1.157670
6741.000000;1.154652
6740.000000;1.151702
6739.000000;1.148678
6738.000000;1.145595
6737.000000;1.142693
6736.000000;1.140112
6735.000000;1.137724
6734.000000;1.135366
6733.000000;1.133005
6732.000000;1.130582
6731.000000;1.127920
6730.000000;1.124939
6729.000000;1.121838
6728.000000;1.118931
6727.000000;1.116381
6726.000000;1.114121
6725.000000;1.111896
6724.000000;1.109378
6723.000000;1.106436
6722.000000;1.103348
6721.000000;1.100576
6720.000000;1.098229
6719.000000;1.095924
6718.000000;1.093256
6717.000000;1.090270
6716.000000;1.087338
6715.000000;1.084721
6714.000000;1.082329
6713.000000;1.079864
6712.000000;1.077075
6711.000000;1.073972
6710.000000;1.070852
6709.000000;1.068038
6708.000000;1.065591
6707.000000;1.063321
6706.000000;1.061005
6705.000000;1.058444
6704.000000;1.055593
6703.000000;1.052497
6702.000000;1.049549
6701.000000;1.046945
6700.000000;1.044541
6699.000000;1.042189
6698.000000;1.039632
6697.000000;1.036983
6696.000000;1.034389
6695.000000;1.031864
6694.000000;1.029338
6693.000000;1.026847
6692.000000;1.024474
6691.000000;1.022169
6690.000000;1.019730
6689.000000;1.016965
6688.000000;1.013892
6687.000000;1.010793
6686.000000;1.008039
6685.000000;1.005771
6684.000000;1.003747
6683.000000;1.001596
6682.000000;0.999198
6681.000000;0.996733
6680.000000;0.994365
6679.000000;0.992046
6678.000000;0.989644
6677.000000;0.987134
6676.000000;0.984576
6675.000000;0.982012
6674.000000;0.979459
6673.000000;0.976942
6672.000000;0.974461
6671.000000;0.971993
6670.000000;0.969535
6669.000000;0.967113
6668.000000;0.964730
6667.000000;0.962360
6666.000000;0.960000
6665.000000;0.957668
6664.000000;0.955341
6663.000000;0.952941
6662.000000;0.950407
6661.000000;0.947754
6660.000000;0.945095
6659.000000;0.942603
6658.000000;0.940374
6657.000000;0.938285
6656.000000;0.936083
6655.000000;0.933686
6654.000000;0.931273
6653.000000;0.928997
6652.000000;0.926738
6651.000000;0.924318
6650.000000;0.921829
6649.000000;0.919530
6648.000000;0.917458
6647.000000;0.915378
6646.000000;0.913125
6645.000000;0.910772
6644.000000;0.908433
6643.000000;0.906106
6642.000000;0.903784
6641.000000;0.901539
6640.000000;0.899409
6639.000000;0.897313
6638.000000;0.895156
6637.000000;0.892909
6636.000000;0.890557
6635.000000;0.888096
6634.000000;0.885630
6633.000000;0.883342
6632.000000;0.881304
6631.000000;0.879399
6630.000000;0.877491
6629.000000;0.875539
6628.000000;0.873530
6627.000000;0.871418
6626.000000;0.869210
6625.000000;0.867024
6624.000000;0.864963
6623.000000;0.862995
6622.000000;0.861003
6621.000000;0.858884
6620.000000;0.856590
6619.000000;0.854162
6618.000000;0.851756
6617.000000;0.849534
6616.000000;0.847504
6615.000000;0.845531
6614.000000;0.843541
6613.000000;0.841591
6612.000000;0.839706
6611.000000;0.837782
6610.000000;0.835737
6609.000000;0.833635
6608.000000;0.831580
6607.000000;0.829560
6606.000000;0.827503
6605.000000;0.825422
6604.000000;0.823394
6603.000000;0.821428
6602.000000;0.819452
6601.000000;0.817418
6600.000000;0.815375
6599.000000;0.813413
6598.000000;0.811578
6597.000000;0.809816
6596.000000;0.808014
6595.000000;0.806102
6594.000000;0.804127
6593.000000;0.802184
6592.000000;0.800273
6591.000000;0.798322
6590.000000;0.796331
6589.000000;0.794414
6588.000000;0.792636
6587.000000;0.790891
6586.000000;0.789022
6585.000000;0.786998
6584.000000;0.784931
6583.000000;0.782936
6582.000000;0.781054
6581.000000;0.779278
6580.000000;0.777567
6579.000000;0.775842
6578.000000;0.774014
6577.000000;0.772061
6576.000000;0.770069
6575.000000;0.768164
6574.000000;0.766399
6573.000000;0.764701
6572.000000;0.762952
6571.000000;0.761120
6570.000000;0.759296
6569.000000;0.757569
6568.000000;0.755914
6567.000000;0.754223
6566.000000;0.752428
6565.000000;0.750556
6564.000000;0.748690
6563.000000;0.746911
6562.000000;0.745239
6561.000000;0.743606
6560.000000;0.741907
6559.000000;0.740132
6558.000000;0.738389
6557.000000;0.736780
6556.000000;0.735263
6555.000000;0.733727
6554.000000;0.732140
6553.000000;0.730555
6552.000000;0.728989
6551.000000;0.727403
6550.000000;0.725771
6549.000000;0.724088
6548.000000;0.722334
6547.000000;0.720507
6546.000000;0.718691
6545.000000;0.716993
6544.000000;0.715411
6543.000000;0.713843
6542.000000;0.712243
6541.000000;0.710663
6540.000000;0.709134
6539.000000;0.707586
6538.000000;0.705938
6537.000000;0.704207
6536.000000;0.702483
6535.000000;0.700849
6534.000000;0.699330
6533.000000;0.697881
6532.000000;0.696416
6531.000000;0.694891
6530.000000;0.693356
6529.000000;0.691899
6528.000000;0.690526
6527.000000;0.689160
6526.000000;0.687735
6525.000000;0.686239
6524.000000;0.684672
6523.000000;0.683048
6522.000000;0.681442
6521.000000;0.679948
6520.000000;0.678560
6519.000000;0.677167
6518.000000;0.675686
6517.000000;0.674140
6516.000000;0.672593
6515.000000;0.671082
6514.000000;0.669632
6513.000000;0.668255
6512.000000;0.666905
6511.000000;0.665490
6510.000000;0.663974
6509.000000;0.662430
6508.000000;0.660961
6507.000000;0.659600
6506.000000;0.658307
6505.000000;0.657012
6504.000000;0.655660
6503.000000;0.654241
6502.000000;0.652814
6501.000000;0.651450
6500.000000;0.650142
6499.000000;0.648819
6498.000000;0.647462
6497.000000;0.646126
6496.000000;0.644850
6495.000000;0.643598
6494.000000;0.642324
6493.000000;0.641029
6492.000000;0.639732
6491.000000;0.638419
6490.000000;0.637080
6489.000000;0.635744
6488.000000;0.634450
6487.000000;0.633198
6486.000000;0.631961
6485.000000;0.630721
6484.000000;0.629463
6483.000000;0.628179
6482.000000;0.626878
6481.000000;0.625578
6480.000000;0.624277
6479.000000;0.622969
6478.000000;0.621680
6477.000000;0.620447
6476.000000;0.619251
6475.000000;0.618029
6474.000000;0.616764
6473.000000;0.615508
6472.000000;0.614299
6471.000000;0.613117
6470.000000;0.611935
6469.000000;0.610771
6468.000000;0.609639
6467.000000;0.608497
6466.000000;0.607284
6465.000000;0.606013
6464.000000;0.604762
6463.000000;0.603603
6462.000000;0.602540
6461.000000;0.601510
6460.000000;0.600424
6459.000000;0.599236
6458.000000;0.597981
6457.000000;0.596732
6456.000000;0.595527
6455.000000;0.594343
6454.000000;0.593160
6453.000000;0.592001
6452.000000;0.590902
6451.000000;0.589870
6450.000000;0.588870
6449.000000;0.587857
6448.000000;0.586794
6447.000000;0.585682
6446.000000;0.584552
6445.000000;0.583424
6444.000000;0.582276
6443.000000;0.581090
6442.000000;0.579904
6441.000000;0.578782
6440.000000;0.577740
6439.000000;0.576729
6438.000000;0.575701
6437.000000;0.574638
6436.000000;0.573544
6435.000000;0.572441
6434.000000;0.571383
6433.000000;0.570409
6432.000000;0.569479
6431.000000;0.568512
6430.000000;0.567479
6429.000000;0.566421
6428.000000;0.565378
6427.000000;0.564342
6426.000000;0.563308
6425.000000;0.562297
6424.000000;0.561314
6423.000000;0.560328
6422.000000;0.559323
6421.000000;0.558329
6420.000000;0.557366
6419.000000;0.556410
6418.000000;0.555432
6417.000000;0.554446
6416.000000;0.553475
6415.000000;0.552517
6414.000000;0.551563
6413.000000;0.550620
6412.000000;0.549698
6411.000000;0.548787
6410.000000;0.547881
6409.000000;0.546988
6408.000000;0.546098
6407.000000;0.545168
6406.000000;0.544173
6405.000000;0.543149
6404.000000;0.542157
6403.000000;0.541229
6402.000000;0.540346
6401.000000;0.539472
6400.000000;0.538575
6399.000000;0.537652
6398.000000;0.536725
6397.000000;0.535816
6396.000000;0.534919
6395.000000;0.534024
6394.000000;0.533144
6393.000000;0.532304
6392.000000;0.531487
6391.000000;0.530653
6390.000000;0.529785
6389.000000;0.528903
6388.000000;0.528023
6387.000000;0.527144
6386.000000;0.526279
6385.000000;0.525457
6384.000000;0.524681
6383.000000;0.523919
6382.000000;0.523146
6381.000000;0.522361
6380.000000;0.521550
6379.000000;0.520694
6378.000000;0.519819
6377.000000;0.518989
6376.000000;0.518226
6375.000000;0.517471
6374.000000;0.516659
6373.000000;0.515804
6372.000000;0.514968
6371.000000;0.514182
6370.000000;0.513421
6369.000000;0.512644
6368.000000;0.511836
6367.000000;0.511010
6366.000000;0.510199
6365.000000;0.509427
6364.000000;0.508682
6363.000000;0.507929
6362.000000;0.507162
6361.000000;0.506414
6360.000000;0.505702
6359.000000;0.505001
6358.000000;0.504273
6357.000000;0.503520
6356.000000;0.502776
6355.000000;0.502063
6354.000000;0.501364
6353.000000;0.500646
6352.000000;0.499884
6351.000000;0.499097
6350.000000;0.498343
6349.000000;0.497666
6348.000000;0.497042
6347.000000;0.496403
6346.000000;0.495705
6345.000000;0.494959
6344.000000;0.494201
6343.000000;0.493459
6342.000000;0.492762
6341.000000;0.492121
6340.000000;0.491501
6339.000000;0.490847
6338.000000;0.490146
6337.000000;0.489448
6336.000000;0.488789
6335.000000;0.488136
6334.000000;0.487444
6333.000000;0.486720
6332.000000;0.486009
6331.000000;0.485334
6330.000000;0.484682
6329.000000;0.484036
6328.000000;0.483395
6327.000000;0.482762
6326.000000;0.482134
6325.000000;0.481504
6324.000000;0.480859
6323.000000;0.480180
6322.000000;0.479468
6321.000000;0.478763
6320.000000;0.478109
6319.000000;0.477521
6318.000000;0.476966
6317.000000;0.476394
6316.000000;0.475768
6315.000000;0.475095
6314.000000;0.474430
6313.000000;0.473831
6312.000000;0.473301
6311.000000;0.472785
6310.000000;0.472224
6309.000000;0.471600
6308.000000;0.470935
6307.000000;0.470264
6306.000000;0.469623
6305.000000;0.469039
6304.000000;0.468512
6303.000000;0.468011
6302.000000;0.467502
6301.000000;0.466967
6300.000000;0.466392
6299.000000;0.465763
6298.000000;0.465084
6297.000000;0.464410
6296.000000;0.463815
6295.000000;0.463334
6294.000000;0.462920
6293.000000;0.462480
6292.000000;0.461957
6291.000000;0.461378
6290.000000;0.460806
6289.000000;0.460255
6288.000000;0.459687
6287.000000;0.459084
6286.000000;0.458496
6285.000000;0.457975
6284.000000;0.457503
6283.000000;0.457012
6282.000000;0.456471
6281.000000;0.455914
6280.000000;0.455378
6279.000000;0.454868
6278.000000;0.454368
6277.000000;0.453870
6276.000000;0.453372
6275.000000;0.452876
6274.000000;0.452390
6273.000000;0.451905
6272.000000;0.451402
6271.000000;0.450870
6270.000000;0.450337
6269.000000;0.449828
6268.000000;0.449330
6267.000000;0.448819
6266.000000;0.448309
6265.000000;0.447835
6264.000000;0.447395
6263.000000;0.446942
6262.000000;0.446453
6261.000000;0.445941
6260.000000;0.445418
6259.000000;0.444883
6258.000000;0.444352
6257.000000;0.443863
6256.000000;0.443415
6255.000000;0.442964
6254.000000;0.442480
6253.000000;0.441993
6252.000000;0.441539
6251.000000;0.441121
6250.000000;0.440719
6249.000000;0.440328
6248.000000;0.439938
6247.000000;0.439523
6246.000000;0.439070
6245.000000;0.438599
6244.000000;0.438140
6243.000000;0.437692
6242.000000;0.437244
6241.000000;0.436795
6240.000000;0.436354
6239.000000;0.435917
6238.000000;0.435480
6237.000000;0.435045
6236.000000;0.434613
6235.000000;0.434174
6234.000000;0.433724
6233.000000;0.433277
6232.000000;0.432843
6231.000000;0.432423
6230.000000;0.432015
6229.000000;0.431621
6228.000000;0.431230
6227.000000;0.430826
6226.000000;0.430415
6225.000000;0.430026
6224.000000;0.429665
6223.000000;0.429295
6222.000000;0.428884
6221.000000;0.428448
6220.000000;0.428021
6219.000000;0.427607
6218.000000;0.427182
6217.000000;0.426746
6216.000000;0.426328
6215.000000;0.425948
6214.000000;0.425590
6213.000000;0.425224
6212.000000;0.424834
6211.000000;0.424432
6210.000000;0.424038
6209.000000;0.423661
6208.000000;0.423294
6207.000000;0.422932
6206.000000;0.422584
6205.000000;0.422256
6204.000000;0.421929
6203.000000;0.421578
6202.000000;0.421212
6201.000000;0.420852
6200.000000;0.420490
6199.000000;0.420099
6198.000000;0.419679
6197.000000;0.419269
6196.000000;0.418896
6195.000000;0.418544
6194.000000;0.418182
6193.000000;0.417808
6192.000000;0.417434
6191.000000;0.417068
6190.000000;0.416727
6189.000000;0.416429
6188.000000;0.416166
6187.000000;0.415893
6186.000000;0.415576
6185.000000;0.415231
6184.000000;0.414893
6183.000000;0.414559
6182.000000;0.414193
6181.000000;0.413777
6180.000000;0.413337
6179.000000;0.412924
6178.000000;0.412575
6177.000000;0.412296
6176.000000;0.412047
6175.000000;0.411774
6174.000000;0.411456
6173.000000;0.411116
6172.000000;0.410788
6171.000000;0.410472
6170.000000;0.410144
6169.000000;0.409801
6168.000000;0.409468
6167.000000;0.409169
6166.000000;0.408900
6165.000000;0.408624
6164.000000;0.408303
6163.000000;0.407937
6162.000000;0.407562
6161.000000;0.407215
6160.000000;0.406896
6159.000000;0.406583
6158.000000;0.406274
6157.000000;0.405991
6156.000000;0.405728
6155.000000;0.405444
6154.000000;0.405116
6153.000000;0.404770
6152.000000;0.404452
6151.000000;0.404169
6150.000000;0.403905
6149.000000;0.403650
6148.000000;0.403409
6147.000000;0.403171
6146.000000;0.402907
6145.000000;0.402606
6144.000000;0.402294
6143.000000;0.402004
6142.000000;0.401738
6141.000000;0.401475
6140.000000;0.401191
6139.000000;0.400887
6138.000000;0.400583
6137.000000;0.400295
6136.000000;0.400023
6135.000000;0.399763
6134.000000;0.399525
6133.000000;0.399303
6132.000000;0.399062
6131.000000;0.398762
6130.000000;0.398414
6129.000000;0.398074
6128.000000;0.397786
6127.000000;0.397536
6126.000000;0.397282
6125.000000;0.397014
6124.000000;0.396750
6123.000000;0.396507
6122.000000;0.396278
6121.000000;0.396035
6120.000000;0.395759
6119.000000;0.395453
6118.000000;0.395155
6117.000000;0.394901
6116.000000;0.394692
6115.000000;0.394492
6114.000000;0.394272
6113.000000;0.394036
6112.000000;0.393798
6111.000000;0.393564
6110.000000;0.393332
6109.000000;0.393105
6108.000000;0.392880
6107.000000;0.392650
6106.000000;0.392422
6105.000000;0.392213
6104.000000;0.392019
6103.000000;0.391803
6102.000000;0.391538
6101.000000;0.391244
6100.000000;0.390972
6099.000000;0.390744
6098.000000;0.390532
6097.000000;0.390295
6096.000000;0.390022
6095.000000;0.389735
6094.000000;0.389466
6093.000000;0.389231
6092.000000;0.389021
6091.000000;0.388821
6090.000000;0.388625
6089.000000;0.388444
6088.000000;0.388280
6087.000000;0.388108
6086.000000;0.387898
6085.000000;0.387647
6084.000000;0.387378
6083.000000;0.387124
6082.000000;0.386914
6081.000000;0.386760
6080.000000;0.386634
6079.000000;0.386488
6078.000000;0.386280
6077.000000;0.386022
6076.000000;0.385758
6075.000000;0.385531
6074.000000;0.385349
6073.000000;0.385197
6072.000000;0.385055
6071.000000;0.384916
6070.000000;0.384781
6069.000000;0.384640
6068.000000;0.384470
6067.000000;0.384250
6066.000000;0.383988
6065.000000;0.383723
6064.000000;0.383489
6063.000000;0.383285
6062.000000;0.383081
6061.000000;0.382863
6060.000000;0.382650
6059.000000;0.382477
6058.000000;0.382357
6057.000000;0.382264
6056.000000;0.382151
6055.000000;0.381994
6054.000000;0.381813
6053.000000;0.381636
6052.000000;0.381469
6051.000000;0.381297
6050.000000;0.381118
6049.000000;0.380949
6048.000000;0.380800
6047.000000;0.380657
6046.000000;0.380505
6045.000000;0.380339
6044.000000;0.380163
6043.000000;0.379981
6042.000000;0.379813
6041.000000;0.379682
6040.000000;0.379583
6039.000000;0.379476
6038.000000;0.379328
6037.000000;0.379148
6036.000000;0.378964
6035.000000;0.378796
6034.000000;0.378651
6033.000000;0.378544
6032.000000;0.378476
6031.000000;0.378420
6030.000000;0.378331
6029.000000;0.378204
6028.000000;0.378070
6027.000000;0.377957
6026.000000;0.377847
6025.000000;0.377704
6024.000000;0.377524
6023.000000;0.377334
6022.000000;0.377164
6021.000000;0.377017
6020.000000;0.376881
6019.000000;0.376753
6018.000000;0.376642
6017.000000;0.376554
6016.000000;0.376473
6015.000000;0.376371
6014.000000;0.376227
6013.000000;0.376046
6012.000000;0.375855
6011.000000;0.375683
6010.000000;0.375550
6009.000000;0.375451
6008.000000;0.375368
6007.000000;0.375284
6006.000000;0.375194
6005.000000;0.375094
6004.000000;0.374983
6003.000000;0.374869
6002.000000;0.374780
6001.000000;0.374738
6000.000000;0.374734
5999.000000;0.374733
5998.000000;0.374699
5997.000000;0.374630
5996.000000;0.374545
5995.000000;0.374457
5994.000000;0.374362
5993.000000;0.374255
5992.000000;0.374143
5991.000000;0.374044
5990.000000;0.373968
5989.000000;0.373903
5988.000000;0.373828
5987.000000;0.373741
5986.000000;0.373659
5985.000000;0.373603
5984.000000;0.373568
5983.000000;0.373530
5982.000000;0.373476
5981.000000;0.373407
5980.000000;0.373325
5979.000000;0.373228
5978.000000;0.373123
5977.000000;0.373032
5976.000000;0.372976
5975.000000;0.372953
5974.000000;0.372941
5973.000000;0.372910
5972.000000;0.372837
5971.000000;0.372724
5970.000000;0.372602
5969.000000;0.372522
5968.000000;0.372512
5967.000000;0.372559
5966.000000;0.372614
5965.000000;0.372636
5964.000000;0.372615
5963.000000;0.372570
5962.000000;0.372529
5961.000000;0.372509
5960.000000;0.372511
5959.000000;0.372522
5958.000000;0.372525
5957.000000;0.372510
5956.000000;0.372474
5955.000000;0.372430
5954.000000;0.372387
5953.000000;0.372348
5952.000000;0.372315
5951.000000;0.372302
5950.000000;0.372326
5949.000000;0.372373
5948.000000;0.372404
5947.000000;0.372389
5946.000000;0.372343
5945.000000;0.372304
5944.000000;0.372290
5943.000000;0.372284
5942.000000;0.372272
5941.000000;0.372259
5940.000000;0.372266
5939.000000;0.372303
5938.000000;0.372361
5937.000000;0.372417
5936.000000;0.372444
5935.000000;0.372428
5934.000000;0.372380
5933.000000;0.372339
5932.000000;0.372338
5931.000000;0.372389
5930.000000;0.372474
5929.000000;0.372567
5928.000000;0.372640
5927.000000;0.372678
5926.000000;0.372684
5925.000000;0.372684
5924.000000;0.372702
5923.000000;0.372745
5922.000000;0.372797
5921.000000;0.372836
5920.000000;0.372856
5919.000000;0.372873
5918.000000;0.372905
5917.000000;0.372948
5916.000000;0.372983
5915.000000;0.373005
5914.000000;0.373032
5913.000000;0.373083
5912.000000;0.373152
5911.000000;0.373213
5910.000000;0.373243
5909.000000;0.373253
5908.000000;0.373266
5907.000000;0.373300
5906.000000;0.373349
5905.000000;0.373391
5904.000000;0.373411
5903.000000;0.373412
5902.000000;0.373418
5901.000000;0.373458
5900.000000;0.373546
5899.000000;0.373669
5898.000000;0.373791
5897.000000;0.373884
5896.000000;0.373950
5895.000000;0.374012
5894.000000;0.374079
5893.000000;0.374132
5892.000000;0.374153
5891.000000;0.374165
5890.000000;0.374214
5889.000000;0.374321
5888.000000;0.374463
5887.000000;0.374605
5886.000000;0.374734
5885.000000;0.374851
5884.000000;0.374952
5883.000000;0.375032
5882.000000;0.375098
5881.000000;0.375154
5880.000000;0.375202
5879.000000;0.375261
5878.000000;0.375365
5877.000000;0.375527
5876.000000;0.375711
5875.000000;0.375863
5874.000000;0.375962
5873.000000;0.376031
5872.000000;0.376104
5871.000000;0.376204
5870.000000;0.376342
5869.000000;0.376513
5868.000000;0.376690
5867.000000;0.376848
5866.000000;0.376987
5865.000000;0.377127
5864.000000;0.377282
5863.000000;0.377454
5862.000000;0.377640
5861.000000;0.377828
5860.000000;0.377993
5859.000000;0.378121
5858.000000;0.378235
5857.000000;0.378366
5856.000000;0.378526
5855.000000;0.378706
5854.000000;0.378907
5853.000000;0.379131
5852.000000;0.379356
5851.000000;0.379544
5850.000000;0.379684
5849.000000;0.379814
5848.000000;0.379972
5847.000000;0.380165
5846.000000;0.380369
5845.000000;0.380566
5844.000000;0.380761
5843.000000;0.380973
5842.000000;0.381218
5841.000000;0.381483
5840.000000;0.381732
5839.000000;0.381930
5838.000000;0.382089
5837.000000;0.382253
5836.000000;0.382447
5835.000000;0.382662
5834.000000;0.382880
5833.000000;0.383102
5832.000000;0.383335
5831.000000;0.383580
5830.000000;0.383841
5829.000000;0.384124
5828.000000;0.384420
5827.000000;0.384703
5826.000000;0.384954
5825.000000;0.385184
5824.000000;0.385425
5823.000000;0.385689
5822.000000;0.385967
5821.000000;0.386244
5820.000000;0.386520
5819.000000;0.386797
5818.000000;0.387072
5817.000000;0.387340
5816.000000;0.387597
5815.000000;0.387854
5814.000000;0.388125
5813.000000;0.388421
5812.000000;0.388734
5811.000000;0.389052
5810.000000;0.389371
5809.000000;0.389692
5808.000000;0.390011
5807.000000;0.390314
5806.000000;0.390590
5805.000000;0.390845
5804.000000;0.391099
5803.000000;0.391376
5802.000000;0.391697
5801.000000;0.392065
5800.000000;0.392467
5799.000000;0.392880
5798.000000;0.393290
5797.000000;0.393686
5796.000000;0.394049
5795.000000;0.394371
5794.000000;0.394677
5793.000000;0.395010
5792.000000;0.395383
5791.000000;0.395772
5790.000000;0.396149
5789.000000;0.396519
5788.000000;0.396897
5787.000000;0.397277
5786.000000;0.397635
5785.000000;0.397960
5784.000000;0.398275
5783.000000;0.398623
5782.000000;0.399031
5781.000000;0.399484
5780.000000;0.399936
5779.000000;0.400343
5778.000000;0.400712
5777.000000;0.401090
5776.000000;0.401515
5775.000000;0.401979
5774.000000;0.402444
5773.000000;0.402881
5772.000000;0.403289
5771.000000;0.403694
5770.000000;0.404123
5769.000000;0.404587
5768.000000;0.405072
5767.000000;0.405547
5766.000000;0.405989
5765.000000;0.406404
5764.000000;0.406817
5763.000000;0.407247
5762.000000;0.407706
5761.000000;0.408197
5760.000000;0.408722
5759.000000;0.409268
5758.000000;0.409807
5757.000000;0.410308
5756.000000;0.410753
5755.000000;0.411170
5754.000000;0.411622
5753.000000;0.412154
5752.000000;0.412743
5751.000000;0.413316
5750.000000;0.413825
5749.000000;0.414291
5748.000000;0.414771
5747.000000;0.415292
5746.000000;0.415834
5745.000000;0.416380
5744.000000;0.416942
5743.000000;0.417540
5742.000000;0.418170
5741.000000;0.418800
5740.000000;0.419396
5739.000000;0.419951
5738.000000;0.420486
5737.000000;0.421021
5736.000000;0.421567
5735.000000;0.422126
5734.000000;0.422709
5733.000000;0.423333
5732.000000;0.423985
5731.000000;0.424628
5730.000000;0.425228
5729.000000;0.425791
5728.000000;0.426360
5727.000000;0.426978
5726.000000;0.427651
5725.000000;0.428344
5724.000000;0.429015
5723.000000;0.429651
5722.000000;0.430278
5721.000000;0.430918
5720.000000;0.431566
5719.000000;0.432199
5718.000000;0.432820
5717.000000;0.433469
5716.000000;0.434174
5715.000000;0.434913
5714.000000;0.435629
5713.000000;0.436291
5712.000000;0.436923
5711.000000;0.437572
5710.000000;0.438253
5709.000000;0.438941
5708.000000;0.439609
5707.000000;0.440275
5706.000000;0.440989
5705.000000;0.441772
5704.000000;0.442577
5703.000000;0.443335
5702.000000;0.444032
5701.000000;0.444711
5700.000000;0.445418
5699.000000;0.446139
5698.000000;0.446867
5697.000000;0.447529
5696.000000;0.448189
5695.000000;0.448874
5694.000000;0.449577
5693.000000;0.450352
5692.000000;0.451181
5691.000000;0.452005
5690.000000;0.452762
5689.000000;0.453465
5688.000000;0.454172
5687.000000;0.454915
5686.000000;0.455675
5685.000000;0.456419
5684.000000;0.457136
5683.000000;0.457828
5682.000000;0.458512
5681.000000;0.459209
5680.000000;0.459933
5679.000000;0.460673
5678.000000;0.461419
5677.000000;0.462182
5676.000000;0.462965
5675.000000;0.463740
5674.000000;0.464475
5673.000000;0.465192
5672.000000;0.465947
5671.000000;0.466761
5670.000000;0.467588
5669.000000;0.468376
5668.000000;0.469105
5667.000000;0.469777
5666.000000;0.470405
5665.000000;0.471027
5664.000000;0.471697
5663.000000;0.472441
5662.000000;0.473223
5661.000000;0.473985
5660.000000;0.474692
5659.000000;0.475349
5658.000000;0.475978
5657.000000;0.476616
5656.000000;0.477296
5655.000000;0.478013
5654.000000;0.478724
5653.000000;0.479400
5652.000000;0.480052
5651.000000;0.480710
5650.000000;0.481379
5649.000000;0.482053
5648.000000;0.482726
5647.000000;0.483393
5646.000000;0.484034
5645.000000;0.484636
5644.000000;0.485218
5643.000000;0.485805
5642.000000;0.486400
5641.000000;0.486987
5640.000000;0.487569
5639.000000;0.488168
5638.000000;0.488786
5637.000000;0.489402
5636.000000;0.489990
5635.000000;0.490550
5634.000000;0.491099
5633.000000;0.491652
5632.000000;0.492207
5631.000000;0.492739
5630.000000;0.493230
5629.000000;0.493698
5628.000000;0.494186
5627.000000;0.494708
5626.000000;0.495231
5625.000000;0.495718
5624.000000;0.496176
5623.000000;0.496633
5622.000000;0.497092
5621.000000;0.497528
5620.000000;0.497940
5619.000000;0.498358
5618.000000;0.498802
5617.000000;0.499249
5616.000000;0.499660
5615.000000;0.500023
5614.000000;0.500365
5613.000000;0.500728
5612.000000;0.501133
5611.000000;0.501553
5610.000000;0.501929
5609.000000;0.502228
5608.000000;0.502469
5607.000000;0.502701
5606.000000;0.502969
5605.000000;0.503289
5604.000000;0.503644
5603.000000;0.503984
5602.000000;0.504262
5601.000000;0.504480
5600.000000;0.504681
5599.000000;0.504898
5598.000000;0.505127
5597.000000;0.505365
5596.000000;0.505627
5595.000000;0.505897
5594.000000;0.506116
5593.000000;0.506256
5592.000000;0.506367
5591.000000;0.506522
5590.000000;0.506725
5589.000000;0.506938
5588.000000;0.507155
5587.000000;0.507383
5586.000000;0.507582
5585.000000;0.507692
5584.000000;0.507726
5583.000000;0.507760
5582.000000;0.507848
5581.000000;0.507974
5580.000000;0.508105
5579.000000;0.508227
5578.000000;0.508316
5577.000000;0.508340
5576.000000;0.508311
5575.000000;0.508289
5574.000000;0.508312
5573.000000;0.508363
5572.000000;0.508422
5571.000000;0.508498
5570.000000;0.508587
5569.000000;0.508651
5568.000000;0.508662
5567.000000;0.508646
5566.000000;0.508643
5565.000000;0.508675
5564.000000;0.508747
5563.000000;0.508850
5562.000000;0.508925
5561.000000;0.508901
5560.000000;0.508783
5559.000000;0.508673
5558.000000;0.508645
5557.000000;0.508653
5556.000000;0.508604
5555.000000;0.508488
5554.000000;0.508378
5553.000000;0.508310
5552.000000;0.508243
5551.000000;0.508147
5550.000000;0.508064
5549.000000;0.508046
5548.000000;0.508089
5547.000000;0.508131
5546.000000;0.508114
5545.000000;0.508037
5544.000000;0.507940
5543.000000;0.507852
5542.000000;0.507755
5541.000000;0.507620
5540.000000;0.507467
5539.000000;0.507357
5538.000000;0.507308
5537.000000;0.507251
5536.000000;0.507141
5535.000000;0.507041
5534.000000;0.507033
5533.000000;0.507080
5532.000000;0.507069
5531.000000;0.506969
5530.000000;0.506860
5529.000000;0.506799
5528.000000;0.506749
5527.000000;0.506660
5526.000000;0.506556
5525.000000;0.506498
5524.000000;0.506489
5523.000000;0.506442
5522.000000;0.506282
5521.000000;0.506039
5520.000000;0.505852
5519.000000;0.505858
5518.000000;0.506027
5517.000000;0.506168
5516.000000;0.506135
5515.000000;0.505983
5514.000000;0.505896
5513.000000;0.505951
5512.000000;0.506040
5511.000000;0.506046
5510.000000;0.505973
5509.000000;0.505863
5508.000000;0.505709
5507.000000;0.505521
5506.000000;0.505430
5505.000000;0.505605
5504.000000;0.505997
5503.000000;0.506313
5502.000000;0.506346
5501.000000;0.506184
5500.000000;0.506057
5499.000000;0.506041
5498.000000;0.505993
5497.000000;0.505847
5496.000000;0.505826
5495.000000;0.506101
5494.000000;0.506449
5493.000000;0.506473
5492.000000;0.506193
5491.000000;0.506141
5490.000000;0.506650
5489.000000;0.507355
5488.000000;0.507668
5487.000000;0.507537
5486.000000;0.507416
5485.000000;0.507598
5484.000000;0.507904
5483.000000;0.508043
5482.000000;0.508055
5481.000000;0.508115
5480.000000;0.508173
5479.000000;0.508184
5478.000000;0.508374
5477.000000;0.508900
5476.000000;0.509457
5475.000000;0.509561
5474.000000;0.509324
5473.000000;0.509490
5472.000000;0.510411
5471.000000;0.511487
5470.000000;0.511931
5469.000000;0.511697
5468.000000;0.511422
5467.000000;0.511621
5466.000000;0.512180
5465.000000;0.512736
5464.000000;0.513249
5463.000000;0.513860
5462.000000;0.514538
5461.000000;0.515104
5460.000000;0.515476
5459.000000;0.515805
5458.000000;0.516290
5457.000000;0.516919
5456.000000;0.517505
5455.000000;0.517900
5454.000000;0.518132
5453.000000;0.518469
5452.000000;0.519176
5451.000000;0.520098
5450.000000;0.520788
5449.000000;0.521152
5448.000000;0.521686
5447.000000;0.522804
5446.000000;0.524101
5445.000000;0.524905
5444.000000;0.525399
5443.000000;0.526342
5442.000000;0.527813
5441.000000;0.529049
5440.000000;0.529522
5439.000000;0.529734
5438.000000;0.530615
5437.000000;0.532286
5436.000000;0.533944
5435.000000;0.534865
5434.000000;0.535156
5433.000000;0.535650
5432.000000;0.537054
5431.000000;0.539160
5430.000000;0.541077
5429.000000;0.542177
5428.000000;0.542724
5427.000000;0.543531
5426.000000;0.545013
5425.000000;0.546812
5424.000000;0.548341
5423.000000;0.549396
5422.000000;0.550248
5421.000000;0.551365
5420.000000;0.552931
5419.000000;0.554623
5418.000000;0.556152
5417.000000;0.557828
5416.000000;0.560136
5415.000000;0.562916
5414.000000;0.565433
5413.000000;0.567408
5412.000000;0.569486
5411.000000;0.572184
5410.000000;0.575012
5409.000000;0.577185
5408.000000;0.578783
5407.000000;0.580548
5406.000000;0.582795
5405.000000;0.585144
5404.000000;0.587257
5403.000000;0.589374
5402.000000;0.591837
5401.000000;0.594598
5400.000000;0.597576
5399.000000;0.600783
5398.000000;0.604095
5397.000000;0.607432
5396.000000;0.610964
5395.000000;0.614891
5394.000000;0.618974
5393.000000;0.622680
5392.000000;0.625991
5391.000000;0.629466
5390.000000;0.633421
5389.000000;0.637608
5388.000000;0.641724
5387.000000;0.645836
5386.000000;0.650109
5385.000000;0.654471
5384.000000;0.658911
5383.000000;0.663765
5382.000000;0.669084
5381.000000;0.674350
5380.000000;0.679367
5379.000000;0.684649
5378.000000;0.690592
5377.000000;0.696775
5376.000000;0.702599
5375.000000;0.708342
5374.000000;0.714715
5373.000000;0.721648
5372.000000;0.728417
5371.000000;0.734778
5370.000000;0.741229
5369.000000;0.748148
5368.000000;0.755322
5367.000000;0.762600
5366.000000;0.770313
5365.000000;0.778628
5364.000000;0.787183
5363.000000;0.795752
5362.000000;0.804631
5361.000000;0.814096
5360.000000;0.823969
5359.000000;0.833917
5358.000000;0.843931
5357.000000;0.854227
5356.000000;0.864912
5355.000000;0.876008
5354.000000;0.887543
5353.000000;0.899394
5352.000000;0.911427
5351.000000;0.923918
5350.000000;0.937150
5349.000000;0.950687
5348.000000;0.963913
5347.000000;0.977163
5346.000000;0.991491
5345.000000;1.007105
5344.000000;1.022842
5343.000000;1.037934
5342.000000;1.053365
5341.000000;1.070264
5340.000000;1.088119
5339.000000;1.105734
5338.000000;1.123069
5337.000000;1.141115
5336.000000;1.160223
5335.000000;1.179796
5334.000000;1.199567
5333.000000;1.219842
5332.000000;1.240614
5331.000000;1.261747
5330.000000;1.283751
5329.000000;1.307175
5328.000000;1.331524
5327.000000;1.355784
5326.000000;1.379964
5325.000000;1.404986
5324.000000;1.430938
5323.000000;1.456948
5322.000000;1.482902
5321.000000;1.509703
5320.000000;1.537762
5319.000000;1.566583
5318.000000;1.595890
5317.000000;1.625906
5316.000000;1.656520
5315.000000;1.687478
5314.000000;1.719277
5313.000000;1.752263
5312.000000;1.785119
5311.000000;1.816382
5310.000000;1.847106
5309.000000;1.879588
5308.000000;1.913740
5307.000000;1.947252
5306.000000;1.979314
5305.000000;2.011236
5304.000000;2.043496
5303.000000;2.075544
5302.000000;2.108038
5301.000000;2.141450
5300.000000;2.173090
5299.000000;2.200282
5298.000000;2.226006
5297.000000;2.255700
5296.000000;2.288899
5295.000000;2.319571
5294.000000;2.344880
5293.000000;2.367286
5292.000000;2.387412
5291.000000;2.402449
5290.000000;2.412170
5289.000000;2.419899
5288.000000;2.427578
5287.000000;2.435836
5286.000000;2.447251
5285.000000;2.463087
5284.000000;2.478734
5283.000000;2.489264
5282.000000;2.497480
5281.000000;2.508124
5280.000000;2.517860
5279.000000;2.520077
5278.000000;2.516655
5277.000000;2.514916
5276.000000;2.516421
5275.000000;2.517742
5274.000000;2.518728
5273.000000;2.522179
5272.000000;2.527632
5271.000000;2.532449
5270.000000;2.536986
5269.000000;2.542291
5268.000000;2.545612
5267.000000;2.545048
5266.000000;2.544953
5265.000000;2.549417
5264.000000;2.554654
5263.000000;2.554629
5262.000000;2.550795
5261.000000;2.548581
5260.000000;2.548816
5259.000000;2.549872
5258.000000;2.552430
5257.000000;2.555223
5256.000000;2.552176
5255.000000;2.541756
5254.000000;2.532825
5253.000000;2.532641
5252.000000;2.536123
5251.000000;2.534631
5250.000000;2.530150
5249.000000;2.530982
5248.000000;2.537942
5247.000000;2.544116
5246.000000;2.546287
5245.000000;2.547642
5244.000000;2.549626
5243.000000;2.550262
5242.000000;2.549157
5241.000000;2.547831
5240.000000;2.546454
5239.000000;2.544340
5238.000000;2.542439
5237.000000;2.541042
5236.000000;2.538107
5235.000000;2.534658
5234.000000;2.536273
5233.000000;2.543875
5232.000000;2.548532
5231.000000;2.542856
5230.000000;2.532746
5229.000000;2.528063
5228.000000;2.529438
5227.000000;2.532286
5226.000000;2.536816
5225.000000;2.545101
5224.000000;2.552358
5223.000000;2.551652
5222.000000;2.545427
5221.000000;2.541619
5220.000000;2.541405
5219.000000;2.540237
5218.000000;2.537781
5217.000000;2.537318
5216.000000;2.537625
5215.000000;2.535370
5214.000000;2.533620
5213.000000;2.538358
5212.000000;2.547455
5211.000000;2.551127
5210.000000;2.544933
5209.000000;2.535001
5208.000000;2.528566
5207.000000;2.527498
5206.000000;2.531077
5205.000000;2.538109
5204.000000;2.545339
5203.000000;2.548668
5202.000000;2.547178
5201.000000;2.543389
5200.000000;2.539969
5199.000000;2.538463
5198.000000;2.539810
5197.000000;2.543520
5196.000000;2.548050
5195.000000;2.553750
5194.000000;2.561698
5193.000000;2.567963
5192.000000;2.565118
5191.000000;2.553588
5190.000000;2.544114
5189.000000;2.544246
5188.000000;2.549359
5187.000000;2.550661
5186.000000;2.548013
5185.000000;2.548234
5184.000000;2.554259
5183.000000;2.562662
5182.000000;2.568185
5181.000000;2.566662
5180.000000;2.557766
5179.000000;2.548102
5178.000000;2.546933
5177.000000;2.555186
5176.000000;2.562126
5175.000000;2.558802
5174.000000;2.550700
5173.000000;2.547985
5172.000000;2.550681
5171.000000;2.551119
5170.000000;2.546310
5169.000000;2.540663
5168.000000;2.538744
5167.000000;2.542103
5166.000000;2.549961
5165.000000;2.557455
5164.000000;2.557412
5163.000000;2.549972
5162.000000;2.544627
5161.000000;2.547152
5160.000000;2.551671
5159.000000;2.551339
5158.000000;2.550174
5157.000000;2.555052
5156.000000;2.563608
5155.000000;2.568349
5154.000000;2.567882
5153.000000;2.565259
5152.000000;2.559674
5151.000000;2.550167
5150.000000;2.542516
5149.000000;2.542797
5148.000000;2.547714
5147.000000;2.549301
5146.000000;2.547684
5145.000000;2.549571
5144.000000;2.555545
5143.000000;2.558654
5142.000000;2.555481
5141.000000;2.550408
5140.000000;2.547935
5139.000000;2.548388
5138.000000;2.550674
5137.000000;2.552988
5136.000000;2.551847
5135.000000;2.546324
5134.000000;2.541588
5133.000000;2.542663
5132.000000;2.547223
5131.000000;2.549273
5130.000000;2.547586
5129.000000;2.544450
5128.000000;2.539275
5127.000000;2.532049
5126.000000;2.529690
5125.000000;2.539779
5124.000000;2.559330
5123.000000;2.575202
5122.000000;2.578075
5121.000000;2.571741
5120.000000;2.565008
5119.000000;2.562204
5118.000000;2.562710
5117.000000;2.563112
5116.000000;2.560055
5115.000000;2.554462
5114.000000;2.551078
5113.000000;2.551282
5112.000000;2.550192
5111.000000;2.545098
5110.000000;2.541884
5109.000000;2.547102
5108.000000;2.558040
5107.000000;2.566238
5106.000000;2.568429
5105.000000;2.566933
5104.000000;2.561981
5103.000000;2.552552
5102.000000;2.542493
5101.000000;2.537962
5100.000000;2.540110
5099.000000;2.545885
5098.000000;2.554303
5097.000000;2.565244
5096.000000;2.573201
5095.000000;2.570817
5094.000000;2.559315
5093.000000;2.547142
5092.000000;2.539286
5091.000000;2.534967
5090.000000;2.533415
5089.000000;2.535726
5088.000000;2.541619
5087.000000;2.549153
5086.000000;2.557036
5085.000000;2.563113
5084.000000;2.562665
5083.000000;2.554162
5082.000000;2.544285
5081.000000;2.540690
5080.000000;2.542649
5079.000000;2.543656
5078.000000;2.541230
5077.000000;2.538427
5076.000000;2.536923
5075.000000;2.535187
5074.000000;2.532905
5073.000000;2.531617
5072.000000;2.530912
5071.000000;2.528562
5070.000000;2.524442
5069.000000;2.520283
5068.000000;2.516296
5067.000000;2.512182
5066.000000;2.510335
5065.000000;2.513570
5064.000000;2.519975
5063.000000;2.523642
5062.000000;2.521034
5061.000000;2.514123
5060.000000;2.507345
5059.000000;2.504311
5058.000000;2.506266
5057.000000;2.510678
5056.000000;2.512820
5055.000000;2.511301
5054.000000;2.509379
5053.000000;2.508471
5052.000000;2.505126
5051.000000;2.497876
5050.000000;2.491925
5049.000000;2.492790
5048.000000;2.498878
5047.000000;2.503880
5046.000000;2.504680
5045.000000;2.502906
5044.000000;2.500259
5043.000000;2.496712
5042.000000;2.492072
5041.000000;2.486644
5040.000000;2.481504
5039.000000;2.479107
5038.000000;2.480926
5037.000000;2.483333
5036.000000;2.480597
5035.000000;2.474386
5034.000000;2.473196
5033.000000;2.479603
5032.000000;2.485100
5031.000000;2.481811
5030.000000;2.474274
5029.000000;2.471429
5028.000000;2.473328
5027.000000;2.473194
5026.000000;2.468361
5025.000000;2.462223
5024.000000;2.457299
5023.000000;2.453510
5022.000000;2.451683
5021.000000;2.452359
5020.000000;2.452596
5019.000000;2.450157
5018.000000;2.448303
5017.000000;2.450025
5016.000000;2.450844
5015.000000;2.443531
5014.000000;2.429071
5013.000000;2.415858
5012.000000;2.409004
5011.000000;2.406794
5010.000000;2.405740
5009.000000;2.404224
5008.000000;2.401315
5007.000000;2.396370
5006.000000;2.390565
5005.000000;2.385530
5004.000000;2.380717
5003.000000;2.374798
5002.000000;2.368573
5001.000000;2.363919
5000.000000;2.360815
4999.000000;2.357916
4998.000000;2.354791
4997.000000;2.351659
4996.000000;2.348332
4995.000000;2.345558
4994.000000;2.345639
4993.000000;2.348995
4992.000000;2.351646
4991.000000;2.349136
4990.000000;2.341671
4989.000000;2.332149
4988.000000;2.321732
4987.000000;2.310918
4986.000000;2.302047
4985.000000;2.297060
4984.000000;2.294651
4983.000000;2.292462
4982.000000;2.290651
4981.000000;2.290261
4980.000000;2.289658
4979.000000;2.286053
4978.000000;2.279495
4977.000000;2.272251
4976.000000;2.265230
4975.000000;2.257979
4974.000000;2.251284
4973.000000;2.246699
4972.000000;2.244000
4971.000000;2.241383
4970.000000;2.237535
4969.000000;2.231951
4968.000000;2.224410
4967.000000;2.215727
4966.000000;2.207734
4965.000000;2.201381
4964.000000;2.196073
4963.000000;2.191793
4962.000000;2.189876
4961.000000;2.189989
4960.000000;2.188435
4959.000000;2.182209
4958.000000;2.173194
4957.000000;2.165354
4956.000000;2.159507
4955.000000;2.153502
4954.000000;2.146219
4953.000000;2.138799
4952.000000;2.132399
4951.000000;2.127075
4950.000000;2.122489
4949.000000;2.117869
4948.000000;2.111954
4947.000000;2.104582
4946.000000;2.097430
4945.000000;2.091973
4944.000000;2.087550
4943.000000;2.082659
4942.000000;2.077226
4941.000000;2.072156
4940.000000;2.067578
4939.000000;2.062857
4938.000000;2.057517
4937.000000;2.051264
4936.000000;2.044049
4935.000000;2.036735
4934.000000;2.030487
4933.000000;2.025058
4932.000000;2.019195
4931.000000;2.013141
4930.000000;2.008434
4929.000000;2.004549
4928.000000;1.998257
4927.000000;1.988018
4926.000000;1.976870
4925.000000;1.968575
4924.000000;1.963118
4923.000000;1.958144
4922.000000;1.952975
4921.000000;1.948743
4920.000000;1.945433
4919.000000;1.941316
4918.000000;1.935200
4917.000000;1.927609
4916.000000;1.919880
4915.000000;1.913301
4914.000000;1.908607
4913.000000;1.905094
4912.000000;1.900899
4911.000000;1.895293
4910.000000;1.889705
4909.000000;1.885355
4908.000000;1.881183
4907.000000;1.875531
4906.000000;1.868826
4905.000000;1.862804
4904.000000;1.857872
4903.000000;1.852908
4902.000000;1.847111
4901.000000;1.840587
4900.000000;1.833575
4899.000000;1.826449
4898.000000;1.820054
4897.000000;1.814784
4896.000000;1.809779
4895.000000;1.804107
4894.000000;1.798188
4893.000000;1.792905
4892.000000;1.787908
4891.000000;1.782091
4890.000000;1.775356
4889.000000;1.768673
4888.000000;1.762690
4887.000000;1.757399
4886.000000;1.752857
4885.000000;1.749118
4884.000000;1.745527
4883.000000;1.741105
4882.000000;1.735571
4881.000000;1.729340
4880.000000;1.722875
4879.000000;1.716727
4878.000000;1.711712
4877.000000;1.708123
4876.000000;1.704976
4875.000000;1.700793
4874.000000;1.694992
4873.000000;1.688078
4872.000000;1.680979
4871.000000;1.674765
4870.000000;1.670324
4869.000000;1.667365
4868.000000;1.664153
4867.000000;1.659149
4866.000000;1.652662
4865.000000;1.646104
4864.000000;1.640132
4863.000000;1.634385
4862.000000;1.628583
4861.000000;1.622921
4860.000000;1.617511
4859.000000;1.612264
4858.000000;1.607281
4857.000000;1.602722
4856.000000;1.598363
4855.000000;1.593830
4854.000000;1.589075
4853.000000;1.584163
4852.000000;1.578895
4851.000000;1.573217
4850.000000;1.567758
4849.000000;1.563248
4848.000000;1.559476
4847.000000;1.555363
4846.000000;1.550132
4845.000000;1.544113
4844.000000;1.538360
4843.000000;1.533677
4842.000000;1.529911
4841.000000;1.526052
4840.000000;1.521288
4839.000000;1.515992
4838.000000;1.511171
4837.000000;1.506933
4836.000000;1.502255
4835.000000;1.496562
4834.000000;1.490769
4833.000000;1.486123
4832.000000;1.482609
4831.000000;1.479102
4830.000000;1.474754
4829.000000;1.469680
4828.000000;1.464526
4827.000000;1.459890
4826.000000;1.455935
4825.000000;1.452173
4824.000000;1.447882
4823.000000;1.443016
4822.000000;1.438304
4821.000000;1.434144
4820.000000;1.429965
4819.000000;1.425145
4818.000000;1.420057
4817.000000;1.415537
4816.000000;1.411707
4815.000000;1.407925
4814.000000;1.403685
4813.000000;1.399002
4812.000000;1.394105
4811.000000;1.389279
4810.000000;1.384879
4809.000000;1.381063
4808.000000;1.377544
4807.000000;1.373872
4806.000000;1.369820
4805.000000;1.365338
4804.000000;1.360475
4803.000000;1.355592
4802.000000;1.351284
4801.000000;1.347709
4800.000000;1.344298
4799.000000;1.340489
4798.000000;1.336418
4797.000000;1.332512
4796.000000;1.328751
4795.000000;1.324745
4794.000000;1.320310
4793.000000;1.315620
4792.000000;1.311025
4791.000000;1.306965
4790.000000;1.303717
4789.000000;1.300905
4788.000000;1.297657
4787.000000;1.293606
4786.000000;1.289300
4785.000000;1.285289
4784.000000;1.281332
4783.000000;1.277012
4782.000000;1.272649
4781.000000;1.268881
4780.000000;1.265649
4779.000000;1.262284
4778.000000;1.258490
4777.000000;1.254604
4776.000000;1.250911
4775.000000;1.247259
4774.000000;1.243435
4773.000000;1.239511
4772.000000;1.235761
4771.000000;1.232443
4770.000000;1.229598
4769.000000;1.226850
4768.000000;1.223586
4767.000000;1.219618
4766.000000;1.215444
4765.000000;1.211605
4764.000000;1.208027
4763.000000;1.204332
4762.000000;1.200525
4761.000000;1.196925
4760.000000;1.193583
4759.000000;1.190250
4758.000000;1.186830
4757.000000;1.183490
4756.000000;1.180328
4755.000000;1.177282
4754.000000;1.174295
4753.000000;1.171305
4752.000000;1.168145
4751.000000;1.164711
4750.000000;1.161155
4749.000000;1.157672
4748.000000;1.154244
4747.000000;1.150817
4746.000000;1.147536
4745.000000;1.144518
4744.000000;1.141579
4743.000000;1.138513
4742.000000;1.135497
4741.000000;1.132857
4740.000000;1.130523
4739.000000;1.128044
4738.000000;1.125106
4737.000000;1.121768
4736.000000;1.118295
4735.000000;1.114986
4734.000000;1.112073
4733.000000;1.109502
4732.000000;1.106911
4731.000000;1.104050
4730.000000;1.101080
4729.000000;1.098227
4728.000000;1.095354
4727.000000;1.092209
4726.000000;1.088947
4725.000000;1.086008
4724.000000;1.083537
4723.000000;1.081257
4722.000000;1.078899
4721.000000;1.076452
4720.000000;1.073983
4719.000000;1.071475
4718.000000;1.068887
4717.000000;1.066179
4716.000000;1.063315
4715.000000;1.060392
4714.000000;1.057667
4713.000000;1.055242
4712.000000;1.052856
4711.000000;1.050218
4710.000000;1.047450
4709.000000;1.044947
4708.000000;1.042846
4707.000000;1.040876
4706.000000;1.038719
4705.000000;1.036282
4704.000000;1.033661
4703.000000;1.031030
4702.000000;1.028553
4701.000000;1.026233
4700.000000;1.023886
4699.000000;1.021389
4698.000000;1.018867
4697.000000;1.016492
4696.000000;1.014212
4695.000000;1.011881
4694.000000;1.009544
4693.000000;1.007393
4692.000000;1.005495
4691.000000;1.003725
4690.000000;1.001916
4689.000000;0.999941
4688.000000;0.997752
4687.000000;0.995476
4686.000000;0.993340
4685.000000;0.991377
4684.000000;0.989359
4683.000000;0.987189
4682.000000;0.985139
4681.000000;0.983479
4680.000000;0.982036
4679.000000;0.980386
4678.000000;0.978367
4677.000000;0.976160
4676.000000;0.973973
4675.000000;0.971891
4674.000000;0.969968
4673.000000;0.968203
4672.000000;0.966493
4671.000000;0.964778
4670.000000;0.963144
4669.000000;0.961604
4668.000000;0.959931
4667.000000;0.957945
4666.000000;0.955846
4665.000000;0.953990
4664.000000;0.952418
4663.000000;0.950885
4662.000000;0.949267
4661.000000;0.947680
4660.000000;0.946202
4659.000000;0.944749
4658.000000;0.943250
4657.000000;0.941758
4656.000000;0.940341
4655.000000;0.938987
4654.000000;0.937607
4653.000000;0.936063
4652.000000;0.934272
4651.000000;0.932386
4650.000000;0.930722
4649.000000;0.929379
4648.000000;0.928095
4647.000000;0.926646
4646.000000;0.925187
4645.000000;0.923975
4644.000000;0.922910
4643.000000;0.921663
4642.000000;0.920160
4641.000000;0.918648
4640.000000;0.917313
4639.000000;0.916087
4638.000000;0.914821
4637.000000;0.913428
4636.000000;0.911872
4635.000000;0.910218
4634.000000;0.908661
4633.000000;0.907337
4632.000000;0.906152
4631.000000;0.904969
4630.000000;0.903852
4629.000000;0.902940
4628.000000;0.902154
4627.000000;0.901272
4626.000000;0.900240
4625.000000;0.899178
4624.000000;0.898137
4623.000000;0.897055
4622.000000;0.895921
4621.000000;0.894772
4620.000000;0.893574
4619.000000;0.892302
4618.000000;0.891098
4617.000000;0.890147
4616.000000;0.889422
4615.000000;0.888730
4614.000000;0.887962
4613.000000;0.887116
4612.000000;0.886154
4611.000000;0.885056
4610.000000;0.883975
4609.000000;0.883091
4608.000000;0.882343
4607.000000;0.881522
4606.000000;0.880628
4605.000000;0.879871
4604.000000;0.879322
4603.000000;0.878776
4602.000000;0.878028
4601.000000;0.877123
4600.000000;0.876255
4599.000000;0.875549
4598.000000;0.874963
4597.000000;0.874321
4596.000000;0.873476
4595.000000;0.872505
4594.000000;0.871681
4593.000000;0.871143
4592.000000;0.870700
4591.000000;0.870098
4590.000000;0.869371
4589.000000;0.868727
4588.000000;0.868206
4587.000000;0.867663
4586.000000;0.867045
4585.000000;0.866456
4584.000000;0.865940
4583.000000;0.865415
4582.000000;0.864857
4581.000000;0.864385
4580.000000;0.864120
4579.000000;0.864067
4578.000000;0.864128
4577.000000;0.864125
4576.000000;0.863886
4575.000000;0.863413
4574.000000;0.862905
4573.000000;0.862519
4572.000000;0.862183
4571.000000;0.861779
4570.000000;0.861388
4569.000000;0.861181
4568.000000;0.861162
4567.000000;0.861199
4566.000000;0.861229
4565.000000;0.861238
4564.000000;0.861126
4563.000000;0.860799
4562.000000;0.860364
4561.000000;0.860046
4560.000000;0.859946
4559.000000;0.860027
4558.000000;0.860262
4557.000000;0.860618
4556.000000;0.860965
4555.000000;0.861202
4554.000000;0.861398
4553.000000;0.861655
4552.000000;0.861892
4551.000000;0.861958
4550.000000;0.861902
4549.000000;0.861902
4548.000000;0.862015
4547.000000;0.862207
4546.000000;0.862555
4545.000000;0.863179
4544.000000;0.863976
4543.000000;0.864650
4542.000000;0.865041
4541.000000;0.865250
4540.000000;0.865455
4539.000000;0.865757
4538.000000;0.866183
4537.000000;0.866672
4536.000000;0.867059
4535.000000;0.867244
4534.000000;0.867344
4533.000000;0.867546
4532.000000;0.867879
4531.000000;0.868256
4530.000000;0.868667
4529.000000;0.869151
4528.000000;0.869654
4527.000000;0.870081
4526.000000;0.870420
4525.000000;0.870676
4524.000000;0.870807
4523.000000;0.870894
4522.000000;0.871232
4521.000000;0.871996
4520.000000;0.872906
4519.000000;0.873504
4518.000000;0.873694
4517.000000;0.873779
4516.000000;0.874013
4515.000000;0.874384
4514.000000;0.874797
4513.000000;0.875225
4512.000000;0.875652
4511.000000;0.876082
4510.000000;0.876587
4509.000000;0.877166
4508.000000;0.877628
4507.000000;0.877818
4506.000000;0.877922
4505.000000;0.878277
4504.000000;0.878943
4503.000000;0.879686
4502.000000;0.880355
4501.000000;0.881040
4500.000000;0.881850
4499.000000;0.882765
4498.000000;0.883709
4497.000000;0.884566
4496.000000;0.885171
4495.000000;0.885483
4494.000000;0.885736
4493.000000;0.886220
4492.000000;0.886954
4491.000000;0.887778
4490.000000;0.888655
4489.000000;0.889625
4488.000000;0.890539
4487.000000;0.891177
4486.000000;0.891630
4485.000000;0.892236
4484.000000;0.893116
4483.000000;0.894060
4482.000000;0.894922
4481.000000;0.895860
4480.000000;0.897041
4479.000000;0.898357
4478.000000;0.899562
4477.000000;0.900555
4476.000000;0.901462
4475.000000;0.902520
4474.000000;0.903890
4473.000000;0.905468
4472.000000;0.906948
4471.000000;0.908188
4470.000000;0.909426
4469.000000;0.910918
4468.000000;0.912513
4467.000000;0.913868
4466.000000;0.915004
4465.000000;0.916323
4464.000000;0.918038
4463.000000;0.919914
4462.000000;0.921625
4461.000000;0.923093
4460.000000;0.924378
4459.000000;0.925514
4458.000000;0.926581
4457.000000;0.927754
4456.000000;0.929167
4455.000000;0.930825
4454.000000;0.932711
4453.000000;0.934822
4452.000000;0.937048
4451.000000;0.939148
4450.000000;0.940938
4449.000000;0.942450
4448.000000;0.943875
4447.000000;0.945433
4446.000000;0.947198
4445.000000;0.949020
4444.000000;0.950696
4443.000000;0.952328
4442.000000;0.954287
4441.000000;0.956648
4440.000000;0.958891
4439.000000;0.960505
4438.000000;0.961727
4437.000000;0.963289
4436.000000;0.965455
4435.000000;0.967748
4434.000000;0.969693
4433.000000;0.971462
4432.000000;0.973579
4431.000000;0.976212
4430.000000;0.978972
4429.000000;0.981309
4428.000000;0.983028
4427.000000;0.984465
4426.000000;0.986171
4425.000000;0.988389
4424.000000;0.990892
4423.000000;0.993392
4422.000000;0.995911
4421.000000;0.998579
4420.000000;1.001246
4419.000000;1.003602
4418.000000;1.005649
4417.000000;1.007777
4416.000000;1.010358
4415.000000;1.013404
4414.000000;1.016577
4413.000000;1.019381
4412.000000;1.021492
4411.000000;1.023116
4410.000000;1.024933
4409.000000;1.027445
4408.000000;1.030467
4407.000000;1.033476
4406.000000;1.036322
4405.000000;1.039271
4404.000000;1.042444
4403.000000;1.045570
4402.000000;1.048330
4401.000000;1.050687
4400.000000;1.052875
4399.000000;1.055250
4398.000000;1.058084
4397.000000;1.061282
4396.000000;1.064365
4395.000000;1.066946
4394.000000;1.069164
4393.000000;1.071459
4392.000000;1.074036
4391.000000;1.076838
4390.000000;1.079886
4389.000000;1.083309
4388.000000;1.087053
4387.000000;1.090835
4386.000000;1.094384
4385.000000;1.097563
4384.000000;1.100345
4383.000000;1.102883
4382.000000;1.105505
4381.000000;1.108427
4380.000000;1.111552
4379.000000;1.114687
4378.000000;1.117782
4377.000000;1.120826
4376.000000;1.123775
4375.000000;1.126802
4374.000000;1.130306
4373.000000;1.134363
4372.000000;1.138461
4371.000000;1.142093
4370.000000;1.145342
4369.000000;1.148552
4368.000000;1.151805
4367.000000;1.155134
4366.000000;1.158887
4365.000000;1.163315
4364.000000;1.168045
4363.000000;1.172446
4362.000000;1.176291
4361.000000;1.179655
4360.000000;1.182577
4359.000000;1.185440
4358.000000;1.189255
4357.000000;1.194661
4356.000000;1.200763
4355.000000;1.205783
4354.000000;1.209016
4353.000000;1.211466
4352.000000;1.214454
4351.000000;1.218291
4350.000000;1.222426
4349.000000;1.226342
4348.000000;1.230078
4347.000000;1.234116
4346.000000;1.238813
4345.000000;1.243774
4344.000000;1.248097
4343.000000;1.251556
4342.000000;1.255093
4341.000000;1.259547
4340.000000;1.264361
4339.000000;1.268301
4338.000000;1.271245
4337.000000;1.274342
4336.000000;1.278447
4335.000000;1.283222
4334.000000;1.287855
4333.000000;1.292006
4332.000000;1.295950
4331.000000;1.300297
4330.000000;1.305600
4329.000000;1.311741
4328.000000;1.317760
4327.000000;1.322823
4326.000000;1.327197
4325.000000;1.331706
4324.000000;1.336522
4323.000000;1.341259
4322.000000;1.346020
4321.000000;1.351451
4320.000000;1.357726
4319.000000;1.364205
4318.000000;1.370150
4317.000000;1.375248
4316.000000;1.379553
4315.000000;1.383549
4314.000000;1.388025
4313.000000;1.393179
4312.000000;1.398115
4311.000000;1.402083
4310.000000;1.405888
4309.000000;1.411054
4308.000000;1.417806
4307.000000;1.424930
4306.000000;1.431578
4305.000000;1.438013
4304.000000;1.444385
4303.000000;1.449994
4302.000000;1.454299
4301.000000;1.457914
4300.000000;1.462122
4299.000000;1.467665
4298.000000;1.474138
4297.000000;1.480213
4296.000000;1.484595
4295.000000;1.487377
4294.000000;1.490300
4293.000000;1.495123
4292.000000;1.501986
4291.000000;1.509802
4290.000000;1.517765
4289.000000;1.525627
4288.000000;1.532787
4287.000000;1.538252
4286.000000;1.541775
4285.000000;1.544474
4284.000000;1.548272
4283.000000;1.554847
4282.000000;1.564442
4281.000000;1.575092
4280.000000;1.583769
4279.000000;1.589196
4278.000000;1.592876
4277.000000;1.596699
4276.000000;1.600853
4275.000000;1.605005
4274.000000;1.610008
4273.000000;1.616749
4272.000000;1.624326
4271.000000;1.631161
4270.000000;1.637162
4269.000000;1.643013
4268.000000;1.648189
4267.000000;1.651936
4266.000000;1.655676
4265.000000;1.661996
4264.000000;1.671332
4263.000000;1.681676
4262.000000;1.691562
4261.000000;1.701321
4260.000000;1.710949
4259.000000;1.718766
4258.000000;1.723580
4257.000000;1.727305
4256.000000;1.733666
4255.000000;1.744164
4254.000000;1.756009
4253.000000;1.764012
4252.000000;1.765613
4251.000000;1.764502
4250.000000;1.767126
4249.000000;1.775761
4248.000000;1.786630
4247.000000;1.795323
4246.000000;1.802521
4245.000000;1.811425
4244.000000;1.821831
4243.000000;1.830020
4242.000000;1.834028
4241.000000;1.836305
4240.000000;1.840714
4239.000000;1.848825
4238.000000;1.858673
4237.000000;1.865842
4236.000000;1.867384
4235.000000;1.866102
4234.000000;1.868849
4233.000000;1.879437
4232.000000;1.894765
4231.000000;1.908733
4230.000000;1.918583
4229.000000;1.925652
4228.000000;1.932435
4227.000000;1.941527
4226.000000;1.954582
4225.000000;1.969201
4224.000000;1.979320
4223.000000;1.982761
4222.000000;1.985470
4221.000000;1.993813
4220.000000;2.006336
4219.000000;2.017231
4218.000000;2.025262
4217.000000;2.033527
4216.000000;2.042121
4215.000000;2.047509
4214.000000;2.048594
4213.000000;2.048466
4212.000000;2.050648
4211.000000;2.057469
4210.000000;2.069508
4209.000000;2.082112
4208.000000;2.086221
4207.000000;2.079590
4206.000000;2.073107
4205.000000;2.078965
4204.000000;2.097190
4203.000000;2.116694
4202.000000;2.127859
4201.000000;2.131472
4200.000000;2.133714
4199.000000;2.138546
4198.000000;2.146782
4197.000000;2.156979
4196.000000;2.167867
4195.000000;2.182712
4194.000000;2.207129
4193.000000;2.238988
4192.000000;2.263903
4191.000000;2.270133
4190.000000;2.265060
4189.000000;2.262162
4188.000000;2.262626
4187.000000;2.259366
4186.000000;2.252724
4185.000000;2.252209
4184.000000;2.262614
4183.000000;2.278697
4182.000000;2.294169
4181.000000;2.308031
4180.000000;2.318910
4179.000000;2.323022
4178.000000;2.321966
4177.000000;2.323632
4176.000000;2.334059
4175.000000;2.353352
4174.000000;2.378026
4173.000000;2.402403
4172.000000;2.417998
4171.000000;2.418380
4170.000000;2.408169
4169.000000;2.399005
4168.000000;2.398311
4167.000000;2.408520
4166.000000;2.428181
4165.000000;2.448004
4164.000000;2.454561
4163.000000;2.446905
4162.000000;2.440354
4161.000000;2.442306
4160.000000;2.439352
4159.000000;2.429259
4158.000000;2.436850
4157.000000;2.475496
4156.000000;2.523453
4155.000000;2.539786
4154.000000;2.510488
4153.000000;2.470417
4152.000000;2.455751
4151.000000;2.474996
4150.000000;2.515766
4149.000000;2.546388
4148.000000;2.544209
4147.000000;2.529176
4146.000000;2.539745
4145.000000;2.594142
4144.000000;2.657479
4143.000000;2.661242
4142.000000;2.627868
4141.000000;2.627227
4140.000000;2.672859
4139.000000;2.720028
4138.000000;2.712189
4137.000000;2.659655
4136.000000;2.609304
4135.000000;2.585677
4134.000000;2.588935
4133.000000;2.602079
4132.000000;2.607224
4131.000000;2.604363
4130.000000;2.607809
4129.000000;2.623712
4128.000000;2.636952
4127.000000;2.635605
4126.000000;2.635331
4125.000000;2.657961
4124.000000;2.705041
4123.000000;2.759312
4122.000000;2.807005
4121.000000;2.836808
4120.000000;2.842748
4119.000000;2.848335
4118.000000;2.882636
4117.000000;2.937550
4116.000000;2.951026
4115.000000;2.890087
4114.000000;2.823062
4113.000000;2.810860
4112.000000;2.843329
4111.000000;2.841062
4110.000000;2.772267
4109.000000;2.711781
4108.000000;2.699599
4107.000000;2.732643
4106.000000;2.792535
4105.000000;2.846021
4104.000000;2.849336
4103.000000;2.828486
4102.000000;2.848137
4101.000000;2.912698
4100.000000;2.938797
4099.000000;2.878847
4098.000000;2.823015
4097.000000;2.835080
4096.000000;2.903380
4095.000000;2.924433
4094.000000;2.859416
4093.000000;2.826108
4092.000000;2.862006
4091.000000;2.914415
4090.000000;2.924009
4089.000000;2.894697
4088.000000;2.843426
4087.000000;2.804236
4086.000000;2.828826
4085.000000;2.945635
4084.000000;3.074258
4083.000000;3.013619
4082.000000;2.883838
4081.000000;2.833642
4080.000000;2.886540
4079.000000;3.022309
4078.000000;3.132684
4077.000000;3.143117
4076.000000;3.151715
4075.000000;3.064317
4074.000000;2.946728
4073.000000;2.900423
4072.000000;2.838732
4071.000000;2.756927
4070.000000;2.729638
4069.000000;2.770482
4068.000000;2.844350
4067.000000;2.946758
4066.000000;3.037830
4065.000000;2.960241
4064.000000;2.858274
4063.000000;2.831336
4062.000000;2.889162
4061.000000;3.008980
4060.000000;3.074973
4059.000000;3.042063
4058.000000;2.990588
4057.000000;2.983293
4056.000000;2.989067
4055.000000;2.900862
4054.000000;2.781770
4053.000000;2.759608
4052.000000;2.842014
4051.000000;2.946973
4050.000000;3.004512
4049.000000;3.033790
4048.000000;3.053295
4047.000000;3.192043
4046.000000;3.203981
4045.000000;2.954033
4044.000000;2.835709
4043.000000;2.851618
4042.000000;2.930013
4041.000000;2.952730
4040.000000;2.944887
4039.000000;2.921256
4038.000000;2.866144
4037.000000;2.899751
4036.000000;3.005906
4035.000000;2.930768
4034.000000;2.841428
4033.000000;2.882783
4032.000000;3.057820
4031.000000;3.284447
4030.000000;3.305688
4029.000000;3.169224
4028.000000;3.111340
4027.000000;3.171060
4026.000000;3.445483
4025.000000;3.382075
4024.000000;3.023995
4023.000000;2.920556
4022.000000;2.930383
4021.000000;3.063347
4020.000000;3.329247
4019.000000;3.420458
4018.000000;3.067876
4017.000000;2.858738
4016.000000;2.841903
4015.000000;2.985528
4014.000000;3.164824
4013.000000;3.167508
4012.000000;3.448913
4011.000000;3.248395
4010.000000;2.924604
4009.000000;2.851215
4008.000000;2.860327
4007.000000;2.834153
4006.000000;2.830237
4005.000000;2.902832
4004.000000;3.009336
4003.000000;3.091502
4002.000000;3.168536
4001.000000;3.241436
4000.000000;3.205143
3999.000000;3.027401
3998.000000;2.869309
3997.000000;2.817481
3996.000000;2.856527
3995.000000;2.912840
3994.000000;2.940692
3993.000000;2.995919
3992.000000;3.101596
3991.000000;3.179176
3990.000000;3.191349
3989.000000;3.174783
3988.000000;3.104290
3987.000000;2.986441
3986.000000;2.891531
3985.000000;2.883608
3984.000000;2.954478
3983.000000;2.980218
3982.000000;2.880751
3981.000000;2.773950
3980.000000;2.746529
3979.000000;2.822300
3978.000000;3.016437
3977.000000;3.378876
3976.000000;3.996169
3975.000000;3.750483
3974.000000;3.455422
3973.000000;3.348871
3972.000000;3.664239
3971.000000;3.600244
3970.000000;3.122521
3969.000000;3.119052
3968.000000;3.310169
3967.000000;3.480785
3966.000000;3.406548
3965.000000;3.562998
3964.000000;3.568180
3963.000000;3.437115
3962.000000;3.473163
3961.000000;3.442730
3960.000000;3.277978
3959.000000;3.113020
3958.000000;3.017197
3957.000000;2.976929
3956.000000;2.930701
3955.000000;2.893829
3954.000000;2.963516
3953.000000;3.333660
3952.000000;3.381232
3951.000000;3.016273
3950.000000;3.020110
3949.000000;3.022193
3948.000000;2.974354
3947.000000;2.961766
3946.000000;3.031672
3945.000000;3.172171
3944.000000;3.217241
3943.000000;3.479803
3942.000000;3.754903
3941.000000;3.366285
3940.000000;3.313911
3939.000000;3.683950
3938.000000;3.813721
3937.000000;3.801212
3936.000000;3.706871
3935.000000;3.471470
3934.000000;3.648826
3933.000000;3.596517
3932.000000;3.362875
3931.000000;3.221309
3930.000000;3.158439
3929.000000;3.152808
3928.000000;3.079697
3927.000000;3.048069
3926.000000;3.134682
3925.000000;3.046893
3924.000000;2.994429
3923.000000;3.015294
3922.000000;2.964546
3921.000000;2.882082
3920.000000;2.921360
3919.000000;3.088055
3918.000000;3.217916
3917.000000;3.242704
3916.000000;3.175987
3915.000000;3.025394
3914.000000;2.925680
3913.000000;2.921165
3912.000000;3.073861
3911.000000;3.152934
3910.000000;3.072129
3909.000000;3.443385
3908.000000;3.381527
3907.000000;3.302257
3906.000000;3.381766
3905.000000;2.981334
3904.000000;2.919906
3903.000000;3.122982
3902.000000;3.238388
3901.000000;3.082890
3900.000000;3.108893
3899.000000;3.328560
3898.000000;3.427943
3897.000000;3.317351
3896.000000;3.070407
3895.000000;2.820981
3894.000000;2.847589
3893.000000;3.181531
3892.000000;2.879117
3891.000000;2.586876
3890.000000;2.594024
3889.000000;2.602202
3888.000000;2.501560
3887.000000;2.468767
3886.000000;2.553885
3885.000000;2.624803
3884.000000;2.624111
3883.000000;2.619248
3882.000000;2.709464
3881.000000;2.979785
3880.000000;2.982778
3879.000000;2.780594
3878.000000;2.634522
3877.000000;2.589342
3876.000000;2.703200
3875.000000;2.866033
3874.000000;2.614229
3873.000000;2.517352
3872.000000;2.707948
3871.000000;3.216848
3870.000000;2.864841
3869.000000;3.089501
3868.000000;2.938460
3867.000000;2.495867
3866.000000;2.402878
3865.000000;2.392253
3864.000000;2.320220
3863.000000;2.270912
3862.000000;2.361447
3861.000000;2.644428
3860.000000;3.071773
3859.000000;3.566759
3858.000000;3.606042
3857.000000;3.053176
3856.000000;3.020384
3855.000000;2.956129
3854.000000;2.534279
3853.000000;2.391148
3852.000000;2.598132
3851.000000;3.391527
3850.000000;2.991687
3849.000000;3.042832
3848.000000;3.548162
3847.000000;3.161427
3846.000000;2.857409
3845.000000;2.697886
3844.000000;2.699321
3843.000000;2.865208
3842.000000;3.301978
3841.000000;3.301438
3840.000000;2.854698
3839.000000;2.719916
3838.000000;2.657771
3837.000000;2.652560
3836.000000;2.710533
3835.000000;2.858996
3834.000000;3.117531
3833.000000;3.057110
3832.000000;2.816826
3831.000000;2.781077
3830.000000;2.796743
3829.000000;2.649925
3828.000000;2.563717
3827.000000;2.631906
3826.000000;2.722970
3825.000000;2.820568
3824.000000;3.194422
3823.000000;3.127701
3822.000000;2.951303
3821.000000;3.052560
3820.000000;3.381212
3819.000000;3.652257
3818.000000;3.517941
3817.000000;3.173816
3816.000000;2.992831
3815.000000;2.920547
3814.000000;2.799664
3813.000000;2.669608
3812.000000;2.614632
3811.000000;2.619671
3810.000000;2.619166
3809.000000;2.870364
3808.000000;3.113532
3807.000000;2.615684
3806.000000;2.477331
3805.000000;2.510704
3804.000000;2.467672
3803.000000;2.386782
3802.000000;2.432001
3801.000000;2.623847
3800.000000;2.938489
3799.000000;3.143016
3798.000000;2.929475
3797.000000;2.825517
3796.000000;2.769626
3795.000000;2.459383
3794.000000;2.397030
3793.000000;2.239438
3792.000000;2.297600
3791.000000;2.465937
3790.000000;2.868208
3789.000000;3.209786
3788.000000;2.704369
3787.000000;2.991512
3786.000000;2.980511
3785.000000;2.560319
3784.000000;2.756466
3783.000000;2.720722
3782.000000;2.319460
3781.000000;2.168662
3780.000000;2.369328
3779.000000;2.654252
3778.000000;2.297727
3777.000000;2.508034
3776.000000;3.053254
3775.000000;2.747116
3774.000000;2.789617
3773.000000;2.964912
3772.000000;2.424370
3771.000000;2.236532
3770.000000;2.689679
3769.000000;2.162508
3768.000000;1.930552
3767.000000;2.013572
3766.000000;2.162071
3765.000000;2.216844
3764.000000;2.243060
3763.000000;2.287390
3762.000000;2.432671
3761.000000;3.139833
3760.000000;3.267339
3759.000000;3.224339
3758.000000;2.825942
3757.000000;2.564885
3756.000000;2.394355
3755.000000;2.329275
3754.000000;2.352139
3753.000000;2.429715
3752.000000;2.542342
3751.000000;2.744973
3750.000000;3.155039
3749.000000;3.048508
3748.000000;2.928671
3747.000000;3.477261
3746.000000;3.245340
3745.000000;2.931776
3744.000000;2.902415
3743.000000;2.996544
3742.000000;2.903000
3741.000000;2.773796
3740.000000;2.725172
3739.000000;2.507451
3738.000000;2.580912
3737.000000;2.429377
3736.000000;2.277812
3735.000000;2.208043
3734.000000;2.154883
3733.000000;2.147778
3732.000000;2.393029
3731.000000;2.675838
3730.000000;2.333500
3729.000000;2.416968
3728.000000;2.746423
3727.000000;2.799944
3726.000000;2.644661
3725.000000;2.605554
3724.000000;2.602100
3723.000000;2.730310
3722.000000;2.854783
3721.000000;2.602400
3720.000000;2.484006
3719.000000;2.507591
3718.000000;2.536208
3717.000000;2.590656
3716.000000;2.712076
3715.000000;2.991377
3714.000000;2.766912
3713.000000;2.316670
3712.000000;2.005955
3711.000000;1.830898
3710.000000;1.775170
3709.000000;1.834089
3708.000000;2.161152
3707.000000;2.585265
3706.000000;2.397383
3705.000000;2.738637
3704.000000;3.160142
3703.000000;2.600739
3702.000000;2.975126
3701.000000;2.881918
3700.000000;2.763087
3699.000000;2.750482
3698.000000;2.506347
3697.000000;2.317632
3696.000000;2.306760
3695.000000;2.591292
3694.000000;2.997061
3693.000000;2.625759
3692.000000;2.740434
3691.000000;2.640446
3690.000000;2.339392
3689.000000;2.356990
3688.000000;2.405777
3687.000000;2.169498
3686.000000;2.089691
3685.000000;2.190426
3684.000000;2.326062
3683.000000;2.284201
3682.000000;2.296174
3681.000000;2.465976
3680.000000;2.618411
3679.000000;2.610215
3678.000000;2.785275
3677.000000;2.788803
3676.000000;2.479216
3675.000000;2.290842
3674.000000;2.201241
3673.000000;2.232089
3672.000000;2.353515
3671.000000;2.411927
3670.000000;2.438784
3669.000000;2.631284
3668.000000;2.840773
3667.000000;3.143919
3666.000000;3.186503
3665.000000;2.549504
3664.000000;2.452596
3663.000000;2.680837
3662.000000;2.653709
3661.000000;2.294954
3660.000000;2.218747
3659.000000;2.369815
3658.000000;2.224242
3657.000000;1.933312
3656.000000;1.959288
3655.000000;2.564561
3654.000000;2.477436
3653.000000;2.232952
3652.000000;2.289430
3651.000000;2.615265
3650.000000;3.268912
3649.000000;2.801366
3648.000000;2.280619
3647.000000;2.122820
3646.000000;2.071379
3645.000000;2.036307
3644.000000;2.026243
3643.000000;2.056909
3642.000000;2.090107
3641.000000;2.124516
3640.000000;2.196623
3639.000000;2.359086
3638.000000;2.529275
3637.000000;2.442651
3636.000000;2.247710
3635.000000;2.125686
3634.000000;2.079367
3633.000000;2.048288
3632.000000;1.945611
3631.000000;1.833438
3630.000000;1.805437
3629.000000;1.908342
3628.000000;2.134344
3627.000000;2.386007
3626.000000;2.535867
3625.000000;2.532178
3624.000000;2.353824
3623.000000;2.179049
3622.000000;2.110127
3621.000000;2.144089
3620.000000;2.232334
3619.000000;2.206304
3618.000000;2.042801
3617.000000;1.923019
3616.000000;1.921700
3615.000000;2.025158
3614.000000;2.137629
3613.000000;2.173803
3612.000000;2.159673
3611.000000;2.209050
3610.000000;2.275234
3609.000000;2.262289
3608.000000;2.258172
3607.000000;2.286907
3606.000000;2.259309
3605.000000;2.138823
3604.000000;2.077108
3603.000000;2.166649
3602.000000;2.489247
3601.000000;2.634913
3600.000000;2.555494
3599.000000;2.852068
3598.000000;2.395550
3597.000000;2.192641
3596.000000;2.126927
3595.000000;2.081016
3594.000000;2.067247
3593.000000;2.092696
3592.000000;2.134419
3591.000000;2.124315
3590.000000;2.010041
3589.000000;1.949340
3588.000000;2.030392
3587.000000;2.183313
3586.000000;2.316164
3585.000000;2.375382
3584.000000;2.281161
3583.000000;2.075862
3582.000000;1.971308
3581.000000;2.046249
3580.000000;2.263234
3579.000000;2.415477
3578.000000;2.291013
3577.000000;2.181492
3576.000000;2.162698
3575.000000;2.130674
3574.000000;2.111943
3573.000000;2.194725
3572.000000;2.206892
3571.000000;2.120723
3570.000000;2.129620
3569.000000;2.178504
3568.000000;2.209568
3567.000000;2.265984
3566.000000;2.333855
3565.000000;2.385299
3564.000000;2.480973
3563.000000;2.336429
3562.000000;2.124932
3561.000000;2.165078
3560.000000;2.284592
3559.000000;2.257251
3558.000000;2.110493
3557.000000;1.978258
3556.000000;1.964370
3555.000000;2.173671
3554.000000;2.271799
3553.000000;2.060333
3552.000000;2.031096
3551.000000;2.143030
3550.000000;2.219581
3549.000000;2.169805
3548.000000;2.184611
3547.000000;2.299712
3546.000000;2.464364
3545.000000;2.598668
3544.000000;2.613566
3543.000000;2.564033
3542.000000;2.598089
3541.000000;2.763632
3540.000000;2.839341
3539.000000;2.629912
3538.000000;2.400588
3537.000000;2.224921
3536.000000;2.134170
3535.000000;2.133982
3534.000000;2.279112
3533.000000;2.388487
3532.000000;2.125384
3531.000000;1.969353
3530.000000;1.983417
3529.000000;2.116201
3528.000000;2.318641
3527.000000;2.307370
3526.000000;2.210017
3525.000000;2.213527
3524.000000;2.311821
3523.000000;2.438057
3522.000000;2.414644
3521.000000;2.162712
3520.000000;1.922787
3519.000000;1.822122
3518.000000;1.865935
3517.000000;2.036921
3516.000000;2.178865
3515.000000;2.090116
3514.000000;2.041747
3513.000000;2.122414
3512.000000;2.289913
3511.000000;2.654156
3510.000000;2.580759
3509.000000;2.281809
3508.000000;2.296726
3507.000000;2.509666
3506.000000;2.340199
3505.000000;2.198237
3504.000000;2.297260
3503.000000;2.308856
3502.000000;2.215787
3501.000000;2.131920
3500.000000;2.075422
3499.000000;2.078834
3498.000000;2.180037
3497.000000;2.168001
3496.000000;2.035166
3495.000000;2.059119
3494.000000;2.144897
3493.000000;2.212230
3492.000000;2.407031
3491.000000;2.277527
3490.000000;2.045671
3489.000000;2.047787
3488.000000;2.372023
3487.000000;2.709369
3486.000000;2.528162
3485.000000;2.830081
3484.000000;2.626063
3483.000000;2.724891
3482.000000;2.644161
3481.000000;2.663293
3480.000000;2.700283
3479.000000;2.214915
3478.000000;2.047590
3477.000000;2.151279
3476.000000;2.385030
3475.000000;2.188145
3474.000000;2.049992
3473.000000;2.031961
3472.000000;2.067940
3471.000000;2.185580
3470.000000;2.330325
3469.000000;2.345696
3468.000000;2.237662
3467.000000;2.153297
3466.000000;2.114445
3465.000000;2.103966
3464.000000;2.130344
3463.000000;2.189042
3462.000000;2.188867
3461.000000;2.085152
3460.000000;1.995384
3459.000000;1.969934
3458.000000;1.990106
3457.000000;2.039891
3456.000000;2.172936
3455.000000;2.390994
3454.000000;2.301928
3453.000000;2.185315
3452.000000;2.240827
3451.000000;2.269501
3450.000000;2.188774
3449.000000;2.062197
3448.000000;1.941453
3447.000000;1.866355
3446.000000;1.841553
3445.000000;1.878723
3444.000000;2.006658
3443.000000;2.307320
3442.000000;2.937128
3441.000000;2.608305
3440.000000;2.376171
3439.000000;2.292707
3438.000000;2.301487
3437.000000;2.348247
3436.000000;2.370871
3435.000000;2.413191
3434.000000;2.578845
3433.000000;2.603533
3432.000000;2.454553
3431.000000;2.495783
3430.000000;2.395749
3429.000000;2.234768
3428.000000;2.315537
3427.000000;2.499759
3426.000000;2.326836
3425.000000;2.278102
3424.000000;2.601881
3423.000000;3.186888
3422.000000;2.979357
3421.000000;3.514146
3420.000000;2.794628
3419.000000;2.493807
3418.000000;2.351421
3417.000000;2.214189
3416.000000;2.148011
3415.000000;2.206064
3414.000000;2.350125
3413.000000;2.268247
3412.000000;2.126549
3411.000000;2.131421
3410.000000;2.396390
3409.000000;2.518065
3408.000000;2.182042
3407.000000;2.278853
3406.000000;2.308684
3405.000000;2.035352
3404.000000;1.973089
3403.000000;2.142193
3402.000000;2.418036
3401.000000;2.388058
3400.000000;2.743056
3399.000000;2.429337
3398.000000;2.048634
3397.000000;1.996492
3396.000000;2.046726
3395.000000;2.085040
3394.000000;2.087183
3393.000000;2.195511
3392.000000;2.506542
3391.000000;2.447385
3390.000000;2.268189
3389.000000;2.320146
3388.000000;2.588402
3387.000000;2.959473
3386.000000;2.947274
3385.000000;2.645350
3384.000000;2.429180
3383.000000;2.415727
3382.000000;2.552330
3381.000000;2.635282
3380.000000;2.523629
3379.000000;2.423437
3378.000000;2.418665
3377.000000;2.959735
3376.000000;2.810602
3375.000000;2.235355
3374.000000;2.112382
3373.000000;2.115567
3372.000000;2.285602
3371.000000;2.722217
3370.000000;2.494584
3369.000000;2.235191
3368.000000;2.180964
3367.000000;2.205008
3366.000000;2.229314
3365.000000;2.147666
3364.000000;2.114077
3363.000000;2.217723
3362.000000;2.498806
3361.000000;2.839185
3360.000000;2.510507
3359.000000;2.255023
3358.000000;2.114912
3357.000000;2.061092
3356.000000;2.063621
3355.000000;2.080759
3354.000000;2.080162
3353.000000;2.076133
3352.000000;2.131725
3351.000000;2.309161
3350.000000;2.526076
3349.000000;2.447449
3348.000000;2.293691
3347.000000;2.188033
3346.000000;2.139976
3345.000000;2.197199
3344.000000;2.446021
3343.000000;3.204642
3342.000000;2.952504
3341.000000;2.821306
3340.000000;2.557846
3339.000000;2.425591
3338.000000;2.561383
3337.000000;2.444019
3336.000000;2.269984
3335.000000;2.302041
3334.000000;2.547091
3333.000000;2.679794
3332.000000;2.754347
3331.000000;2.790285
3330.000000;2.287017
3329.000000;2.135991
3328.000000;2.185486
3327.000000;2.355415
3326.000000;2.319773
3325.000000;2.172461
3324.000000;2.186955
3323.000000;2.358824
3322.000000;2.618171
3321.000000;2.666215
3320.000000;2.499396
3319.000000;2.309828
3318.000000;2.298418
3317.000000;2.360231
3316.000000;2.181468
3315.000000;2.083347
3314.000000;2.195448
3313.000000;2.536205
3312.000000;2.889803
3311.000000;2.911376
3310.000000;2.654939
3309.000000;2.403159
3308.000000;2.286811
3307.000000;2.265908
3306.000000;2.315704
3305.000000;2.312211
3304.000000;2.212280
3303.000000;2.197963
3302.000000;2.324282
3301.000000;2.543831
3300.000000;2.647855
3299.000000;2.646403
3298.000000;3.047070
3297.000000;2.768268
3296.000000;2.284788
3295.000000;2.176853
3294.000000;2.233147
3293.000000;2.373486
3292.000000;2.337463
3291.000000;2.250687
3290.000000;2.231015
3289.000000;2.303127
3288.000000;2.774718
3287.000000;2.554956
3286.000000;2.183623
3285.000000;2.038338
3284.000000;1.976068
3283.000000;2.011393
3282.000000;2.081679
3281.000000;2.070213
3280.000000;2.071406
3279.000000;2.252581
3278.000000;2.696682
3277.000000;2.704331
3276.000000;2.467975
3275.000000;2.289764
3274.000000;2.213583
3273.000000;2.315609
3272.000000;2.373924
3271.000000;2.333834
3270.000000;2.778443
3269.000000;2.690449
3268.000000;2.245853
3267.000000;2.307357
3266.000000;2.659589
3265.000000;2.889763
3264.000000;2.646135
3263.000000;2.423001
3262.000000;2.298787
3261.000000;2.324628
3260.000000;2.315658
3259.000000;2.207646
3258.000000;2.199363
3257.000000;2.349538
3256.000000;2.740177
3255.000000;3.329248
3254.000000;2.969068
3253.000000;2.672517
3252.000000;2.410873
3251.000000;2.316699
3250.000000;2.387199
3249.000000;2.419934
3248.000000;2.269460
3247.000000;2.202527
3246.000000;2.268055
3245.000000;2.510376
3244.000000;3.023025
3243.000000;3.005317
3242.000000;2.795381
3241.000000;2.526339
3240.000000;2.329545
3239.000000;2.319062
3238.000000;2.327198
3237.000000;2.260908
3236.000000;2.186761
3235.000000;2.173509
3234.000000;2.230462
3233.000000;2.292157
3232.000000;2.260750
3231.000000;2.163063
3230.000000;2.076980
3229.000000;2.043507
3228.000000;2.085864
3227.000000;2.181333
3226.000000;2.237606
3225.000000;2.265088
3224.000000;2.372813
3223.000000;2.606822
3222.000000;2.817984
3221.000000;2.709941
3220.000000;2.586253
3219.000000;2.583288
3218.000000;2.714939
3217.000000;2.610510
3216.000000;2.311280
3215.000000;2.171795
3214.000000;2.160570
3213.000000;2.225541
3212.000000;2.309615
3211.000000;2.393914
3210.000000;2.468064
3209.000000;2.469195
3208.000000;2.353159
3207.000000;2.186727
3206.000000;2.087839
3205.000000;2.095931
3204.000000;2.169403
3203.000000;2.203279
3202.000000;2.203973
3201.000000;2.221574
3200.000000;2.193319
3199.000000;2.115170
3198.000000;2.080865
3197.000000;2.172882
3196.000000;2.370117
3195.000000;2.236783
3194.000000;2.006310
3193.000000;1.948269
3192.000000;2.016509
3191.000000;2.181597
3190.000000;2.293651
3189.000000;2.226705
3188.000000;2.148397
3187.000000;2.113765
3186.000000;2.099293
3185.000000;2.055988
3184.000000;1.986989
3183.000000;1.955486
3182.000000;2.010566
3181.000000;2.189060
3180.000000;2.385078
3179.000000;2.334762
3178.000000;2.405673
3177.000000;2.627195
3176.000000;2.398595
3175.000000;2.321517
3174.000000;2.381979
3173.000000;2.361284
3172.000000;2.371023
3171.000000;2.551769
3170.000000;2.854504
3169.000000;3.115764
3168.000000;3.060908
3167.000000;2.639661
3166.000000;2.631484
3165.000000;2.715701
3164.000000;2.424162
3163.000000;2.230674
3162.000000;2.262116
3161.000000;2.309239
3160.000000;2.162881
3159.000000;2.095016
3158.000000;2.206007
3157.000000;2.378398
3156.000000;2.464977
3155.000000;2.412385
3154.000000;2.197070
3153.000000;2.076594
3152.000000;2.170748
3151.000000;2.352888
3150.000000;2.220462
3149.000000;2.218151
3148.000000;2.563707
3147.000000;2.913774
3146.000000;2.660101
3145.000000;2.310016
3144.000000;2.070818
3143.000000;2.036731
3142.000000;2.167523
3141.000000;2.327926
3140.000000;2.361996
3139.000000;2.551354
3138.000000;2.878157
3137.000000;2.565776
3136.000000;2.480225
3135.000000;2.778593
3134.000000;2.818006
3133.000000;2.533658
3132.000000;2.588556
3131.000000;2.658224
3130.000000;2.636122
3129.000000;3.219682
3128.000000;2.570451
3127.000000;2.194733
3126.000000;2.140926
3125.000000;2.256163
3124.000000;2.501315
3123.000000;2.475106
3122.000000;2.441475
3121.000000;2.576666
3120.000000;2.717013
3119.000000;2.697467
3118.000000;2.633600
3117.000000;2.597356
3116.000000;2.693029
3115.000000;2.830588
3114.000000;2.566849
3113.000000;2.399702
3112.000000;2.386716
3111.000000;2.279450
3110.000000;2.079195
3109.000000;1.974358
3108.000000;1.989008
3107.000000;2.101136
3106.000000;2.242718
3105.000000;2.318087
3104.000000;2.412002
3103.000000;2.727191
3102.000000;2.856432
3101.000000;2.603076
3100.000000;2.645547
3099.000000;2.810257
3098.000000;2.612871
3097.000000;2.497416
3096.000000;2.529319
3095.000000;2.527553
3094.000000;2.475563
3093.000000;2.556911
3092.000000;2.824952
3091.000000;2.931209
3090.000000;3.123048
3089.000000;2.989150
3088.000000;2.764326
3087.000000;2.810654
3086.000000;2.495024
3085.000000;2.308436
3084.000000;2.440375
3083.000000;2.964342
3082.000000;2.907300
3081.000000;2.999387
3080.000000;3.103139
3079.000000;2.652322
3078.000000;2.588030
3077.000000;2.335068
3076.000000;2.170500
3075.000000;2.216507
3074.000000;2.271597
3073.000000;2.149475
3072.000000;2.084322
3071.000000;2.180835
3070.000000;2.354274
3069.000000;2.429978
3068.000000;2.335844
3067.000000;2.202294
3066.000000;2.170796
3065.000000;2.225555
3064.000000;2.222838
3063.000000;2.166011
3062.000000;2.150043
3061.000000;2.184261
3060.000000;2.262860
3059.000000;2.425643
3058.000000;2.438270
3057.000000;2.224900
3056.000000;2.134637
3055.000000;2.202597
3054.000000;2.673676
3053.000000;2.988397
3052.000000;2.496375
3051.000000;2.506273
3050.000000;2.455466
3049.000000;2.321510
3048.000000;2.267002
3047.000000;2.307514
3046.000000;2.399933
3045.000000;2.429376
3044.000000;2.336320
3043.000000;2.205858
3042.000000;2.136646
3041.000000;2.149120
3040.000000;2.253172
3039.000000;2.392089
3038.000000;2.375028
3037.000000;2.297324
3036.000000;2.326570
3035.000000;2.507089
3034.000000;2.518029
3033.000000;2.309088
3032.000000;2.338335
3031.000000;2.720699
3030.000000;2.684304
3029.000000;2.456669
3028.000000;2.809404
3027.000000;2.498115
3026.000000;2.257507
3025.000000;2.673309
3024.000000;2.702535
3023.000000;2.344951
3022.000000;2.429161
3021.000000;2.581315
3020.000000;2.433680
3019.000000;2.398944
3018.000000;2.828940
3017.000000;2.745210
3016.000000;2.346557
3015.000000;2.259708
3014.000000;2.361231
3013.000000;2.614089
3012.000000;2.602967
3011.000000;2.541996
3010.000000;2.717773
3009.000000;3.235259
3008.000000;3.115646
3007.000000;2.466751
3006.000000;2.219627
3005.000000;2.178633
3004.000000;2.280859
3003.000000;2.427944
3002.000000;2.463460
3001.000000;2.415537
3000.000000;2.369805
2999.000000;2.302082
2998.000000;2.264186
2997.000000;2.342374
2996.000000;2.622350
2995.000000;3.435456
2994.000000;3.117524
2993.000000;2.555964
2992.000000;2.313136
2991.000000;2.217446
2990.000000;2.291311
2989.000000;2.386929
2988.000000;2.290115
2987.000000;2.249097
2986.000000;2.496112
2985.000000;2.985377
2984.000000;2.450440
2983.000000;2.282856
2982.000000;2.288185
2981.000000;2.312075
2980.000000;2.275762
2979.000000;2.181587
2978.000000;2.117281
2977.000000;2.086117
2976.000000;2.051787
2975.000000;2.014108
2974.000000;2.046400
2973.000000;2.173436
2972.000000;2.345372
2971.000000;2.456239
2970.000000;2.412874
2969.000000;2.372385
2968.000000;2.441296
2967.000000;2.417683
2966.000000;2.320443
2965.000000;2.374489
2964.000000;2.426264
2963.000000;2.500634
2962.000000;2.890017
2961.000000;2.475651
2960.000000;2.245888
2959.000000;2.299936
2958.000000;2.389796
2957.000000;2.362031
2956.000000;2.295891
2955.000000;2.219624
2954.000000;2.174137
2953.000000;2.205776
2952.000000;2.257435
2951.000000;2.305227
2950.000000;2.458513
2949.000000;2.604830
2948.000000;2.392326
2947.000000;2.197504
2946.000000;2.145683
2945.000000;2.216469
2944.000000;2.259725
2943.000000;2.203908
2942.000000;2.228468
2941.000000;2.362409
2940.000000;2.416158
2939.000000;2.255570
2938.000000;2.093093
2937.000000;2.079723
2936.000000;2.225854
2935.000000;2.265271
2934.000000;2.152941
2933.000000;2.224844
2932.000000;2.497780
2931.000000;2.406032
2930.000000;2.273813
2929.000000;2.387741
2928.000000;2.417079
2927.000000;2.226302
2926.000000;2.159250
2925.000000;2.224250
2924.000000;2.360989
2923.000000;2.434768
2922.000000;2.371890
2921.000000;2.266200
2920.000000;2.174193
2919.000000;2.143636
2918.000000;2.201654
2917.000000;2.429505
2916.000000;2.749602
2915.000000;2.833817
2914.000000;2.777907
2913.000000;2.461162
2912.000000;2.282254
2911.000000;2.310795
2910.000000;2.415783
2909.000000;2.405979
2908.000000;2.396823
2907.000000;2.675944
2906.000000;2.986616
2905.000000;2.921349
2904.000000;2.877607
2903.000000;2.349402
2902.000000;2.169656
2901.000000;2.229787
2900.000000;2.506545
2899.000000;2.748993
2898.000000;2.867984
2897.000000;3.109821
2896.000000;2.622555
2895.000000;2.570549
2894.000000;3.026671
2893.000000;2.947156
2892.000000;2.538588
2891.000000;2.532172
2890.000000;2.581154
2889.000000;2.669502
2888.000000;2.879351
2887.000000;2.688582
2886.000000;2.478748
2885.000000;2.516613
2884.000000;2.753898
2883.000000;2.640182
2882.000000;2.612189
2881.000000;2.727911
2880.000000;2.425303
2879.000000;2.315543
2878.000000;2.413478
2877.000000;2.572721
2876.000000;2.555896
2875.000000;2.353623
2874.000000;2.232382
2873.000000;2.345034
2872.000000;2.571615
2871.000000;2.321433
2870.000000;2.168086
2869.000000;2.254327
2868.000000;2.482764
2867.000000;2.396637
2866.000000;2.196730
2865.000000;2.159878
2864.000000;2.124102
2863.000000;2.031456
2862.000000;1.967685
2861.000000;1.983828
2860.000000;2.061323
2859.000000;2.134070
2858.000000;2.148438
2857.000000;2.150813
2856.000000;2.165138
2855.000000;2.091431
2854.000000;1.985006
2853.000000;1.961048
2852.000000;2.025046
2851.000000;2.097951
2850.000000;2.104666
2849.000000;2.118623
2848.000000;2.242208
2847.000000;2.425884
2846.000000;2.367142
2845.000000;2.271933
2844.000000;2.390682
2843.000000;2.556073
2842.000000;2.411960
2841.000000;2.361056
2840.000000;2.624531
2839.000000;3.049656
2838.000000;2.988930
2837.000000;2.631896
2836.000000;2.295149
2835.000000;2.175882
2834.000000;2.236901
2833.000000;2.284113
2832.000000;2.181447
2831.000000;2.124074
2830.000000;2.192277
2829.000000;2.374034
2828.000000;2.662239
2827.000000;2.902992
2826.000000;2.779293
2825.000000;2.557282
2824.000000;2.396033
2823.000000;2.318810
2822.000000;2.317853
2821.000000;2.309877
2820.000000;2.315261
2819.000000;2.398859
2818.000000;2.700528
2817.000000;3.181835
2816.000000;2.648460
2815.000000;2.394793
2814.000000;2.359589
2813.000000;2.437622
2812.000000;2.688390
2811.000000;2.815395
2810.000000;2.482068
2809.000000;2.287890
2808.000000;2.271805
2807.000000;2.398294
2806.000000;2.496540
2805.000000;2.398810
2804.000000;2.357813
2803.000000;2.422091
2802.000000;2.504935
2801.000000;2.542302
2800.000000;2.455947
2799.000000;2.292318
2798.000000;2.182370
2797.000000;2.172857
2796.000000;2.290230
2795.000000;2.530161
2794.000000;2.715617
2793.000000;2.823875
2792.000000;2.925197
2791.000000;2.896702
2790.000000;2.965074
2789.000000;3.131511
2788.000000;3.135852
2787.000000;2.867371
2786.000000;2.635334
2785.000000;2.532016
2784.000000;2.627967
2783.000000;2.775964
2782.000000;2.502408
2781.000000;2.279267
2780.000000;2.210790
2779.000000;2.227721
2778.000000;2.317313
2777.000000;2.542571
2776.000000;2.695338
2775.000000;2.481379
2774.000000;2.346771
2773.000000;2.211142
2772.000000;2.108163
2771.000000;2.141637
2770.000000;2.365042
2769.000000;2.626962
2768.000000;2.481296
2767.000000;2.452345
2766.000000;2.460006
2765.000000;2.314644
2764.000000;2.235436
2763.000000;2.400145
2762.000000;2.667940
2761.000000;2.425389
2760.000000;2.326393
2759.000000;2.458250
2758.000000;2.645836
2757.000000;2.602788
2756.000000;2.383807
2755.000000;2.258176
2754.000000;2.277488
2753.000000;2.382361
2752.000000;2.361594
2751.000000;2.350950
2750.000000;2.624274
2749.000000;2.621804
2748.000000;2.365794
2747.000000;2.432389
2746.000000;2.348602
2745.000000;2.078290
2744.000000;1.981445
2743.000000;2.028775
2742.000000;2.112135
2741.000000;2.103521
2740.000000;2.100524
2739.000000;2.201885
2738.000000;2.391808
2737.000000;2.559242
2736.000000;2.527923
2735.000000;2.419585
2734.000000;2.312685
2733.000000;2.206613
2732.000000;2.131166
2731.000000;2.091781
2730.000000;2.069429
2729.000000;2.065579
2728.000000;2.122244
2727.000000;2.238164
2726.000000;2.282126
2725.000000;2.274059
2724.000000;2.394540
2723.000000;2.728772
2722.000000;2.878393
2721.000000;2.835824
2720.000000;2.914384
2719.000000;2.693678
2718.000000;2.544215
2717.000000;2.665786
2716.000000;2.822607
2715.000000;2.539460
2714.000000;2.368501
2713.000000;2.335165
2712.000000;2.340959
2711.000000;2.339939
2710.000000;2.342927
2709.000000;2.400383
2708.000000;2.435690
2707.000000;2.394581
2706.000000;2.330222
2705.000000;2.324491
2704.000000;2.466317
2703.000000;2.411308
2702.000000;2.178979
2701.000000;2.111864
2700.000000;2.188311
2699.000000;2.341316
2698.000000;2.494204
2697.000000;2.687714
2696.000000;2.494280
2695.000000;2.284096
2694.000000;2.253677
2693.000000;2.420338
2692.000000;3.041657
2691.000000;2.726515
2690.000000;2.448227
2689.000000;2.484717
2688.000000;2.618394
2687.000000;2.745180
2686.000000;2.687430
2685.000000;2.596746
2684.000000;2.524699
2683.000000;2.487216
2682.000000;2.487911
2681.000000;2.484106
2680.000000;2.430227
2679.000000;2.374515
2678.000000;2.366592
2677.000000;2.351871
2676.000000;2.304241
2675.000000;2.311515
2674.000000;2.450797
2673.000000;2.856653
2672.000000;3.324667
2671.000000;2.858649
2670.000000;2.617791
2669.000000;2.576326
2668.000000;2.721084
2667.000000;2.934086
2666.000000;2.830007
2665.000000;2.821174
2664.000000;2.950146
2663.000000;2.738117
2662.000000;2.640560
2661.000000;2.795428
2660.000000;2.580135
2659.000000;2.287134
2658.000000;2.183392
2657.000000;2.156013
2656.000000;2.132007
2655.000000;2.132354
2654.000000;2.221202
2653.000000;2.305876
2652.000000;2.244473
2651.000000;2.239738
2650.000000;2.494162
2649.000000;2.759112
2648.000000;2.461687
2647.000000;2.254089
2646.000000;2.129163
2645.000000;2.072520
2644.000000;2.086543
2643.000000;2.113897
2642.000000;2.143187
2641.000000;2.207449
2640.000000;2.318790
2639.000000;2.411980
2638.000000;2.390025
2637.000000;2.306159
2636.000000;2.264867
2635.000000;2.265991
2634.000000;2.316711
2633.000000;2.421142
2632.000000;2.824308
2631.000000;3.698282
2630.000000;2.990546
2629.000000;2.750833
2628.000000;2.363743
2627.000000;2.188843
2626.000000;2.195871
2625.000000;2.352638
2624.000000;2.576468
2623.000000;2.496580
2622.000000;2.398177
2621.000000;2.445657
2620.000000;2.441400
2619.000000;2.326902
2618.000000;2.312546
2617.000000;2.557548
2616.000000;2.923176
2615.000000;2.672004
2614.000000;2.582791
2613.000000;2.833155
2612.000000;3.109281
2611.000000;2.562513
2610.000000;2.314406
2609.000000;2.261389
2608.000000;2.271790
2607.000000;2.312884
2606.000000;2.369649
2605.000000;2.522763
2604.000000;2.851820
2603.000000;2.737788
2602.000000;2.415471
2601.000000;2.418471
2600.000000;2.634115
2599.000000;2.524594
2598.000000;2.377244
2597.000000;2.533034
2596.000000;2.684156
2595.000000;2.506599
2594.000000;2.481949
2593.000000;2.683820
2592.000000;2.486492
2591.000000;2.219021
2590.000000;2.165339
2589.000000;2.209080
2588.000000;2.264900
2587.000000;2.286221
2586.000000;2.284185
2585.000000;2.263517
2584.000000;2.220794
2583.000000;2.217146
2582.000000;2.281288
2581.000000;2.266064
2580.000000;2.182625
2579.000000;2.218970
2578.000000;2.347833
2577.000000;2.392391
2576.000000;2.439450
2575.000000;2.822126
2574.000000;2.916222
2573.000000;2.617769
2572.000000;2.656896
2571.000000;2.417404
2570.000000;2.250736
2569.000000;2.298241
2568.000000;2.505452
2567.000000;2.844443
2566.000000;2.891672
2565.000000;2.644905
2564.000000;2.492303
2563.000000;2.486358
2562.000000;2.490818
2561.000000;2.427554
2560.000000;2.383994
2559.000000;2.378674
2558.000000;2.360334
2557.000000;2.326004
2556.000000;2.284783
2555.000000;2.277680
2554.000000;2.314847
2553.000000;2.524734
2552.000000;2.913108
2551.000000;2.646365
2550.000000;2.532250
2549.000000;2.766171
2548.000000;2.841494
2547.000000;2.600756
2546.000000;2.989839
2545.000000;3.202816
2544.000000;2.485257
2543.000000;2.356727
2542.000000;2.283261
2541.000000;2.269000
2540.000000;2.429163
2539.000000;2.604097
2538.000000;2.442318
2537.000000;2.367965
2536.000000;2.454139
2535.000000;2.407727
2534.000000;2.363684
2533.000000;2.440169
2532.000000;2.642747
2531.000000;3.076132
2530.000000;3.100624
2529.000000;2.851598
2528.000000;2.610190
2527.000000;2.347693
2526.000000;2.212651
2525.000000;2.171800
2524.000000;2.172083
2523.000000;2.172482
2522.000000;2.157590
2521.000000;2.143583
2520.000000;2.154793
2519.000000;2.214871
2518.000000;2.352927
2517.000000;2.552921
2516.000000;2.854280
2515.000000;3.139685
2514.000000;2.679277
2513.000000;2.477239
2512.000000;2.495156
2511.000000;2.402588
2510.000000;2.282667
2509.000000;2.320681
2508.000000;2.428759
2507.000000;2.390747
2506.000000;2.373152
2505.000000;2.430122
2504.000000;2.443678
2503.000000;2.438398
2502.000000;2.381118
2501.000000;2.292984
2500.000000;2.253683
2499.000000;2.282306
2498.000000;2.379689
2497.000000;2.461193
2496.000000;2.498033
2495.000000;2.541831
2494.000000;2.435589
2493.000000;2.289637
2492.000000;2.296814
2491.000000;2.424517
2490.000000;2.392332
2489.000000;2.273924
2488.000000;2.272166
2487.000000;2.342171
2486.000000;2.417164
2485.000000;2.403456
2484.000000;2.305785
2483.000000;2.272072
2482.000000;2.346638
2481.000000;2.377778
2480.000000;2.305551
2479.000000;2.311991
2478.000000;2.367686
2477.000000;2.300247
2476.000000;2.227907
2475.000000;2.243488
2474.000000;2.301336
2473.000000;2.333209
2472.000000;2.475059
2471.000000;2.574034
2470.000000;2.276564
2469.000000;2.116716
2468.000000;2.104273
2467.000000;2.179258
2466.000000;2.311877
2465.000000;2.454492
2464.000000;2.509679
2463.000000;2.405098
2462.000000;2.338470
2461.000000;2.332113
2460.000000;2.354389
2459.000000;2.400752
2458.000000;2.541199
2457.000000;2.843200
2456.000000;2.835025
2455.000000;2.677293
2454.000000;2.642657
2453.000000;2.558569
2452.000000;2.441053
2451.000000;2.352014
2450.000000;2.326338
2449.000000;2.351278
2448.000000;2.381182
2447.000000;2.390223
2446.000000;2.403915
2445.000000;2.453278
2444.000000;2.496704
2443.000000;2.500098
2442.000000;2.456952
2441.000000;2.369769
2440.000000;2.299574
2439.000000;2.294698
2438.000000;2.339798
2437.000000;2.311171
2436.000000;2.243731
2435.000000;2.264931
2434.000000;2.515990
2433.000000;2.978734
2432.000000;2.632849
2431.000000;2.440744
2430.000000;2.514023
2429.000000;2.642876
2428.000000;2.675838
2427.000000;2.585454
2426.000000;2.625176
2425.000000;3.027933
2424.000000;3.011330
2423.000000;2.598154
2422.000000;2.488975
2421.000000;2.465660
2420.000000;2.445974
2419.000000;2.488857
2418.000000;2.648361
2417.000000;2.857886
2416.000000;3.300933
2415.000000;3.567296
2414.000000;2.911376
2413.000000;2.746777
2412.000000;2.895141
2411.000000;2.735342
2410.000000;2.394380
2409.000000;2.296103
2408.000000;2.371283
2407.000000;2.926704
2406.000000;2.918897
2405.000000;2.541861
2404.000000;3.029226
2403.000000;2.776852
2402.000000;2.461598
2401.000000;2.473058
2400.000000;2.380377
2399.000000;2.282095
2398.000000;2.287998
2397.000000;2.417777
2396.000000;2.656912
2395.000000;2.886229
2394.000000;2.748578
2393.000000;2.505195
2392.000000;2.394279
2391.000000;2.440071
2390.000000;2.457722
2389.000000;2.319664
2388.000000;2.276218
2387.000000;2.395334
2386.000000;2.654870
2385.000000;3.093928
2384.000000;2.867493
2383.000000;2.424430
2382.000000;2.263565
2381.000000;2.253698
2380.000000;2.243405
2379.000000;2.224161
2378.000000;2.255920
2377.000000;2.475897
2376.000000;3.020501
2375.000000;3.064702
2374.000000;3.221036
2373.000000;2.677986
2372.000000;2.343560
2371.000000;2.493632
2370.000000;2.763513
2369.000000;2.442645
2368.000000;2.301866
2367.000000;2.347328
2366.000000;2.362550
2365.000000;2.311744
2364.000000;2.257160
2363.000000;2.262204
2362.000000;2.360309
2361.000000;2.507375
2360.000000;2.438073
2359.000000;2.333163
2358.000000;2.391310
2357.000000;2.651129
2356.000000;2.693909
2355.000000;2.451205
2354.000000;2.398649
2353.000000;2.409851
2352.000000;2.391315
2351.000000;2.396843
2350.000000;2.425224
2349.000000;2.467035
2348.000000;2.457748
2347.000000;2.435675
2346.000000;2.375258
2345.000000;2.416229
2344.000000;2.853992
2343.000000;2.597897
2342.000000;2.218496
2341.000000;2.133365
2340.000000;2.145174
2339.000000;2.227990
2338.000000;2.381388
2337.000000;2.529807
2336.000000;2.473825
2335.000000;2.585314
2334.000000;3.089719
2333.000000;2.954662
2332.000000;2.975444
2331.000000;2.965378
2330.000000;2.514742
2329.000000;2.374525
2328.000000;2.342817
2327.000000;2.254836
2326.000000;2.141082
2325.000000;2.120180
2324.000000;2.223246
2323.000000;2.378348
2322.000000;2.465399
2321.000000;2.369799
2320.000000;2.201819
2319.000000;2.087570
2318.000000;2.050475
2317.000000;2.125821
2316.000000;2.400910
2315.000000;2.644989
2314.000000;2.615909
2313.000000;2.518669
2312.000000;2.270758
2311.000000;2.182383
2310.000000;2.260722
2309.000000;2.458422
2308.000000;2.649404
2307.000000;2.599730
2306.000000;2.512477
2305.000000;2.464898
2304.000000;2.473695
2303.000000;2.482311
2302.000000;2.454256
2301.000000;2.433356
2300.000000;2.437200
2299.000000;2.491337
2298.000000;2.616357
2297.000000;2.783393
2296.000000;2.771137
2295.000000;2.566710
2294.000000;2.440424
2293.000000;2.438816
2292.000000;2.518763
2291.000000;2.649622
2290.000000;2.631759
2289.000000;2.399183
2288.000000;2.246713
2287.000000;2.264029
2286.000000;2.527160
2285.000000;2.615055
2284.000000;2.340438
2283.000000;2.374662
2282.000000;2.685591
2281.000000;2.714296
2280.000000;2.623383
2279.000000;2.837049
2278.000000;2.928225
2277.000000;2.912271
2276.000000;2.981101
2275.000000;2.852612
2274.000000;2.853874
2273.000000;2.898458
2272.000000;3.013822
2271.000000;3.362366
2270.000000;2.937396
2269.000000;2.565145
2268.000000;2.404013
2267.000000;2.292992
2266.000000;2.233658
2265.000000;2.265484
2264.000000;2.419094
2263.000000;2.657671
2262.000000;2.681088
2261.000000;2.458060
2260.000000;2.310358
2259.000000;2.302780
2258.000000;2.446849
2257.000000;2.613640
2256.000000;2.508638
2255.000000;2.392566
2254.000000;2.406320
2253.000000;2.518799
2252.000000;2.928360
2251.000000;3.506939
2250.000000;2.860772
2249.000000;2.690677
2248.000000;2.631464
2247.000000;2.550570
2246.000000;2.427946
2245.000000;2.339401
2244.000000;2.300429
2243.000000;2.279204
2242.000000;2.261473
2241.000000;2.312522
2240.000000;2.414048
2239.000000;2.658656
2238.000000;3.185615
2237.000000;2.735366
2236.000000;2.430629
2235.000000;2.504103
2234.000000;2.926646
2233.000000;2.537743
2232.000000;2.279957
2231.000000;2.334790
2230.000000;2.441114
2229.000000;2.436331
2228.000000;2.472989
2227.000000;2.562690
2226.000000;2.509664
2225.000000;2.540288
2224.000000;2.762605
2223.000000;2.872703
2222.000000;2.589973
2221.000000;2.375696
2220.000000;2.253238
2219.000000;2.180026
2218.000000;2.152863
2217.000000;2.191387
2216.000000;2.308871
2215.000000;2.435071
2214.000000;2.489688
2213.000000;2.455154
2212.000000;2.443540
2211.000000;2.396605
2210.000000;2.359717
2209.000000;2.324830
2208.000000;2.498175
2207.000000;3.172371
2206.000000;2.549870
2205.000000;2.324570
2204.000000;2.407680
2203.000000;2.544633
2202.000000;2.541131
2201.000000;2.409403
2200.000000;2.280677
2199.000000;2.185184
2198.000000;2.235242
2197.000000;2.358527
2196.000000;2.532503
2195.000000;2.671516
2194.000000;2.351113
2193.000000;2.132425
2192.000000;2.161263
2191.000000;2.240105
2190.000000;2.172454
2189.000000;2.132879
2188.000000;2.297558
2187.000000;2.591169
2186.000000;2.520688
2185.000000;2.420710
2184.000000;2.566580
2183.000000;3.012956
2182.000000;2.957436
2181.000000;2.704288
2180.000000;2.682878
2179.000000;2.655408
2178.000000;2.651576
2177.000000;2.785541
2176.000000;2.881679
2175.000000;2.521182
2174.000000;2.252573
2173.000000;2.159326
2172.000000;2.204333
2171.000000;2.431317
2170.000000;2.830602
2169.000000;2.689692
2168.000000;2.430376
2167.000000;2.416836
2166.000000;2.552701
2165.000000;2.525771
2164.000000;2.394106
2163.000000;2.430336
2162.000000;2.616884
2161.000000;2.811277
2160.000000;2.715324
2159.000000;2.526038
2158.000000;2.390801
2157.000000;2.316620
2156.000000;2.358672
2155.000000;2.496263
2154.000000;2.516053
2153.000000;2.559155
2152.000000;2.752086
2151.000000;2.698712
2150.000000;2.678473
2149.000000;2.585163
2148.000000;2.344863
2147.000000;2.240258
2146.000000;2.246579
2145.000000;2.357208
2144.000000;2.576643
2143.000000;2.573279
2142.000000;2.413304
2141.000000;2.449853
2140.000000;2.589967
2139.000000;2.888026
2138.000000;3.165313
2137.000000;2.638439
2136.000000;2.424922
2135.000000;2.463234
2134.000000;2.739526
2133.000000;3.108772
2132.000000;2.970962
2131.000000;2.699983
2130.000000;2.463843
2129.000000;2.360010
2128.000000;2.357921
2127.000000;2.377484
2126.000000;2.374093
2125.000000;2.356173
2124.000000;2.358419
2123.000000;2.400504
2122.000000;2.472014
2121.000000;2.528102
2120.000000;2.561830
2119.000000;2.604571
2118.000000;2.653299
2117.000000;2.699846
2116.000000;2.749262
2115.000000;2.783884
2114.000000;2.688432
2113.000000;2.546172
2112.000000;2.441408
2111.000000;2.570912
2110.000000;2.827349
2109.000000;2.476491
2108.000000;2.273969
2107.000000;2.358357
2106.000000;2.717312
2105.000000;2.602552
2104.000000;2.452182
2103.000000;2.827381
2102.000000;2.815851
2101.000000;2.464478
2100.000000;2.295746
2099.000000;2.132161
2098.000000;2.050057
2097.000000;2.071048
2096.000000;2.157056
2095.000000;2.246347
2094.000000;2.309214
2093.000000;2.421859
2092.000000;2.581314
2091.000000;2.570566
2090.000000;2.469620
2089.000000;2.535011
2088.000000;2.666809
2087.000000;2.584800
2086.000000;2.825125
2085.000000;2.902723
2084.000000;2.429588
2083.000000;2.324609
2082.000000;2.503446
2081.000000;3.100788
2080.000000;2.870190
2079.000000;2.627604
2078.000000;2.646465
2077.000000;2.558643
2076.000000;2.612099
2075.000000;2.635760
2074.000000;2.552366
2073.000000;2.655923
2072.000000;2.583659
2071.000000;2.323486
2070.000000;2.242237
2069.000000;2.320709
2068.000000;2.525427
2067.000000;2.640983
2066.000000;2.580630
2065.000000;2.797775
2064.000000;3.176760
2063.000000;2.705101
2062.000000;2.675246
2061.000000;3.048439
2060.000000;2.644650
2059.000000;2.373437
2058.000000;2.397020
2057.000000;2.402171
2056.000000;2.322120
2055.000000;2.353768
2054.000000;2.512583
2053.000000;2.544830
2052.000000;2.447861
2051.000000;2.481431
2050.000000;2.660824
2049.000000;2.898057
2048.000000;3.070880
2047.000000;2.920004
2046.000000;2.541807
2045.000000;2.333173
2044.000000;2.278659
2043.000000;2.421801
2042.000000;2.821815
2041.000000;2.717091
2040.000000;2.647039
2039.000000;3.028307
2038.000000;2.715945
2037.000000;2.376896
2036.000000;2.334765
2035.000000;2.430626
2034.000000;2.390269
2033.000000;2.250502
2032.000000;2.233995
2031.000000;2.334040
2030.000000;2.495536
2029.000000;2.552375
2028.000000;2.487529
2027.000000;2.391444
2026.000000;2.289515
2025.000000;2.251910
2024.000000;2.258784
2023.000000;2.262467
2022.000000;2.285636
2021.000000;2.327454
2020.000000;2.298378
2019.000000;2.253914
2018.000000;2.331427
2017.000000;2.525926
2016.000000;2.544662
2015.000000;2.571405
2014.000000;2.814327
2013.000000;2.783790
2012.000000;2.918837
2011.000000;2.984257
2010.000000;2.546459
2009.000000;2.417784
2008.000000;2.382723
2007.000000;2.381062
2006.000000;2.531561
2005.000000;2.683313
2004.000000;2.507572
2003.000000;2.416807
2002.000000;2.562132
2001.000000;2.585928
2000.000000;2.406902
1999.000000;2.367436
1998.000000;2.421894
1997.000000;2.407313
1996.000000;2.421914
1995.000000;2.665244
1994.000000;2.731329
1993.000000;2.503943
1992.000000;2.468248
1991.000000;2.417100
1990.000000;2.380414
1989.000000;2.667729
1988.000000;2.661814
1987.000000;2.257597
1986.000000;2.212100
1985.000000;2.536904
1984.000000;2.638669
1983.000000;2.247875
1982.000000;2.386304
1981.000000;2.759788
1980.000000;2.342547
1979.000000;2.172480
1978.000000;2.219904
1977.000000;2.336011
1976.000000;2.374501
1975.000000;2.449830
1974.000000;2.723271
1973.000000;2.667062
1972.000000;2.493324
1971.000000;2.627465
1970.000000;2.509832
1969.000000;2.197674
1968.000000;2.080530
1967.000000;2.148213
1966.000000;2.225460
1965.000000;2.115649
1964.000000;2.102263
1963.000000;2.271241
1962.000000;2.407342
1961.000000;2.325137
1960.000000;2.620894
1959.000000;3.149261
1958.000000;2.418925
1957.000000;2.351116
1956.000000;2.392236
1955.000000;2.362187
1954.000000;2.389051
1953.000000;2.787268
1952.000000;3.073267
1951.000000;2.447215
1950.000000;2.419100
1949.000000;2.833705
1948.000000;2.981191
1947.000000;2.585763
1946.000000;2.548958
1945.000000;2.547470
1944.000000;2.539175
1943.000000;2.766781
1942.000000;3.070827
1941.000000;2.578585
1940.000000;2.268356
1939.000000;2.146501
1938.000000;2.138862
1937.000000;2.227803
1936.000000;2.280563
1935.000000;2.261419
1934.000000;2.281931
1933.000000;2.464794
1932.000000;2.812503
1931.000000;2.707042
1930.000000;2.584114
1929.000000;2.712741
1928.000000;2.845267
1927.000000;2.715394
1926.000000;2.629838
1925.000000;2.648668
1924.000000;2.692454
1923.000000;3.322850
1922.000000;2.963127
1921.000000;2.448987
1920.000000;2.354252
1919.000000;2.487855
1918.000000;2.972281
1917.000000;2.836967
1916.000000;2.576518
1915.000000;2.796116
1914.000000;3.093004
1913.000000;2.521826
1912.000000;2.290463
1911.000000;2.306580
1910.000000;2.400476
1909.000000;2.405251
1908.000000;2.402433
1907.000000;2.504340
1906.000000;2.509423
1905.000000;2.525568
1904.000000;2.636662
1903.000000;2.493844
1902.000000;2.332532
1901.000000;2.344220
1900.000000;2.375490
1899.000000;2.293518
1898.000000;2.240810
1897.000000;2.522140
1896.000000;2.880733
1895.000000;2.543036
1894.000000;2.690195
1893.000000;2.900194
1892.000000;2.490599
1891.000000;2.512183
1890.000000;2.933838
1889.000000;2.580348
1888.000000;2.307440
1887.000000;2.261964
1886.000000;2.301827
1885.000000;2.438584
1884.000000;2.589487
1883.000000;2.649213
1882.000000;2.602730
1881.000000;2.452502
1880.000000;2.313545
1879.000000;2.277915
1878.000000;2.314578
1877.000000;2.311500
1876.000000;2.255495
1875.000000;2.250841
1874.000000;2.346385
1873.000000;2.482573
1872.000000;2.594738
1871.000000;2.776824
1870.000000;2.807551
1869.000000;2.662102
1868.000000;2.513438
1867.000000;2.319691
1866.000000;2.201465
1865.000000;2.165512
1864.000000;2.169836
1863.000000;2.214829
1862.000000;2.347519
1861.000000;2.490847
1860.000000;2.449229
1859.000000;2.417349
1858.000000;2.566309
1857.000000;2.774931
1856.000000;2.656027
1855.000000;2.603851
1854.000000;2.714396
1853.000000;2.683548
1852.000000;2.697192
1851.000000;2.756434
1850.000000;2.518868
1849.000000;2.330295
1848.000000;2.231949
1847.000000;2.163713
1846.000000;2.127585
1845.000000;2.134851
1844.000000;2.182655
1843.000000;2.274062
1842.000000;2.473851
1841.000000;2.793993
1840.000000;3.273137
1839.000000;2.781081
1838.000000;2.360204
1837.000000;2.225820
1836.000000;2.238501
1835.000000;2.368220
1834.000000;2.532746
1833.000000;2.691650
1832.000000;2.656137
1831.000000;2.450670
1830.000000;2.418861
1829.000000;2.489608
1828.000000;2.407487
1827.000000;2.301490
1826.000000;2.408277
1825.000000;2.561899
1824.000000;2.425338
1823.000000;2.367773
1822.000000;2.700100
1821.000000;2.697301
1820.000000;2.289520
1819.000000;2.245832
1818.000000;2.237577
1817.000000;2.182618
1816.000000;2.151446
1815.000000;2.161586
1814.000000;2.227238
1813.000000;2.392832
1812.000000;2.571139
1811.000000;2.550158
1810.000000;2.794739
1809.000000;2.951477
1808.000000;2.530167
1807.000000;2.553275
1806.000000;2.820343
1805.000000;2.602698
1804.000000;2.530593
1803.000000;2.872295
1802.000000;3.134686
1801.000000;2.726110
1800.000000;2.811744
1799.000000;3.289768
1798.000000;3.084478
1797.000000;3.238162
1796.000000;2.870228
1795.000000;2.452145
1794.000000;2.383423
1793.000000;2.613596
1792.000000;3.129942
1791.000000;2.859616
1790.000000;2.625949
1789.000000;2.677191
1788.000000;2.887969
1787.000000;2.916168
1786.000000;2.719853
1785.000000;2.667946
1784.000000;2.662591
1783.000000;2.604309
1782.000000;2.529114
1781.000000;2.460316
1780.000000;2.427959
1779.000000;2.400762
1778.000000;2.242266
1777.000000;2.074732
1776.000000;2.010649
1775.000000;2.037648
1774.000000;2.080780
1773.000000;2.096026
1772.000000;2.152541
1771.000000;2.268402
1770.000000;2.488236
1769.000000;2.650934
1768.000000;2.524009
1767.000000;2.489667
1766.000000;2.566104
1765.000000;2.661104
1764.000000;2.625769
1763.000000;2.488994
1762.000000;2.429509
1761.000000;2.420997
1760.000000;2.478295
1759.000000;2.757389
1758.000000;2.709884
1757.000000;2.437483
1756.000000;2.362768
1755.000000;2.367106
1754.000000;2.462791
1753.000000;2.542510
1752.000000;2.607557
1751.000000;2.688596
1750.000000;2.563205
1749.000000;2.402545
1748.000000;2.320226
1747.000000;2.302738
1746.000000;2.323677
1745.000000;2.355619
1744.000000;2.367788
1743.000000;2.366023
1742.000000;2.366847
1741.000000;2.481494
1740.000000;2.843532
1739.000000;2.745905
1738.000000;2.382892
1737.000000;2.261302
1736.000000;2.486397
1735.000000;2.964222
1734.000000;2.748370
1733.000000;2.509347
1732.000000;2.260100
1731.000000;2.139015
1730.000000;2.271018
1729.000000;2.651271
1728.000000;2.539859
1727.000000;2.257860
1726.000000;2.185719
1725.000000;2.196354
1724.000000;2.246294
1723.000000;2.282704
1722.000000;2.373288
1721.000000;2.755558
1720.000000;2.571216
1719.000000;2.222944
1718.000000;2.192488
1717.000000;2.320100
1716.000000;2.448576
1715.000000;2.495943
1714.000000;2.756977
1713.000000;2.764551
1712.000000;2.423873
1711.000000;2.333829
1710.000000;2.370860
1709.000000;2.497448
1708.000000;2.494890
1707.000000;2.359643
1706.000000;2.337788
1705.000000;2.415103
1704.000000;2.588946
1703.000000;3.016065
1702.000000;3.509274
1701.000000;2.906031
1700.000000;2.633240
1699.000000;2.410809
1698.000000;2.265188
1697.000000;2.414882
1696.000000;2.609106
1695.000000;2.449016
1694.000000;2.219227
1693.000000;2.070514
1692.000000;2.138631
1691.000000;2.465700
1690.000000;2.610687
1689.000000;2.387002
1688.000000;2.352865
1687.000000;2.423663
1686.000000;2.556700
1685.000000;2.615989
1684.000000;2.552213
1683.000000;2.592904
1682.000000;2.720487
1681.000000;2.554149
1680.000000;2.353246
1679.000000;2.382162
1678.000000;2.816692
1677.000000;3.039891
1676.000000;2.830359
1675.000000;2.915074
1674.000000;2.596220
1673.000000;2.385998
1672.000000;2.389372
1671.000000;2.502225
1670.000000;2.597205
1669.000000;2.668140
1668.000000;2.653122
1667.000000;2.436645
1666.000000;2.210768
1665.000000;2.132361
1664.000000;2.209173
1663.000000;2.275316
1662.000000;2.219136
1661.000000;2.180827
1660.000000;2.235630
1659.000000;2.304261
1658.000000;2.219722
1657.000000;2.090474
1656.000000;1.981505
1655.000000;1.926489
1654.000000;2.043383
1653.000000;2.328143
1652.000000;2.666863
1651.000000;2.523678
1650.000000;2.563855
1649.000000;3.009344
1648.000000;2.607595
1647.000000;2.426437
1646.000000;2.468577
1645.000000;2.545418
1644.000000;2.558699
1643.000000;2.676704
1642.000000;2.665424
1641.000000;2.527527
1640.000000;2.704849
1639.000000;2.637212
1638.000000;2.308920
1637.000000;2.411222
1636.000000;2.959788
1635.000000;2.851769
1634.000000;2.629122
1633.000000;2.525005
1632.000000;2.404997
1631.000000;2.446548
1630.000000;2.525425
1629.000000;2.459764
1628.000000;2.422798
1627.000000;2.410253
1626.000000;2.346327
1625.000000;2.299308
1624.000000;2.330236
1623.000000;2.388024
1622.000000;2.342154
1621.000000;2.293968
1620.000000;2.315082
1619.000000;2.515358
1618.000000;3.066552
1617.000000;2.715068
1616.000000;2.619595
1615.000000;2.473931
1614.000000;2.229300
1613.000000;2.211531
1612.000000;2.443892
1611.000000;2.773140
1610.000000;2.479857
1609.000000;2.337902
1608.000000;2.314632
1607.000000;2.449300
1606.000000;2.881797
1605.000000;2.589623
1604.000000;2.316157
1603.000000;2.290365
1602.000000;2.357442
1601.000000;2.423832
1600.000000;2.526664
1599.000000;2.973741
1598.000000;2.852892
1597.000000;2.478482
1596.000000;2.539002
1595.000000;3.184431
1594.000000;2.749419
1593.000000;2.594609
1592.000000;3.402773
1591.000000;2.942227
1590.000000;2.963917
1589.000000;2.997302
1588.000000;2.590322
1587.000000;2.593703
1586.000000;2.623591
1585.000000;2.499992
1584.000000;2.578321
1583.000000;2.840921
1582.000000;2.547446
1581.000000;2.346116
1580.000000;2.356749
1579.000000;2.547560
1578.000000;2.482701
1577.000000;2.256489
1576.000000;2.274267
1575.000000;2.329591
1574.000000;2.394383
1573.000000;2.312886
1572.000000;2.129327
1571.000000;2.137076
1570.000000;2.281489
1569.000000;2.350062
1568.000000;2.317346
1567.000000;2.357452
1566.000000;2.354190
1565.000000;2.253237
1564.000000;2.177932
1563.000000;2.101816
1562.000000;2.078751
1561.000000;2.109249
1560.000000;2.106664
1559.000000;2.128575
1558.000000;2.151144
1557.000000;2.136675
1556.000000;2.226343
1555.000000;2.548795
1554.000000;2.674631
1553.000000;2.409829
1552.000000;2.362160
1551.000000;2.453768
1550.000000;2.498241
1549.000000;2.379127
1548.000000;2.247903
1547.000000;2.213257
1546.000000;2.303010
1545.000000;2.523973
1544.000000;2.744908
1543.000000;2.509279
1542.000000;2.237079
1541.000000;2.130191
1540.000000;2.149972
1539.000000;2.198159
1538.000000;2.134890
1537.000000;2.096352
1536.000000;2.231380
1535.000000;2.332703
1534.000000;2.291126
1533.000000;2.311840
1532.000000;2.508827
1531.000000;3.097394
1530.000000;2.778329
1529.000000;2.873415
1528.000000;3.116285
1527.000000;2.578658
1526.000000;2.384657
1525.000000;2.259657
1524.000000;2.217779
1523.000000;2.160040
1522.000000;2.088184
1521.000000;2.115362
1520.000000;2.258227
1519.000000;2.485090
1518.000000;2.672878
1517.000000;2.990242
1516.000000;3.213453
1515.000000;2.779166
1514.000000;2.621382
1513.000000;2.668812
1512.000000;2.904436
1511.000000;3.184788
1510.000000;3.199707
1509.000000;3.394632
1508.000000;2.598777
1507.000000;2.225869
1506.000000;2.159932
1505.000000;2.206678
1504.000000;2.197649
1503.000000;2.130805
1502.000000;2.162448
1501.000000;2.265870
1500.000000;2.370881
1499.000000;2.566874
1498.000000;2.721814
1497.000000;2.628234
1496.000000;2.705485
1495.000000;3.009503
1494.000000;2.833093
1493.000000;2.723383
1492.000000;2.800480
1491.000000;2.609874
1490.000000;2.473616
1489.000000;2.478954
1488.000000;2.543638
1487.000000;2.608622
1486.000000;2.710083
1485.000000;2.829459
1484.000000;2.664351
1483.000000;2.520939
1482.000000;2.521738
1481.000000;2.548009
1480.000000;2.682813
1479.000000;2.920180
1478.000000;2.623274
1477.000000;2.455157
1476.000000;2.495879
1475.000000;2.780837
1474.000000;2.904957
1473.000000;2.854402
1472.000000;3.131533
1471.000000;2.620521
1470.000000;2.347399
1469.000000;2.535332
1468.000000;2.762819
1467.000000;2.318391
1466.000000;2.201021
1465.000000;2.294644
1464.000000;2.367102
1463.000000;2.298849
1462.000000;2.233255
1461.000000;2.306470
1460.000000;2.321551
1459.000000;2.198287
1458.000000;2.166890
1457.000000;2.195664
1456.000000;2.149371
1455.000000;2.069986
1454.000000;2.080791
1453.000000;2.259168
1452.000000;2.529145
1451.000000;2.556607
1450.000000;2.516088
1449.000000;2.725994
1448.000000;2.903492
1447.000000;2.510458
1446.000000;2.335723
1445.000000;2.594376
1444.000000;2.978471
1443.000000;2.456978
1442.000000;2.365810
1441.000000;2.364849
1440.000000;2.309585
1439.000000;2.201247
1438.000000;2.138952
1437.000000;2.219178
1436.000000;2.362323
1435.000000;2.486016
1434.000000;2.539373
1433.000000;2.556993
1432.000000;2.669109
1431.000000;2.989330
1430.000000;2.742932
1429.000000;2.656846
1428.000000;2.957519
1427.000000;2.510379
1426.000000;2.201221
1425.000000;2.115982
1424.000000;2.146123
1423.000000;2.303813
1422.000000;2.405996
1421.000000;2.201964
1420.000000;2.130214
1419.000000;2.242488
1418.000000;2.488893
1417.000000;2.993206
1416.000000;3.536715
1415.000000;2.877266
1414.000000;2.554540
1413.000000;2.447612
1412.000000;2.419946
1411.000000;2.445153
1410.000000;2.480013
1409.000000;2.469924
1408.000000;2.425025
1407.000000;2.450656
1406.000000;2.709899
1405.000000;2.863844
1404.000000;2.592782
1403.000000;2.502995
1402.000000;2.429531
1401.000000;2.287506
1400.000000;2.256829
1399.000000;2.376608
1398.000000;2.522749
1397.000000;2.557175
1396.000000;2.604936
1395.000000;2.534520
1394.000000;2.457691
1393.000000;2.613951
1392.000000;2.927112
1391.000000;3.107062
1390.000000;2.917143
1389.000000;2.483529
1388.000000;2.281350
1387.000000;2.216431
1386.000000;2.212583
1385.000000;2.309530
1384.000000;2.514410
1383.000000;2.436250
1382.000000;2.254385
1381.000000;2.247939
1380.000000;2.334735
1379.000000;2.396439
1378.000000;2.401373
1377.000000;2.528269
1376.000000;2.702785
1375.000000;2.551411
1374.000000;2.475845
1373.000000;2.644527
1372.000000;3.149013
1371.000000;2.932870
1370.000000;2.619353
1369.000000;2.584488
1368.000000;2.637333
1367.000000;2.898421
1366.000000;3.373167
1365.000000;2.903912
1364.000000;2.722128
1363.000000;2.686331
1362.000000;2.611873
1361.000000;2.598314
1360.000000;2.614298
1359.000000;2.567048
1358.000000;2.490243
1357.000000;2.523607
1356.000000;3.020419
1355.000000;2.969097
1354.000000;2.558880
1353.000000;2.550229
1352.000000;2.515040
1351.000000;2.507592
1350.000000;2.778726
1349.000000;2.917074
1348.000000;2.514385
1347.000000;2.348116
1346.000000;2.324372
1345.000000;2.380429
1344.000000;2.412932
1343.000000;2.338772
1342.000000;2.331099
1341.000000;2.448509
1340.000000;2.667836
1339.000000;2.832390
1338.000000;2.618151
1337.000000;2.365720
1336.000000;2.236333
1335.000000;2.207626
1334.000000;2.256063
1333.000000;2.373161
1332.000000;2.536657
1331.000000;2.670374
1330.000000;2.999317
1329.000000;3.175683
1328.000000;2.711994
1327.000000;2.544687
1326.000000;2.497871
1325.000000;2.481262
1324.000000;2.539474
1323.000000;2.865353
1322.000000;3.093676
1321.000000;2.652743
1320.000000;2.526589
1319.000000;2.524483
1318.000000;2.525234
1317.000000;2.546538
1316.000000;2.619377
1315.000000;2.512417
1314.000000;2.245396
1313.000000;2.103146
1312.000000;2.095770
1311.000000;2.203889
1310.000000;2.414438
1309.000000;2.796520
1308.000000;3.158407
1307.000000;2.804576
1306.000000;2.679961
1305.000000;3.135067
1304.000000;2.956918
1303.000000;2.497271
1302.000000;2.461186
1301.000000;2.643258
1300.000000;3.260843
1299.000000;2.804877
1298.000000;2.516405
1297.000000;2.550443
1296.000000;2.671934
1295.000000;2.648032
1294.000000;2.633583
1293.000000;2.920301
1292.000000;2.639818
1291.000000;2.342302
1290.000000;2.268699
1289.000000;2.311556
1288.000000;2.430331
1287.000000;2.488371
1286.000000;2.328325
1285.000000;2.164669
1284.000000;2.115403
1283.000000;2.215033
1282.000000;2.496132
1281.000000;2.637232
1280.000000;2.763667
1279.000000;3.031342
1278.000000;2.587514
1277.000000;2.541014
1276.000000;2.934321
1275.000000;2.637758
1274.000000;2.398422
1273.000000;2.612062
1272.000000;2.955786
1271.000000;2.766277
1270.000000;2.792197
1269.000000;3.081052
1268.000000;3.648170
1267.000000;3.258554
1266.000000;2.844027
1265.000000;2.635402
1264.000000;2.491655
1263.000000;2.457398
1262.000000;2.565773
1261.000000;2.687748
1260.000000;2.579484
1259.000000;2.450325
1258.000000;2.364371
1257.000000;2.252235
1256.000000;2.148171
1255.000000;2.133261
1254.000000;2.237348
1253.000000;2.391210
1252.000000;2.470705
1251.000000;2.730752
1250.000000;3.101449
1249.000000;2.708058
1248.000000;2.603140
1247.000000;2.622863
1246.000000;2.532240
1245.000000;2.517736
1244.000000;2.782409
1243.000000;2.888534
1242.000000;2.672459
1241.000000;2.822674
1240.000000;2.736492
1239.000000;2.472124
1238.000000;2.409178
1237.000000;2.407007
1236.000000;2.487756
1235.000000;2.648556
1234.000000;2.537588
1233.000000;2.410161
1232.000000;2.465646
1231.000000;2.649723
1230.000000;2.997505
1229.000000;3.189036
1228.000000;2.661325
1227.000000;2.401331
1226.000000;2.346043
1225.000000;2.505756
1224.000000;2.796046
1223.000000;2.636637
1222.000000;2.528847
1221.000000;2.698723
1220.000000;3.159832
1219.000000;3.315157
1218.000000;3.288359
1217.000000;3.616364
1216.000000;2.983255
1215.000000;2.627670
1214.000000;2.430774
1213.000000;2.328136
1212.000000;2.333669
1211.000000;2.454470
1210.000000;2.516989
1209.000000;2.356815
1208.000000;2.264406
1207.000000;2.283462
1206.000000;2.368733
1205.000000;2.511980
1204.000000;2.690521
1203.000000;2.867394
1202.000000;3.223824
1201.000000;2.914328
1200.000000;2.443702
