Criado como novo conjunto de dados;"0307_DANIEL.spp","57064.8 Secs"
cm-1;Abs
10000.000000;0.346142
9999.000000;0.345574
9998.000000;0.344976
9997.000000;0.344336
9996.000000;0.343663
9995.000000;0.342894
9994.000000;0.341882
9993.000000;0.340601
9992.000000;0.339304
9991.000000;0.338314
9990.000000;0.337682
9989.000000;0.337159
9988.000000;0.336519
9987.000000;0.335783
9986.000000;0.335087
9985.000000;0.334462
9984.000000;0.333815
9983.000000;0.333060
9982.000000;0.332187
9981.000000;0.331221
9980.000000;0.330213
9979.000000;0.329251
9978.000000;0.328423
9977.000000;0.327750
9976.000000;0.327165
9975.000000;0.326564
9974.000000;0.325861
9973.000000;0.325023
9972.000000;0.324097
9971.000000;0.323186
9970.000000;0.322370
9969.000000;0.321648
9968.000000;0.320966
9967.000000;0.320278
9966.000000;0.319560
9965.000000;0.318789
9964.000000;0.317949
9963.000000;0.317061
9962.000000;0.316196
9961.000000;0.315443
9960.000000;0.314855
9959.000000;0.314402
9958.000000;0.313940
9957.000000;0.313279
9956.000000;0.312350
9955.000000;0.311311
9954.000000;0.310440
9953.000000;0.309886
9952.000000;0.309512
9951.000000;0.309012
9950.000000;0.308183
9949.000000;0.307086
9948.000000;0.305967
9947.000000;0.305043
9946.000000;0.304323
9945.000000;0.303646
9944.000000;0.302848
9943.000000;0.301932
9942.000000;0.301038
9941.000000;0.300246
9940.000000;0.299447
9939.000000;0.298467
9938.000000;0.297335
9937.000000;0.296323
9936.000000;0.295657
9935.000000;0.295212
9934.000000;0.294607
9933.000000;0.293599
9932.000000;0.292326
9931.000000;0.291128
9930.000000;0.290200
9929.000000;0.289467
9928.000000;0.288733
9927.000000;0.287878
9926.000000;0.286927
9925.000000;0.285987
9924.000000;0.285133
9923.000000;0.284331
9922.000000;0.283484
9921.000000;0.282570
9920.000000;0.281669
9919.000000;0.280847
9918.000000;0.280067
9917.000000;0.279252
9916.000000;0.278391
9915.000000;0.277495
9914.000000;0.276526
9913.000000;0.275465
9912.000000;0.274429
9911.000000;0.273590
9910.000000;0.272961
9909.000000;0.272368
9908.000000;0.271658
9907.000000;0.270812
9906.000000;0.269843
9905.000000;0.268717
9904.000000;0.267473
9903.000000;0.266300
9902.000000;0.265367
9901.000000;0.264634
9900.000000;0.263937
9899.000000;0.263222
9898.000000;0.262562
9897.000000;0.261952
9896.000000;0.261236
9895.000000;0.260276
9894.000000;0.259114
9893.000000;0.257892
9892.000000;0.256694
9891.000000;0.255538
9890.000000;0.254478
9889.000000;0.253610
9888.000000;0.252952
9887.000000;0.252365
9886.000000;0.251628
9885.000000;0.250617
9884.000000;0.249403
9883.000000;0.248193
9882.000000;0.247173
9881.000000;0.246378
9880.000000;0.245671
9879.000000;0.244828
9878.000000;0.243686
9877.000000;0.242277
9876.000000;0.240848
9875.000000;0.239714
9874.000000;0.239002
9873.000000;0.238523
9872.000000;0.237925
9871.000000;0.236982
9870.000000;0.235765
9869.000000;0.234520
9868.000000;0.233430
9867.000000;0.232497
9866.000000;0.231633
9865.000000;0.230792
9864.000000;0.229992
9863.000000;0.229206
9862.000000;0.228299
9861.000000;0.227127
9860.000000;0.225725
9859.000000;0.224333
9858.000000;0.223183
9857.000000;0.222270
9856.000000;0.221389
9855.000000;0.220409
9854.000000;0.219443
9853.000000;0.218667
9852.000000;0.218020
9851.000000;0.217205
9850.000000;0.216034
9849.000000;0.214667
9848.000000;0.213439
9847.000000;0.212501
9846.000000;0.211729
9845.000000;0.210922
9844.000000;0.209978
9843.000000;0.208875
9842.000000;0.207605
9841.000000;0.206221
9840.000000;0.204856
9839.000000;0.203625
9838.000000;0.202540
9837.000000;0.201559
9836.000000;0.200673
9835.000000;0.199833
9834.000000;0.198872
9833.000000;0.197619
9832.000000;0.196136
9831.000000;0.194737
9830.000000;0.193697
9829.000000;0.192963
9828.000000;0.192202
9827.000000;0.191130
9826.000000;0.189758
9825.000000;0.188334
9824.000000;0.187075
9823.000000;0.185992
9822.000000;0.184963
9821.000000;0.183919
9820.000000;0.182885
9819.000000;0.181873
9818.000000;0.180833
9817.000000;0.179735
9816.000000;0.178626
9815.000000;0.177549
9814.000000;0.176451
9813.000000;0.175277
9812.000000;0.174080
9811.000000;0.172948
9810.000000;0.171835
9809.000000;0.170585
9808.000000;0.169160
9807.000000;0.167758
9806.000000;0.166635
9805.000000;0.165830
9804.000000;0.165078
9803.000000;0.164022
9802.000000;0.162538
9801.000000;0.160884
9800.000000;0.159490
9799.000000;0.158567
9798.000000;0.157931
9797.000000;0.157215
9796.000000;0.156203
9795.000000;0.154909
9794.000000;0.153429
9793.000000;0.151852
9792.000000;0.150298
9791.000000;0.148911
9790.000000;0.147746
9789.000000;0.146730
9788.000000;0.145738
9787.000000;0.144662
9786.000000;0.143419
9785.000000;0.142013
9784.000000;0.140585
9783.000000;0.139313
9782.000000;0.138221
9781.000000;0.137165
9780.000000;0.136027
9779.000000;0.134822
9778.000000;0.133565
9777.000000;0.132182
9776.000000;0.130657
9775.000000;0.129173
9774.000000;0.127930
9773.000000;0.126876
9772.000000;0.125732
9771.000000;0.124324
9770.000000;0.122765
9769.000000;0.121275
9768.000000;0.119918
9767.000000;0.118606
9766.000000;0.117295
9765.000000;0.116072
9764.000000;0.115019
9763.000000;0.114087
9762.000000;0.113156
9761.000000;0.112151
9760.000000;0.111036
9759.000000;0.109730
9758.000000;0.108183
9757.000000;0.106546
9756.000000;0.105114
9755.000000;0.104008
9754.000000;0.103000
9753.000000;0.101771
9752.000000;0.100293
9751.000000;0.098800
9750.000000;0.097422
9749.000000;0.096040
9748.000000;0.094512
9747.000000;0.092898
9746.000000;0.091365
9745.000000;0.089959
9744.000000;0.088569
9743.000000;0.087075
9742.000000;0.085482
9741.000000;0.083925
9740.000000;0.082563
9739.000000;0.081416
9738.000000;0.080332
9737.000000;0.079155
9736.000000;0.077904
9735.000000;0.076695
9734.000000;0.075508
9733.000000;0.074163
9732.000000;0.072568
9731.000000;0.070830
9730.000000;0.069088
9729.000000;0.067362
9728.000000;0.065656
9727.000000;0.064068
9726.000000;0.062690
9725.000000;0.061468
9724.000000;0.060277
9723.000000;0.059060
9722.000000;0.057821
9721.000000;0.056523
9720.000000;0.055105
9719.000000;0.053560
9718.000000;0.051938
9717.000000;0.050302
9716.000000;0.048771
9715.000000;0.047483
9714.000000;0.046428
9713.000000;0.045360
9712.000000;0.043998
9711.000000;0.042287
9710.000000;0.040383
9709.000000;0.038443
9708.000000;0.036587
9707.000000;0.034975
9706.000000;0.033725
9705.000000;0.032691
9704.000000;0.031497
9703.000000;0.029873
9702.000000;0.027921
9701.000000;0.025980
9700.000000;0.024313
9699.000000;0.022951
9698.000000;0.021743
9697.000000;0.020481
9696.000000;0.019027
9695.000000;0.017400
9694.000000;0.015753
9693.000000;0.014219
9692.000000;0.012778
9691.000000;0.011272
9690.000000;0.009548
9689.000000;0.007603
9688.000000;0.005598
9687.000000;0.003721
9686.000000;0.002045
9685.000000;0.000510
9684.000000;-0.000957
9683.000000;-0.002384
9682.000000;-0.003821
9681.000000;-0.005367
9680.000000;-0.007038
9679.000000;-0.008680
9678.000000;-0.010131
9677.000000;-0.011461
9676.000000;-0.012936
9675.000000;-0.014695
9674.000000;-0.016578
9673.000000;-0.018315
9672.000000;-0.019841
9671.000000;-0.021341
9670.000000;-0.023006
9669.000000;-0.024825
9668.000000;-0.026640
9667.000000;-0.028380
9666.000000;-0.030149
9665.000000;-0.032055
9664.000000;-0.034005
9663.000000;-0.035794
9662.000000;-0.037394
9661.000000;-0.039033
9660.000000;-0.040892
9659.000000;-0.042854
9658.000000;-0.044666
9657.000000;-0.046295
9656.000000;-0.047948
9655.000000;-0.049738
9654.000000;-0.051496
9653.000000;-0.052985
9652.000000;-0.054203
9651.000000;-0.055403
9650.000000;-0.056861
9649.000000;-0.058672
9648.000000;-0.060708
9647.000000;-0.062738
9646.000000;-0.064612
9645.000000;-0.066359
9644.000000;-0.068100
9643.000000;-0.069883
9642.000000;-0.071664
9641.000000;-0.073450
9640.000000;-0.075344
9639.000000;-0.077407
9638.000000;-0.079542
9637.000000;-0.081586
9636.000000;-0.083486
9635.000000;-0.085313
9634.000000;-0.087131
9633.000000;-0.088917
9632.000000;-0.090628
9631.000000;-0.092292
9630.000000;-0.094008
9629.000000;-0.095841
9628.000000;-0.097732
9627.000000;-0.099527
9626.000000;-0.101122
9625.000000;-0.102581
9624.000000;-0.104093
9623.000000;-0.105812
9622.000000;-0.107767
9621.000000;-0.109887
9620.000000;-0.112084
9619.000000;-0.114295
9618.000000;-0.116475
9617.000000;-0.118580
9616.000000;-0.120554
9615.000000;-0.122352
9614.000000;-0.124010
9613.000000;-0.125664
9612.000000;-0.127456
9611.000000;-0.129431
9610.000000;-0.131553
9609.000000;-0.133767
9608.000000;-0.135978
9607.000000;-0.138008
9606.000000;-0.139718
9605.000000;-0.141203
9604.000000;-0.142752
9603.000000;-0.144590
9602.000000;-0.146698
9601.000000;-0.148920
9600.000000;-0.151126
9599.000000;-0.153224
9598.000000;-0.155148
9597.000000;-0.156933
9596.000000;-0.158736
9595.000000;-0.160679
9594.000000;-0.162715
9593.000000;-0.164719
9592.000000;-0.166659
9591.000000;-0.168590
9590.000000;-0.170530
9589.000000;-0.172471
9588.000000;-0.174446
9587.000000;-0.176479
9586.000000;-0.178478
9585.000000;-0.180317
9584.000000;-0.182011
9583.000000;-0.183704
9582.000000;-0.185486
9581.000000;-0.187344
9580.000000;-0.189293
9579.000000;-0.191404
9578.000000;-0.193637
9577.000000;-0.195811
9576.000000;-0.197819
9575.000000;-0.199748
9574.000000;-0.201707
9573.000000;-0.203643
9572.000000;-0.205449
9571.000000;-0.207176
9570.000000;-0.208991
9569.000000;-0.210986
9568.000000;-0.213134
9567.000000;-0.215392
9566.000000;-0.217696
9565.000000;-0.219898
9564.000000;-0.221854
9563.000000;-0.223608
9562.000000;-0.225360
9561.000000;-0.227216
9560.000000;-0.229075
9559.000000;-0.230799
9558.000000;-0.232402
9557.000000;-0.234016
9556.000000;-0.235759
9555.000000;-0.237699
9554.000000;-0.239846
9553.000000;-0.242100
9552.000000;-0.244277
9551.000000;-0.246272
9550.000000;-0.248174
9549.000000;-0.250131
9548.000000;-0.252150
9547.000000;-0.254093
9546.000000;-0.255862
9545.000000;-0.257512
9544.000000;-0.259173
9543.000000;-0.260949
9542.000000;-0.262878
9541.000000;-0.264942
9540.000000;-0.267074
9539.000000;-0.269191
9538.000000;-0.271253
9537.000000;-0.273289
9536.000000;-0.275337
9535.000000;-0.277354
9534.000000;-0.279217
9533.000000;-0.280811
9532.000000;-0.282171
9531.000000;-0.283508
9530.000000;-0.285054
9529.000000;-0.286846
9528.000000;-0.288684
9527.000000;-0.290335
9526.000000;-0.291763
9525.000000;-0.293150
9524.000000;-0.294731
9523.000000;-0.296643
9522.000000;-0.298850
9521.000000;-0.301142
9520.000000;-0.303236
9519.000000;-0.304971
9518.000000;-0.306427
9517.000000;-0.307815
9516.000000;-0.309243
9515.000000;-0.310662
9514.000000;-0.312012
9513.000000;-0.313343
9512.000000;-0.314749
9511.000000;-0.316263
9510.000000;-0.317861
9509.000000;-0.319513
9508.000000;-0.321153
9507.000000;-0.322656
9506.000000;-0.323953
9505.000000;-0.325160
9504.000000;-0.326509
9503.000000;-0.328099
9502.000000;-0.329765
9501.000000;-0.331246
9500.000000;-0.332454
9499.000000;-0.333516
9498.000000;-0.334566
9497.000000;-0.335607
9496.000000;-0.336612
9495.000000;-0.337683
9494.000000;-0.338981
9493.000000;-0.340495
9492.000000;-0.341996
9491.000000;-0.343286
9490.000000;-0.344414
9489.000000;-0.345545
9488.000000;-0.346679
9487.000000;-0.347617
9486.000000;-0.348242
9485.000000;-0.348712
9484.000000;-0.349306
9483.000000;-0.350140
9482.000000;-0.351086
9481.000000;-0.351927
9480.000000;-0.352534
9479.000000;-0.352927
9478.000000;-0.353241
9477.000000;-0.353648
9476.000000;-0.354281
9475.000000;-0.355194
9474.000000;-0.356369
9473.000000;-0.357692
9472.000000;-0.358938
9471.000000;-0.359864
9470.000000;-0.360407
9469.000000;-0.360764
9468.000000;-0.361203
9467.000000;-0.361800
9466.000000;-0.362400
9465.000000;-0.362819
9464.000000;-0.363032
9463.000000;-0.363150
9462.000000;-0.363317
9461.000000;-0.363632
9460.000000;-0.364086
9459.000000;-0.364532
9458.000000;-0.364785
9457.000000;-0.364838
9456.000000;-0.364921
9455.000000;-0.365250
9454.000000;-0.365729
9453.000000;-0.365996
9452.000000;-0.365798
9451.000000;-0.365270
9450.000000;-0.364809
9449.000000;-0.364689
9448.000000;-0.364823
9447.000000;-0.364876
9446.000000;-0.364589
9445.000000;-0.363994
9444.000000;-0.363348
9443.000000;-0.362890
9442.000000;-0.362679
9441.000000;-0.362636
9440.000000;-0.362657
9439.000000;-0.362666
9438.000000;-0.362590
9437.000000;-0.362393
9436.000000;-0.362122
9435.000000;-0.361849
9434.000000;-0.361540
9433.000000;-0.361069
9432.000000;-0.360383
9431.000000;-0.359620
9430.000000;-0.359004
9429.000000;-0.358641
9428.000000;-0.358430
9427.000000;-0.358143
9426.000000;-0.357546
9425.000000;-0.356531
9424.000000;-0.355223
9423.000000;-0.353945
9422.000000;-0.352974
9421.000000;-0.352299
9420.000000;-0.351668
9419.000000;-0.350882
9418.000000;-0.349959
9417.000000;-0.349021
9416.000000;-0.348112
9415.000000;-0.347222
9414.000000;-0.346393
9413.000000;-0.345701
9412.000000;-0.345104
9411.000000;-0.344419
9410.000000;-0.343489
9409.000000;-0.342355
9408.000000;-0.341224
9407.000000;-0.340262
9406.000000;-0.339426
9405.000000;-0.338521
9404.000000;-0.337423
9403.000000;-0.336218
9402.000000;-0.335071
9401.000000;-0.333992
9400.000000;-0.332803
9399.000000;-0.331384
9398.000000;-0.329870
9397.000000;-0.328543
9396.000000;-0.327564
9395.000000;-0.326860
9394.000000;-0.326213
9393.000000;-0.325394
9392.000000;-0.324261
9391.000000;-0.322845
9390.000000;-0.321342
9389.000000;-0.319957
9388.000000;-0.318714
9387.000000;-0.317494
9386.000000;-0.316226
9385.000000;-0.314949
9384.000000;-0.313685
9383.000000;-0.312337
9382.000000;-0.310792
9381.000000;-0.309064
9380.000000;-0.307312
9379.000000;-0.305724
9378.000000;-0.304380
9377.000000;-0.303190
9376.000000;-0.301938
9375.000000;-0.300462
9374.000000;-0.298796
9373.000000;-0.297127
9372.000000;-0.295598
9371.000000;-0.294233
9370.000000;-0.293005
9369.000000;-0.291862
9368.000000;-0.290661
9367.000000;-0.289240
9366.000000;-0.287628
9365.000000;-0.286101
9364.000000;-0.284876
9363.000000;-0.283822
9362.000000;-0.282585
9361.000000;-0.280983
9360.000000;-0.279147
9359.000000;-0.277350
9358.000000;-0.275802
9357.000000;-0.274586
9356.000000;-0.273614
9355.000000;-0.272585
9354.000000;-0.271154
9353.000000;-0.269272
9352.000000;-0.267297
9351.000000;-0.265663
9350.000000;-0.264447
9349.000000;-0.263357
9348.000000;-0.262104
9347.000000;-0.260690
9346.000000;-0.259296
9345.000000;-0.257999
9344.000000;-0.256684
9343.000000;-0.255212
9342.000000;-0.253578
9341.000000;-0.251876
9340.000000;-0.250168
9339.000000;-0.248452
9338.000000;-0.246737
9337.000000;-0.245099
9336.000000;-0.243643
9335.000000;-0.242409
9334.000000;-0.241303
9333.000000;-0.240123
9332.000000;-0.238702
9331.000000;-0.237091
9330.000000;-0.235550
9329.000000;-0.234291
9328.000000;-0.233232
9327.000000;-0.232070
9326.000000;-0.230620
9325.000000;-0.228992
9324.000000;-0.227398
9323.000000;-0.225898
9322.000000;-0.224398
9321.000000;-0.222835
9320.000000;-0.221250
9319.000000;-0.219695
9318.000000;-0.218169
9317.000000;-0.216663
9316.000000;-0.215202
9315.000000;-0.213802
9314.000000;-0.212433
9313.000000;-0.211081
9312.000000;-0.209796
9311.000000;-0.208623
9310.000000;-0.207486
9309.000000;-0.206210
9308.000000;-0.204716
9307.000000;-0.203138
9306.000000;-0.201677
9305.000000;-0.200341
9304.000000;-0.198917
9303.000000;-0.197227
9302.000000;-0.195364
9301.000000;-0.193581
9300.000000;-0.192018
9299.000000;-0.190628
9298.000000;-0.189325
9297.000000;-0.188092
9296.000000;-0.186921
9295.000000;-0.185786
9294.000000;-0.184699
9293.000000;-0.183689
9292.000000;-0.182649
9291.000000;-0.181332
9290.000000;-0.179606
9289.000000;-0.177667
9288.000000;-0.175895
9287.000000;-0.174509
9286.000000;-0.173427
9285.000000;-0.172418
9284.000000;-0.171293
9283.000000;-0.169987
9282.000000;-0.168571
9281.000000;-0.167204
9280.000000;-0.166014
9279.000000;-0.164976
9278.000000;-0.163954
9277.000000;-0.162862
9276.000000;-0.161718
9275.000000;-0.160537
9274.000000;-0.159248
9273.000000;-0.157791
9272.000000;-0.156231
9271.000000;-0.154715
9270.000000;-0.153341
9269.000000;-0.152094
9268.000000;-0.150911
9267.000000;-0.149744
9266.000000;-0.148581
9265.000000;-0.147440
9264.000000;-0.146361
9263.000000;-0.145334
9262.000000;-0.144237
9261.000000;-0.142893
9260.000000;-0.141282
9259.000000;-0.139663
9258.000000;-0.138373
9257.000000;-0.137463
9256.000000;-0.136622
9255.000000;-0.135508
9254.000000;-0.134105
9253.000000;-0.132668
9252.000000;-0.131399
9251.000000;-0.130271
9250.000000;-0.129189
9249.000000;-0.128177
9248.000000;-0.127330
9247.000000;-0.126620
9246.000000;-0.125818
9245.000000;-0.124646
9244.000000;-0.123043
9243.000000;-0.121286
9242.000000;-0.119803
9241.000000;-0.118785
9240.000000;-0.118019
9239.000000;-0.117164
9238.000000;-0.116142
9237.000000;-0.115130
9236.000000;-0.114199
9235.000000;-0.113170
9234.000000;-0.111900
9233.000000;-0.110536
9232.000000;-0.109341
9231.000000;-0.108338
9230.000000;-0.107303
9229.000000;-0.106089
9228.000000;-0.104805
9227.000000;-0.103653
9226.000000;-0.102679
9225.000000;-0.101762
9224.000000;-0.100761
9223.000000;-0.099624
9222.000000;-0.098378
9221.000000;-0.097088
9220.000000;-0.095836
9219.000000;-0.094717
9218.000000;-0.093773
9217.000000;-0.092931
9216.000000;-0.092032
9215.000000;-0.090989
9214.000000;-0.089886
9213.000000;-0.088882
9212.000000;-0.088027
9211.000000;-0.087219
9210.000000;-0.086328
9209.000000;-0.085305
9208.000000;-0.084162
9207.000000;-0.082945
9206.000000;-0.081739
9205.000000;-0.080636
9204.000000;-0.079645
9203.000000;-0.078698
9202.000000;-0.077766
9201.000000;-0.076899
9200.000000;-0.076125
9199.000000;-0.075389
9198.000000;-0.074641
9197.000000;-0.073909
9196.000000;-0.073204
9195.000000;-0.072423
9194.000000;-0.071447
9193.000000;-0.070316
9192.000000;-0.069225
9191.000000;-0.068345
9190.000000;-0.067680
9189.000000;-0.067067
9188.000000;-0.066304
9187.000000;-0.065311
9186.000000;-0.064211
9185.000000;-0.063214
9184.000000;-0.062386
9183.000000;-0.061587
9182.000000;-0.060682
9181.000000;-0.059704
9180.000000;-0.058756
9179.000000;-0.057843
9178.000000;-0.056917
9177.000000;-0.056039
9176.000000;-0.055345
9175.000000;-0.054850
9174.000000;-0.054384
9173.000000;-0.053751
9172.000000;-0.052870
9171.000000;-0.051788
9170.000000;-0.050634
9169.000000;-0.049574
9168.000000;-0.048706
9167.000000;-0.047961
9166.000000;-0.047151
9165.000000;-0.046160
9164.000000;-0.045052
9163.000000;-0.043988
9162.000000;-0.043086
9161.000000;-0.042339
9160.000000;-0.041630
9159.000000;-0.040838
9158.000000;-0.039965
9157.000000;-0.039145
9156.000000;-0.038452
9155.000000;-0.037754
9154.000000;-0.036850
9153.000000;-0.035751
9152.000000;-0.034706
9151.000000;-0.033925
9150.000000;-0.033377
9149.000000;-0.032897
9148.000000;-0.032381
9147.000000;-0.031788
9146.000000;-0.031040
9145.000000;-0.030061
9144.000000;-0.028912
9143.000000;-0.027795
9142.000000;-0.026882
9141.000000;-0.026199
9140.000000;-0.025676
9139.000000;-0.025242
9138.000000;-0.024842
9137.000000;-0.024404
9136.000000;-0.023862
9135.000000;-0.023217
9134.000000;-0.022559
9133.000000;-0.021994
9132.000000;-0.021543
9131.000000;-0.021120
9130.000000;-0.020585
9129.000000;-0.019840
9128.000000;-0.018887
9127.000000;-0.017835
9126.000000;-0.016838
9125.000000;-0.016005
9124.000000;-0.015331
9123.000000;-0.014718
9122.000000;-0.014063
9121.000000;-0.013344
9120.000000;-0.012629
9119.000000;-0.012010
9118.000000;-0.011536
9117.000000;-0.011153
9116.000000;-0.010733
9115.000000;-0.010150
9114.000000;-0.009364
9113.000000;-0.008425
9112.000000;-0.007425
9111.000000;-0.006492
9110.000000;-0.005773
9109.000000;-0.005355
9108.000000;-0.005144
9107.000000;-0.004890
9106.000000;-0.004391
9105.000000;-0.003646
9104.000000;-0.002805
9103.000000;-0.002028
9102.000000;-0.001422
9101.000000;-0.001026
9100.000000;-0.000747
9099.000000;-0.000351
9098.000000;0.000356
9097.000000;0.001309
9096.000000;0.002220
9095.000000;0.002870
9094.000000;0.003306
9093.000000;0.003732
9092.000000;0.004290
9091.000000;0.004998
9090.000000;0.005821
9089.000000;0.006688
9088.000000;0.007455
9087.000000;0.007982
9086.000000;0.008294
9085.000000;0.008604
9084.000000;0.009111
9083.000000;0.009800
9082.000000;0.010495
9081.000000;0.011083
9080.000000;0.011602
9079.000000;0.012116
9078.000000;0.012596
9077.000000;0.012981
9076.000000;0.013298
9075.000000;0.013641
9074.000000;0.014041
9073.000000;0.014451
9072.000000;0.014861
9071.000000;0.015346
9070.000000;0.015966
9069.000000;0.016649
9068.000000;0.017248
9067.000000;0.017679
9066.000000;0.018002
9065.000000;0.018362
9064.000000;0.018887
9063.000000;0.019624
9062.000000;0.020508
9061.000000;0.021402
9060.000000;0.022180
9059.000000;0.022807
9058.000000;0.023311
9057.000000;0.023701
9056.000000;0.023946
9055.000000;0.024057
9054.000000;0.024161
9053.000000;0.024412
9052.000000;0.024819
9051.000000;0.025219
9050.000000;0.025459
9049.000000;0.025605
9048.000000;0.025873
9047.000000;0.026376
9046.000000;0.027016
9045.000000;0.027621
9044.000000;0.028135
9043.000000;0.028610
9042.000000;0.029092
9041.000000;0.029598
9040.000000;0.030157
9039.000000;0.030784
9038.000000;0.031410
9037.000000;0.031927
9036.000000;0.032296
9035.000000;0.032571
9034.000000;0.032830
9033.000000;0.033126
9032.000000;0.033524
9031.000000;0.034059
9030.000000;0.034655
9029.000000;0.035162
9028.000000;0.035514
9027.000000;0.035795
9026.000000;0.036123
9025.000000;0.036506
9024.000000;0.036877
9023.000000;0.037192
9022.000000;0.037457
9021.000000;0.037678
9020.000000;0.037855
9019.000000;0.038019
9018.000000;0.038202
9017.000000;0.038412
9016.000000;0.038675
9015.000000;0.039088
9014.000000;0.039759
9013.000000;0.040651
9012.000000;0.041537
9011.000000;0.042161
9010.000000;0.042461
9009.000000;0.042575
9008.000000;0.042665
9007.000000;0.042777
9006.000000;0.042885
9005.000000;0.043021
9004.000000;0.043259
9003.000000;0.043595
9002.000000;0.043912
9001.000000;0.044121
9000.000000;0.044278
8999.000000;0.044541
8998.000000;0.045012
8997.000000;0.045654
8996.000000;0.046310
8995.000000;0.046797
8994.000000;0.047044
8993.000000;0.047158
8992.000000;0.047307
8991.000000;0.047500
8990.000000;0.047577
8989.000000;0.047470
8988.000000;0.047371
8987.000000;0.047524
8986.000000;0.047933
8985.000000;0.048408
8984.000000;0.048854
8983.000000;0.049348
8982.000000;0.049945
8981.000000;0.050542
8980.000000;0.050991
8979.000000;0.051228
8978.000000;0.051276
8977.000000;0.051232
8976.000000;0.051283
8975.000000;0.051599
8974.000000;0.052139
8973.000000;0.052632
8972.000000;0.052838
8971.000000;0.052775
8970.000000;0.052659
8969.000000;0.052682
8968.000000;0.052908
8967.000000;0.053284
8966.000000;0.053668
8965.000000;0.053898
8964.000000;0.053951
8963.000000;0.054004
8962.000000;0.054287
8961.000000;0.054846
8960.000000;0.055492
8959.000000;0.055974
8958.000000;0.056186
8957.000000;0.056234
8956.000000;0.056317
8955.000000;0.056552
8954.000000;0.056900
8953.000000;0.057255
8952.000000;0.057567
8951.000000;0.057835
8950.000000;0.058015
8949.000000;0.058054
8948.000000;0.058009
8947.000000;0.058046
8946.000000;0.058279
8945.000000;0.058668
8944.000000;0.059098
8943.000000;0.059480
8942.000000;0.059744
8941.000000;0.059847
8940.000000;0.059839
8939.000000;0.059853
8938.000000;0.060000
8937.000000;0.060296
8936.000000;0.060708
8935.000000;0.061192
8934.000000;0.061637
8933.000000;0.061903
8932.000000;0.061974
8931.000000;0.062015
8930.000000;0.062188
8929.000000;0.062472
8928.000000;0.062727
8927.000000;0.062891
8926.000000;0.063025
8925.000000;0.063177
8924.000000;0.063292
8923.000000;0.063256
8922.000000;0.063024
8921.000000;0.062723
8920.000000;0.062595
8919.000000;0.062775
8918.000000;0.063105
8917.000000;0.063295
8916.000000;0.063304
8915.000000;0.063408
8914.000000;0.063807
8913.000000;0.064295
8912.000000;0.064499
8911.000000;0.064368
8910.000000;0.064216
8909.000000;0.064311
8908.000000;0.064619
8907.000000;0.064969
8906.000000;0.065278
8905.000000;0.065522
8904.000000;0.065643
8903.000000;0.065648
8902.000000;0.065712
8901.000000;0.066036
8900.000000;0.066577
8899.000000;0.067040
8898.000000;0.067168
8897.000000;0.066988
8896.000000;0.066734
8895.000000;0.066569
8894.000000;0.066454
8893.000000;0.066280
8892.000000;0.066074
8891.000000;0.066001
8890.000000;0.066184
8889.000000;0.066572
8888.000000;0.067033
8887.000000;0.067509
8886.000000;0.068003
8885.000000;0.068445
8884.000000;0.068669
8883.000000;0.068596
8882.000000;0.068350
8881.000000;0.068148
8880.000000;0.068083
8879.000000;0.068102
8878.000000;0.068146
8877.000000;0.068224
8876.000000;0.068316
8875.000000;0.068332
8874.000000;0.068240
8873.000000;0.068166
8872.000000;0.068261
8871.000000;0.068484
8870.000000;0.068642
8869.000000;0.068646
8868.000000;0.068614
8867.000000;0.068680
8866.000000;0.068809
8865.000000;0.068886
8864.000000;0.068895
8863.000000;0.068917
8862.000000;0.068982
8861.000000;0.069030
8860.000000;0.069017
8859.000000;0.068975
8858.000000;0.068957
8857.000000;0.068980
8856.000000;0.069011
8855.000000;0.068995
8854.000000;0.068910
8853.000000;0.068820
8852.000000;0.068846
8851.000000;0.069026
8850.000000;0.069242
8849.000000;0.069348
8848.000000;0.069331
8847.000000;0.069295
8846.000000;0.069319
8845.000000;0.069408
8844.000000;0.069538
8843.000000;0.069674
8842.000000;0.069767
8841.000000;0.069802
8840.000000;0.069823
8839.000000;0.069849
8838.000000;0.069812
8837.000000;0.069662
8836.000000;0.069476
8835.000000;0.069351
8834.000000;0.069244
8833.000000;0.069069
8832.000000;0.068892
8831.000000;0.068904
8830.000000;0.069183
8829.000000;0.069607
8828.000000;0.070010
8827.000000;0.070285
8826.000000;0.070343
8825.000000;0.070158
8824.000000;0.069869
8823.000000;0.069701
8822.000000;0.069714
8821.000000;0.069760
8820.000000;0.069708
8819.000000;0.069584
8818.000000;0.069455
8817.000000;0.069356
8816.000000;0.069397
8815.000000;0.069762
8814.000000;0.070448
8813.000000;0.071119
8812.000000;0.071366
8811.000000;0.071068
8810.000000;0.070423
8809.000000;0.069725
8808.000000;0.069202
8807.000000;0.068967
8806.000000;0.068989
8805.000000;0.069132
8804.000000;0.069295
8803.000000;0.069471
8802.000000;0.069623
8801.000000;0.069617
8800.000000;0.069378
8799.000000;0.069034
8798.000000;0.068773
8797.000000;0.068618
8796.000000;0.068448
8795.000000;0.068203
8794.000000;0.067959
8793.000000;0.067805
8792.000000;0.067754
8791.000000;0.067752
8790.000000;0.067720
8789.000000;0.067611
8788.000000;0.067469
8787.000000;0.067403
8786.000000;0.067450
8785.000000;0.067507
8784.000000;0.067472
8783.000000;0.067395
8782.000000;0.067413
8781.000000;0.067577
8780.000000;0.067811
8779.000000;0.067998
8778.000000;0.068047
8777.000000;0.067922
8776.000000;0.067687
8775.000000;0.067495
8774.000000;0.067444
8773.000000;0.067473
8772.000000;0.067448
8771.000000;0.067314
8770.000000;0.067116
8769.000000;0.066932
8768.000000;0.066851
8767.000000;0.066953
8766.000000;0.067206
8765.000000;0.067402
8764.000000;0.067331
8763.000000;0.067011
8762.000000;0.066669
8761.000000;0.066495
8760.000000;0.066494
8759.000000;0.066548
8758.000000;0.066533
8757.000000;0.066377
8756.000000;0.066082
8755.000000;0.065731
8754.000000;0.065429
8753.000000;0.065227
8752.000000;0.065116
8751.000000;0.065083
8750.000000;0.065115
8749.000000;0.065165
8748.000000;0.065164
8747.000000;0.065083
8746.000000;0.064934
8745.000000;0.064729
8744.000000;0.064476
8743.000000;0.064214
8742.000000;0.064017
8741.000000;0.063950
8740.000000;0.064019
8739.000000;0.064153
8738.000000;0.064213
8737.000000;0.064090
8736.000000;0.063800
8735.000000;0.063464
8734.000000;0.063166
8733.000000;0.062909
8732.000000;0.062710
8731.000000;0.062639
8730.000000;0.062704
8729.000000;0.062793
8728.000000;0.062806
8727.000000;0.062765
8726.000000;0.062702
8725.000000;0.062539
8724.000000;0.062212
8723.000000;0.061856
8722.000000;0.061701
8721.000000;0.061774
8720.000000;0.061862
8719.000000;0.061798
8718.000000;0.061655
8717.000000;0.061580
8716.000000;0.061556
8715.000000;0.061423
8714.000000;0.061093
8713.000000;0.060654
8712.000000;0.060252
8711.000000;0.059942
8710.000000;0.059679
8709.000000;0.059434
8708.000000;0.059265
8707.000000;0.059254
8706.000000;0.059381
8705.000000;0.059495
8704.000000;0.059433
8703.000000;0.059149
8702.000000;0.058733
8701.000000;0.058332
8700.000000;0.058087
8699.000000;0.058077
8698.000000;0.058275
8697.000000;0.058549
8696.000000;0.058732
8695.000000;0.058681
8694.000000;0.058328
8693.000000;0.057739
8692.000000;0.057134
8691.000000;0.056753
8690.000000;0.056643
8689.000000;0.056626
8688.000000;0.056512
8687.000000;0.056277
8686.000000;0.055995
8685.000000;0.055692
8684.000000;0.055360
8683.000000;0.055046
8682.000000;0.054823
8681.000000;0.054698
8680.000000;0.054625
8679.000000;0.054602
8678.000000;0.054665
8677.000000;0.054803
8676.000000;0.054929
8675.000000;0.054943
8674.000000;0.054759
8673.000000;0.054333
8672.000000;0.053728
8671.000000;0.053131
8670.000000;0.052728
8669.000000;0.052555
8668.000000;0.052522
8667.000000;0.052536
8666.000000;0.052543
8665.000000;0.052475
8664.000000;0.052266
8663.000000;0.051932
8662.000000;0.051556
8661.000000;0.051181
8660.000000;0.050795
8659.000000;0.050420
8658.000000;0.050150
8657.000000;0.050066
8656.000000;0.050145
8655.000000;0.050279
8654.000000;0.050330
8653.000000;0.050199
8652.000000;0.049884
8651.000000;0.049516
8650.000000;0.049264
8649.000000;0.049178
8648.000000;0.049148
8647.000000;0.049024
8646.000000;0.048761
8645.000000;0.048430
8644.000000;0.048135
8643.000000;0.047911
8642.000000;0.047704
8641.000000;0.047426
8640.000000;0.047055
8639.000000;0.046663
8638.000000;0.046358
8637.000000;0.046192
8636.000000;0.046153
8635.000000;0.046175
8634.000000;0.046168
8633.000000;0.046057
8632.000000;0.045851
8631.000000;0.045646
8630.000000;0.045511
8629.000000;0.045409
8628.000000;0.045261
8627.000000;0.045058
8626.000000;0.044844
8625.000000;0.044611
8624.000000;0.044282
8623.000000;0.043807
8622.000000;0.043247
8621.000000;0.042748
8620.000000;0.042460
8619.000000;0.042448
8618.000000;0.042610
8617.000000;0.042716
8616.000000;0.042579
8615.000000;0.042218
8614.000000;0.041794
8613.000000;0.041421
8612.000000;0.041063
8611.000000;0.040657
8610.000000;0.040243
8609.000000;0.039953
8608.000000;0.039883
8607.000000;0.040001
8606.000000;0.040166
8605.000000;0.040218
8604.000000;0.040055
8603.000000;0.039668
8602.000000;0.039134
8601.000000;0.038601
8600.000000;0.038230
8599.000000;0.038086
8598.000000;0.038069
8597.000000;0.037986
8596.000000;0.037734
8595.000000;0.037373
8594.000000;0.037029
8593.000000;0.036755
8592.000000;0.036511
8591.000000;0.036225
8590.000000;0.035848
8589.000000;0.035399
8588.000000;0.035013
8587.000000;0.034856
8586.000000;0.034938
8585.000000;0.035053
8584.000000;0.034982
8583.000000;0.034718
8582.000000;0.034421
8581.000000;0.034186
8580.000000;0.033950
8579.000000;0.033640
8578.000000;0.033304
8577.000000;0.033064
8576.000000;0.032964
8575.000000;0.032920
8574.000000;0.032775
8573.000000;0.032434
8572.000000;0.031956
8571.000000;0.031522
8570.000000;0.031275
8569.000000;0.031178
8568.000000;0.031056
8567.000000;0.030758
8566.000000;0.030257
8565.000000;0.029636
8564.000000;0.029033
8563.000000;0.028601
8562.000000;0.028436
8561.000000;0.028506
8560.000000;0.028644
8559.000000;0.028647
8558.000000;0.028418
8557.000000;0.028038
8556.000000;0.027709
8555.000000;0.027576
8554.000000;0.027574
8553.000000;0.027490
8552.000000;0.027197
8551.000000;0.026780
8550.000000;0.026397
8549.000000;0.026101
8548.000000;0.025858
8547.000000;0.025681
8546.000000;0.025624
8545.000000;0.025648
8544.000000;0.025599
8543.000000;0.025367
8542.000000;0.024993
8541.000000;0.024593
8540.000000;0.024236
8539.000000;0.023912
8538.000000;0.023579
8537.000000;0.023204
8536.000000;0.022797
8535.000000;0.022423
8534.000000;0.022165
8533.000000;0.022048
8532.000000;0.022007
8531.000000;0.021931
8530.000000;0.021726
8529.000000;0.021359
8528.000000;0.020908
8527.000000;0.020524
8526.000000;0.020304
8525.000000;0.020183
8524.000000;0.020007
8523.000000;0.019717
8522.000000;0.019413
8521.000000;0.019195
8520.000000;0.019034
8519.000000;0.018839
8518.000000;0.018596
8517.000000;0.018359
8516.000000;0.018128
8515.000000;0.017830
8514.000000;0.017430
8513.000000;0.017010
8512.000000;0.016686
8511.000000;0.016500
8510.000000;0.016415
8509.000000;0.016382
8508.000000;0.016359
8507.000000;0.016276
8506.000000;0.016058
8505.000000;0.015691
8504.000000;0.015235
8503.000000;0.014744
8502.000000;0.014246
8501.000000;0.013815
8500.000000;0.013577
8499.000000;0.013563
8498.000000;0.013601
8497.000000;0.013453
8496.000000;0.013070
8495.000000;0.012634
8494.000000;0.012319
8493.000000;0.012096
8492.000000;0.011814
8491.000000;0.011411
8490.000000;0.010984
8489.000000;0.010656
8488.000000;0.010431
8487.000000;0.010186
8486.000000;0.009806
8485.000000;0.009331
8484.000000;0.008926
8483.000000;0.008692
8482.000000;0.008540
8481.000000;0.008316
8480.000000;0.008010
8479.000000;0.007753
8478.000000;0.007605
8477.000000;0.007486
8476.000000;0.007333
8475.000000;0.007210
8474.000000;0.007175
8473.000000;0.007152
8472.000000;0.007019
8471.000000;0.006784
8470.000000;0.006541
8469.000000;0.006313
8468.000000;0.006045
8467.000000;0.005741
8466.000000;0.005481
8465.000000;0.005291
8464.000000;0.005097
8463.000000;0.004832
8462.000000;0.004541
8461.000000;0.004304
8460.000000;0.004118
8459.000000;0.003884
8458.000000;0.003526
8457.000000;0.003092
8456.000000;0.002725
8455.000000;0.002526
8454.000000;0.002445
8453.000000;0.002352
8452.000000;0.002194
8451.000000;0.002033
8450.000000;0.001898
8449.000000;0.001689
8448.000000;0.001320
8447.000000;0.000878
8446.000000;0.000560
8445.000000;0.000427
8444.000000;0.000334
8443.000000;0.000120
8442.000000;-0.000223
8441.000000;-0.000596
8440.000000;-0.000945
8439.000000;-0.001285
8438.000000;-0.001612
8437.000000;-0.001873
8436.000000;-0.002042
8435.000000;-0.002196
8434.000000;-0.002452
8433.000000;-0.002832
8432.000000;-0.003234
8431.000000;-0.003548
8430.000000;-0.003789
8429.000000;-0.004047
8428.000000;-0.004329
8427.000000;-0.004538
8426.000000;-0.004637
8425.000000;-0.004749
8424.000000;-0.005034
8423.000000;-0.005489
8422.000000;-0.005941
8421.000000;-0.006210
8420.000000;-0.006242
8419.000000;-0.006098
8418.000000;-0.005918
8417.000000;-0.005862
8416.000000;-0.006026
8415.000000;-0.006362
8414.000000;-0.006740
8413.000000;-0.007075
8412.000000;-0.007367
8411.000000;-0.007629
8410.000000;-0.007839
8409.000000;-0.007999
8408.000000;-0.008156
8407.000000;-0.008342
8406.000000;-0.008515
8405.000000;-0.008628
8404.000000;-0.008725
8403.000000;-0.008924
8402.000000;-0.009300
8401.000000;-0.009804
8400.000000;-0.010299
8399.000000;-0.010663
8398.000000;-0.010851
8397.000000;-0.010892
8396.000000;-0.010866
8395.000000;-0.010871
8394.000000;-0.010979
8393.000000;-0.011206
8392.000000;-0.011516
8391.000000;-0.011867
8390.000000;-0.012230
8389.000000;-0.012560
8388.000000;-0.012785
8387.000000;-0.012892
8386.000000;-0.013001
8385.000000;-0.013268
8384.000000;-0.013705
8383.000000;-0.014152
8382.000000;-0.014470
8381.000000;-0.014680
8380.000000;-0.014876
8379.000000;-0.015075
8378.000000;-0.015235
8377.000000;-0.015379
8376.000000;-0.015583
8375.000000;-0.015851
8374.000000;-0.016082
8373.000000;-0.016187
8372.000000;-0.016188
8371.000000;-0.016174
8370.000000;-0.016218
8369.000000;-0.016351
8368.000000;-0.016566
8367.000000;-0.016816
8366.000000;-0.017035
8365.000000;-0.017215
8364.000000;-0.017435
8363.000000;-0.017774
8362.000000;-0.018199
8361.000000;-0.018568
8360.000000;-0.018767
8359.000000;-0.018830
8358.000000;-0.018905
8357.000000;-0.019118
8356.000000;-0.019478
8355.000000;-0.019881
8354.000000;-0.020211
8353.000000;-0.020408
8352.000000;-0.020494
8351.000000;-0.020560
8350.000000;-0.020705
8349.000000;-0.020961
8348.000000;-0.021252
8347.000000;-0.021473
8346.000000;-0.021607
8345.000000;-0.021738
8344.000000;-0.021941
8343.000000;-0.022201
8342.000000;-0.022445
8341.000000;-0.022634
8340.000000;-0.022777
8339.000000;-0.022898
8338.000000;-0.023019
8337.000000;-0.023171
8336.000000;-0.023375
8335.000000;-0.023615
8334.000000;-0.023854
8333.000000;-0.024079
8332.000000;-0.024296
8331.000000;-0.024499
8330.000000;-0.024648
8329.000000;-0.024713
8328.000000;-0.024712
8327.000000;-0.024731
8326.000000;-0.024873
8325.000000;-0.025195
8324.000000;-0.025652
8323.000000;-0.026118
8322.000000;-0.026458
8321.000000;-0.026595
8320.000000;-0.026543
8319.000000;-0.026407
8318.000000;-0.026334
8317.000000;-0.026428
8316.000000;-0.026687
8315.000000;-0.027050
8314.000000;-0.027463
8313.000000;-0.027886
8312.000000;-0.028249
8311.000000;-0.028473
8310.000000;-0.028547
8309.000000;-0.028538
8308.000000;-0.028520
8307.000000;-0.028538
8306.000000;-0.028626
8305.000000;-0.028804
8304.000000;-0.029031
8303.000000;-0.029228
8302.000000;-0.029375
8301.000000;-0.029520
8300.000000;-0.029684
8299.000000;-0.029821
8298.000000;-0.029929
8297.000000;-0.030101
8296.000000;-0.030407
8295.000000;-0.030760
8294.000000;-0.031010
8293.000000;-0.031126
8292.000000;-0.031213
8291.000000;-0.031349
8290.000000;-0.031492
8289.000000;-0.031575
8288.000000;-0.031619
8287.000000;-0.031702
8286.000000;-0.031867
8285.000000;-0.032066
8284.000000;-0.032209
8283.000000;-0.032249
8282.000000;-0.032241
8281.000000;-0.032300
8280.000000;-0.032496
8279.000000;-0.032788
8278.000000;-0.033074
8277.000000;-0.033288
8276.000000;-0.033424
8275.000000;-0.033508
8274.000000;-0.033587
8273.000000;-0.033720
8272.000000;-0.033941
8271.000000;-0.034218
8270.000000;-0.034474
8269.000000;-0.034660
8268.000000;-0.034774
8267.000000;-0.034848
8266.000000;-0.034914
8265.000000;-0.034999
8264.000000;-0.035125
8263.000000;-0.035303
8262.000000;-0.035532
8261.000000;-0.035777
8260.000000;-0.035963
8259.000000;-0.036035
8258.000000;-0.036020
8257.000000;-0.036009
8256.000000;-0.036053
8255.000000;-0.036119
8254.000000;-0.036184
8253.000000;-0.036288
8252.000000;-0.036474
8251.000000;-0.036698
8250.000000;-0.036862
8249.000000;-0.036912
8248.000000;-0.036878
8247.000000;-0.036847
8246.000000;-0.036926
8245.000000;-0.037159
8244.000000;-0.037457
8243.000000;-0.037649
8242.000000;-0.037668
8241.000000;-0.037623
8240.000000;-0.037643
8239.000000;-0.037711
8238.000000;-0.037747
8237.000000;-0.037790
8236.000000;-0.037958
8235.000000;-0.038254
8234.000000;-0.038536
8233.000000;-0.038706
8232.000000;-0.038821
8231.000000;-0.038975
8230.000000;-0.039176
8229.000000;-0.039384
8228.000000;-0.039582
8227.000000;-0.039754
8226.000000;-0.039854
8225.000000;-0.039871
8224.000000;-0.039885
8223.000000;-0.039981
8222.000000;-0.040142
8221.000000;-0.040285
8220.000000;-0.040369
8219.000000;-0.040429
8218.000000;-0.040503
8217.000000;-0.040604
8216.000000;-0.040744
8215.000000;-0.040941
8214.000000;-0.041176
8213.000000;-0.041375
8212.000000;-0.041463
8211.000000;-0.041443
8210.000000;-0.041415
8209.000000;-0.041491
8208.000000;-0.041677
8207.000000;-0.041853
8206.000000;-0.041897
8205.000000;-0.041846
8204.000000;-0.041872
8203.000000;-0.042105
8202.000000;-0.042478
8201.000000;-0.042786
8200.000000;-0.042870
8199.000000;-0.042730
8198.000000;-0.042498
8197.000000;-0.042334
8196.000000;-0.042354
8195.000000;-0.042584
8194.000000;-0.042943
8193.000000;-0.043269
8192.000000;-0.043410
8191.000000;-0.043326
8190.000000;-0.043140
8189.000000;-0.043051
8188.000000;-0.043175
8187.000000;-0.043443
8186.000000;-0.043691
8185.000000;-0.043826
8184.000000;-0.043886
8183.000000;-0.043952
8182.000000;-0.044033
8181.000000;-0.044070
8180.000000;-0.044023
8179.000000;-0.043922
8178.000000;-0.043835
8177.000000;-0.043813
8176.000000;-0.043855
8175.000000;-0.043938
8174.000000;-0.044057
8173.000000;-0.044235
8172.000000;-0.044471
8171.000000;-0.044696
8170.000000;-0.044812
8169.000000;-0.044781
8168.000000;-0.044662
8167.000000;-0.044537
8166.000000;-0.044451
8165.000000;-0.044436
8164.000000;-0.044561
8163.000000;-0.044860
8162.000000;-0.045225
8161.000000;-0.045449
8160.000000;-0.045422
8159.000000;-0.045256
8158.000000;-0.045157
8157.000000;-0.045217
8156.000000;-0.045360
8155.000000;-0.045482
8154.000000;-0.045566
8153.000000;-0.045647
8152.000000;-0.045722
8151.000000;-0.045771
8150.000000;-0.045818
8149.000000;-0.045932
8148.000000;-0.046140
8147.000000;-0.046381
8146.000000;-0.046551
8145.000000;-0.046578
8144.000000;-0.046467
8143.000000;-0.046305
8142.000000;-0.046205
8141.000000;-0.046223
8140.000000;-0.046307
8139.000000;-0.046352
8138.000000;-0.046324
8137.000000;-0.046294
8136.000000;-0.046332
8135.000000;-0.046406
8134.000000;-0.046429
8133.000000;-0.046387
8132.000000;-0.046362
8131.000000;-0.046428
8130.000000;-0.046566
8129.000000;-0.046710
8128.000000;-0.046832
8127.000000;-0.046959
8126.000000;-0.047098
8125.000000;-0.047219
8124.000000;-0.047305
8123.000000;-0.047386
8122.000000;-0.047494
8121.000000;-0.047602
8120.000000;-0.047649
8119.000000;-0.047628
8118.000000;-0.047608
8117.000000;-0.047640
8116.000000;-0.047681
8115.000000;-0.047634
8114.000000;-0.047463
8113.000000;-0.047261
8112.000000;-0.047177
8111.000000;-0.047285
8110.000000;-0.047511
8109.000000;-0.047702
8108.000000;-0.047762
8107.000000;-0.047737
8106.000000;-0.047750
8105.000000;-0.047853
8104.000000;-0.047964
8103.000000;-0.047972
8102.000000;-0.047857
8101.000000;-0.047717
8100.000000;-0.047670
8099.000000;-0.047768
8098.000000;-0.047961
8097.000000;-0.048137
8096.000000;-0.048197
8095.000000;-0.048145
8094.000000;-0.048090
8093.000000;-0.048138
8092.000000;-0.048275
8091.000000;-0.048386
8090.000000;-0.048381
8089.000000;-0.048281
8088.000000;-0.048179
8087.000000;-0.048151
8086.000000;-0.048202
8085.000000;-0.048282
8084.000000;-0.048336
8083.000000;-0.048357
8082.000000;-0.048372
8081.000000;-0.048398
8080.000000;-0.048422
8079.000000;-0.048442
8078.000000;-0.048490
8077.000000;-0.048573
8076.000000;-0.048631
8075.000000;-0.048591
8074.000000;-0.048445
8073.000000;-0.048252
8072.000000;-0.048077
8071.000000;-0.047969
8070.000000;-0.047968
8069.000000;-0.048069
8068.000000;-0.048192
8067.000000;-0.048264
8066.000000;-0.048317
8065.000000;-0.048434
8064.000000;-0.048612
8063.000000;-0.048747
8062.000000;-0.048781
8061.000000;-0.048770
8060.000000;-0.048779
8059.000000;-0.048779
8058.000000;-0.048708
8057.000000;-0.048584
8056.000000;-0.048495
8055.000000;-0.048502
8054.000000;-0.048586
8053.000000;-0.048670
8052.000000;-0.048655
8051.000000;-0.048487
8050.000000;-0.048238
8049.000000;-0.048080
8048.000000;-0.048141
8047.000000;-0.048386
8046.000000;-0.048681
8045.000000;-0.048929
8044.000000;-0.049098
8043.000000;-0.049168
8042.000000;-0.049115
8041.000000;-0.048965
8040.000000;-0.048799
8039.000000;-0.048698
8038.000000;-0.048682
8037.000000;-0.048722
8036.000000;-0.048781
8035.000000;-0.048837
8034.000000;-0.048899
8033.000000;-0.048993
8032.000000;-0.049121
8031.000000;-0.049244
8030.000000;-0.049313
8029.000000;-0.049324
8028.000000;-0.049310
8027.000000;-0.049284
8026.000000;-0.049224
8025.000000;-0.049100
8024.000000;-0.048921
8023.000000;-0.048742
8022.000000;-0.048630
8021.000000;-0.048622
8020.000000;-0.048711
8019.000000;-0.048867
8018.000000;-0.049056
8017.000000;-0.049229
8016.000000;-0.049310
8015.000000;-0.049249
8014.000000;-0.049094
8013.000000;-0.048959
8012.000000;-0.048911
8011.000000;-0.048907
8010.000000;-0.048866
8009.000000;-0.048769
8008.000000;-0.048667
8007.000000;-0.048630
8006.000000;-0.048689
8005.000000;-0.048816
8004.000000;-0.048941
8003.000000;-0.049004
8002.000000;-0.049012
8001.000000;-0.049022
8000.000000;-0.049072
7999.000000;-0.049149
7998.000000;-0.049232
7997.000000;-0.049327
7996.000000;-0.049423
7995.000000;-0.049478
7994.000000;-0.049459
7993.000000;-0.049388
7992.000000;-0.049305
7991.000000;-0.049225
7990.000000;-0.049148
7989.000000;-0.049091
7988.000000;-0.049082
7987.000000;-0.049125
7986.000000;-0.049204
7985.000000;-0.049295
7984.000000;-0.049353
7983.000000;-0.049321
7982.000000;-0.049195
7981.000000;-0.049035
7980.000000;-0.048912
7979.000000;-0.048846
7978.000000;-0.048816
7977.000000;-0.048802
7976.000000;-0.048786
7975.000000;-0.048744
7974.000000;-0.048689
7973.000000;-0.048693
7972.000000;-0.048809
7971.000000;-0.048989
7970.000000;-0.049115
7969.000000;-0.049126
7968.000000;-0.049062
7967.000000;-0.049004
7966.000000;-0.048990
7965.000000;-0.048999
7964.000000;-0.048995
7963.000000;-0.048964
7962.000000;-0.048922
7961.000000;-0.048892
7960.000000;-0.048865
7959.000000;-0.048814
7958.000000;-0.048745
7957.000000;-0.048712
7956.000000;-0.048742
7955.000000;-0.048795
7954.000000;-0.048818
7953.000000;-0.048805
7952.000000;-0.048799
7951.000000;-0.048832
7950.000000;-0.048913
7949.000000;-0.049022
7948.000000;-0.049098
7947.000000;-0.049070
7946.000000;-0.048939
7945.000000;-0.048812
7944.000000;-0.048797
7943.000000;-0.048890
7942.000000;-0.048999
7941.000000;-0.049074
7940.000000;-0.049126
7939.000000;-0.049152
7938.000000;-0.049105
7937.000000;-0.048980
7936.000000;-0.048854
7935.000000;-0.048796
7934.000000;-0.048790
7933.000000;-0.048784
7932.000000;-0.048774
7931.000000;-0.048790
7930.000000;-0.048828
7929.000000;-0.048837
7928.000000;-0.048799
7927.000000;-0.048757
7926.000000;-0.048774
7925.000000;-0.048853
7924.000000;-0.048939
7923.000000;-0.048985
7922.000000;-0.048997
7921.000000;-0.049024
7920.000000;-0.049086
7919.000000;-0.049149
7918.000000;-0.049145
7917.000000;-0.049041
7916.000000;-0.048875
7915.000000;-0.048739
7914.000000;-0.048712
7913.000000;-0.048799
7912.000000;-0.048929
7911.000000;-0.049020
7910.000000;-0.049046
7909.000000;-0.049039
7908.000000;-0.049020
7907.000000;-0.048971
7906.000000;-0.048867
7905.000000;-0.048725
7904.000000;-0.048586
7903.000000;-0.048474
7902.000000;-0.048409
7901.000000;-0.048425
7900.000000;-0.048555
7899.000000;-0.048763
7898.000000;-0.048944
7897.000000;-0.048997
7896.000000;-0.048904
7895.000000;-0.048735
7894.000000;-0.048596
7893.000000;-0.048551
7892.000000;-0.048606
7891.000000;-0.048726
7890.000000;-0.048863
7889.000000;-0.048990
7888.000000;-0.049096
7887.000000;-0.049192
7886.000000;-0.049275
7885.000000;-0.049312
7884.000000;-0.049250
7883.000000;-0.049079
7882.000000;-0.048862
7881.000000;-0.048686
7880.000000;-0.048593
7879.000000;-0.048576
7878.000000;-0.048616
7877.000000;-0.048684
7876.000000;-0.048721
7875.000000;-0.048679
7874.000000;-0.048595
7873.000000;-0.048565
7872.000000;-0.048625
7871.000000;-0.048695
7870.000000;-0.048682
7869.000000;-0.048594
7868.000000;-0.048516
7867.000000;-0.048502
7866.000000;-0.048532
7865.000000;-0.048552
7864.000000;-0.048528
7863.000000;-0.048447
7862.000000;-0.048333
7861.000000;-0.048251
7860.000000;-0.048258
7859.000000;-0.048343
7858.000000;-0.048413
7857.000000;-0.048358
7856.000000;-0.048145
7855.000000;-0.047860
7854.000000;-0.047672
7853.000000;-0.047704
7852.000000;-0.047933
7851.000000;-0.048200
7850.000000;-0.048361
7849.000000;-0.048393
7848.000000;-0.048370
7847.000000;-0.048370
7846.000000;-0.048412
7845.000000;-0.048467
7844.000000;-0.048489
7843.000000;-0.048452
7842.000000;-0.048372
7841.000000;-0.048300
7840.000000;-0.048261
7839.000000;-0.048240
7838.000000;-0.048229
7837.000000;-0.048246
7836.000000;-0.048281
7835.000000;-0.048274
7834.000000;-0.048176
7833.000000;-0.048028
7832.000000;-0.047914
7831.000000;-0.047865
7830.000000;-0.047839
7829.000000;-0.047803
7828.000000;-0.047765
7827.000000;-0.047753
7826.000000;-0.047775
7825.000000;-0.047821
7824.000000;-0.047857
7823.000000;-0.047831
7822.000000;-0.047737
7821.000000;-0.047657
7820.000000;-0.047701
7819.000000;-0.047870
7818.000000;-0.048044
7817.000000;-0.048122
7816.000000;-0.048128
7815.000000;-0.048137
7814.000000;-0.048146
7813.000000;-0.048076
7812.000000;-0.047902
7811.000000;-0.047708
7810.000000;-0.047595
7809.000000;-0.047583
7808.000000;-0.047619
7807.000000;-0.047670
7806.000000;-0.047745
7805.000000;-0.047856
7804.000000;-0.047972
7803.000000;-0.048053
7802.000000;-0.048078
7801.000000;-0.048052
7800.000000;-0.047968
7799.000000;-0.047823
7798.000000;-0.047641
7797.000000;-0.047483
7796.000000;-0.047407
7795.000000;-0.047425
7794.000000;-0.047509
7793.000000;-0.047615
7792.000000;-0.047728
7791.000000;-0.047862
7790.000000;-0.048007
7789.000000;-0.048098
7788.000000;-0.048046
7787.000000;-0.047841
7786.000000;-0.047581
7785.000000;-0.047399
7784.000000;-0.047353
7783.000000;-0.047416
7782.000000;-0.047526
7781.000000;-0.047627
7780.000000;-0.047679
7779.000000;-0.047682
7778.000000;-0.047676
7777.000000;-0.047681
7776.000000;-0.047668
7775.000000;-0.047612
7774.000000;-0.047565
7773.000000;-0.047602
7772.000000;-0.047715
7771.000000;-0.047811
7770.000000;-0.047825
7769.000000;-0.047771
7768.000000;-0.047684
7767.000000;-0.047573
7766.000000;-0.047461
7765.000000;-0.047395
7764.000000;-0.047386
7763.000000;-0.047389
7762.000000;-0.047364
7761.000000;-0.047327
7760.000000;-0.047299
7759.000000;-0.047279
7758.000000;-0.047266
7757.000000;-0.047272
7756.000000;-0.047274
7755.000000;-0.047221
7754.000000;-0.047121
7753.000000;-0.047063
7752.000000;-0.047101
7751.000000;-0.047173
7750.000000;-0.047191
7749.000000;-0.047156
7748.000000;-0.047117
7747.000000;-0.047071
7746.000000;-0.046991
7745.000000;-0.046913
7744.000000;-0.046914
7743.000000;-0.046987
7742.000000;-0.047036
7741.000000;-0.047001
7740.000000;-0.046933
7739.000000;-0.046908
7738.000000;-0.046925
7737.000000;-0.046920
7736.000000;-0.046862
7735.000000;-0.046800
7734.000000;-0.046804
7733.000000;-0.046871
7732.000000;-0.046921
7731.000000;-0.046882
7730.000000;-0.046776
7729.000000;-0.046683
7728.000000;-0.046651
7727.000000;-0.046660
7726.000000;-0.046687
7725.000000;-0.046737
7724.000000;-0.046791
7723.000000;-0.046804
7722.000000;-0.046773
7721.000000;-0.046772
7720.000000;-0.046847
7719.000000;-0.046949
7718.000000;-0.046992
7717.000000;-0.046966
7716.000000;-0.046921
7715.000000;-0.046887
7714.000000;-0.046871
7713.000000;-0.046891
7712.000000;-0.046941
7711.000000;-0.046951
7710.000000;-0.046874
7709.000000;-0.046773
7708.000000;-0.046759
7707.000000;-0.046838
7706.000000;-0.046901
7705.000000;-0.046868
7704.000000;-0.046765
7703.000000;-0.046647
7702.000000;-0.046534
7701.000000;-0.046454
7700.000000;-0.046464
7699.000000;-0.046585
7698.000000;-0.046750
7697.000000;-0.046869
7696.000000;-0.046918
7695.000000;-0.046924
7694.000000;-0.046896
7693.000000;-0.046825
7692.000000;-0.046714
7691.000000;-0.046591
7690.000000;-0.046466
7689.000000;-0.046333
7688.000000;-0.046199
7687.000000;-0.046104
7686.000000;-0.046101
7685.000000;-0.046198
7684.000000;-0.046343
7683.000000;-0.046462
7682.000000;-0.046521
7681.000000;-0.046545
7680.000000;-0.046560
7679.000000;-0.046556
7678.000000;-0.046501
7677.000000;-0.046394
7676.000000;-0.046265
7675.000000;-0.046150
7674.000000;-0.046076
7673.000000;-0.046055
7672.000000;-0.046073
7671.000000;-0.046091
7670.000000;-0.046077
7669.000000;-0.046035
7668.000000;-0.045984
7667.000000;-0.045935
7666.000000;-0.045904
7665.000000;-0.045927
7664.000000;-0.046026
7663.000000;-0.046174
7662.000000;-0.046316
7661.000000;-0.046418
7660.000000;-0.046466
7659.000000;-0.046453
7658.000000;-0.046400
7657.000000;-0.046351
7656.000000;-0.046331
7655.000000;-0.046311
7654.000000;-0.046267
7653.000000;-0.046229
7652.000000;-0.046237
7651.000000;-0.046262
7650.000000;-0.046252
7649.000000;-0.046215
7648.000000;-0.046205
7647.000000;-0.046223
7646.000000;-0.046209
7645.000000;-0.046149
7644.000000;-0.046105
7643.000000;-0.046131
7642.000000;-0.046206
7641.000000;-0.046277
7640.000000;-0.046314
7639.000000;-0.046295
7638.000000;-0.046205
7637.000000;-0.046071
7636.000000;-0.045962
7635.000000;-0.045916
7634.000000;-0.045894
7633.000000;-0.045840
7632.000000;-0.045747
7631.000000;-0.045654
7630.000000;-0.045596
7629.000000;-0.045584
7628.000000;-0.045612
7627.000000;-0.045657
7626.000000;-0.045687
7625.000000;-0.045692
7624.000000;-0.045693
7623.000000;-0.045707
7622.000000;-0.045727
7621.000000;-0.045739
7620.000000;-0.045737
7619.000000;-0.045722
7618.000000;-0.045699
7617.000000;-0.045682
7616.000000;-0.045682
7615.000000;-0.045671
7614.000000;-0.045608
7613.000000;-0.045500
7612.000000;-0.045422
7611.000000;-0.045431
7610.000000;-0.045497
7609.000000;-0.045537
7608.000000;-0.045505
7607.000000;-0.045425
7606.000000;-0.045347
7605.000000;-0.045296
7604.000000;-0.045276
7603.000000;-0.045278
7602.000000;-0.045288
7601.000000;-0.045289
7600.000000;-0.045264
7599.000000;-0.045213
7598.000000;-0.045157
7597.000000;-0.045122
7596.000000;-0.045117
7595.000000;-0.045129
7594.000000;-0.045151
7593.000000;-0.045192
7592.000000;-0.045254
7591.000000;-0.045310
7590.000000;-0.045326
7589.000000;-0.045298
7588.000000;-0.045248
7587.000000;-0.045187
7586.000000;-0.045114
7585.000000;-0.045038
7584.000000;-0.044985
7583.000000;-0.044974
7582.000000;-0.045003
7581.000000;-0.045045
7580.000000;-0.045066
7579.000000;-0.045037
7578.000000;-0.044965
7577.000000;-0.044894
7576.000000;-0.044860
7575.000000;-0.044857
7574.000000;-0.044861
7573.000000;-0.044869
7572.000000;-0.044899
7571.000000;-0.044951
7570.000000;-0.045004
7569.000000;-0.045040
7568.000000;-0.045050
7567.000000;-0.045020
7566.000000;-0.044939
7565.000000;-0.044832
7564.000000;-0.044760
7563.000000;-0.044768
7562.000000;-0.044850
7561.000000;-0.044945
7560.000000;-0.044975
7559.000000;-0.044896
7558.000000;-0.044737
7557.000000;-0.044597
7556.000000;-0.044562
7555.000000;-0.044641
7554.000000;-0.044779
7553.000000;-0.044909
7552.000000;-0.044983
7551.000000;-0.044992
7550.000000;-0.044967
7549.000000;-0.044965
7548.000000;-0.045008
7547.000000;-0.045050
7546.000000;-0.045038
7545.000000;-0.044977
7544.000000;-0.044906
7543.000000;-0.044838
7542.000000;-0.044766
7541.000000;-0.044713
7540.000000;-0.044718
7539.000000;-0.044778
7538.000000;-0.044849
7537.000000;-0.044900
7536.000000;-0.044928
7535.000000;-0.044922
7534.000000;-0.044854
7533.000000;-0.044725
7532.000000;-0.044585
7531.000000;-0.044488
7530.000000;-0.044460
7529.000000;-0.044493
7528.000000;-0.044555
7527.000000;-0.044604
7526.000000;-0.044607
7525.000000;-0.044574
7524.000000;-0.044537
7523.000000;-0.044519
7522.000000;-0.044517
7521.000000;-0.044516
7520.000000;-0.044492
7519.000000;-0.044427
7518.000000;-0.044343
7517.000000;-0.044299
7516.000000;-0.044338
7515.000000;-0.044431
7514.000000;-0.044510
7513.000000;-0.044537
7512.000000;-0.044524
7511.000000;-0.044498
7510.000000;-0.044491
7509.000000;-0.044523
7508.000000;-0.044582
7507.000000;-0.044629
7506.000000;-0.044668
7505.000000;-0.044753
7504.000000;-0.044900
7503.000000;-0.045027
7502.000000;-0.045031
7501.000000;-0.044907
7500.000000;-0.044735
7499.000000;-0.044582
7498.000000;-0.044463
7497.000000;-0.044437
7496.000000;-0.044396
7495.000000;-0.044347
7494.000000;-0.044261
7493.000000;-0.044172
7492.000000;-0.044146
7491.000000;-0.044202
7490.000000;-0.044295
7489.000000;-0.044373
7488.000000;-0.044396
7487.000000;-0.044332
7486.000000;-0.044203
7485.000000;-0.044104
7484.000000;-0.044119
7483.000000;-0.044220
7482.000000;-0.044313
7481.000000;-0.044355
7480.000000;-0.044361
7479.000000;-0.044324
7478.000000;-0.044226
7477.000000;-0.044113
7476.000000;-0.044075
7475.000000;-0.044125
7474.000000;-0.044181
7473.000000;-0.044174
7472.000000;-0.044121
7471.000000;-0.044080
7470.000000;-0.044091
7469.000000;-0.044161
7468.000000;-0.044259
7467.000000;-0.044309
7466.000000;-0.044265
7465.000000;-0.044169
7464.000000;-0.044108
7463.000000;-0.044102
7462.000000;-0.044115
7461.000000;-0.044139
7460.000000;-0.044193
7459.000000;-0.044266
7458.000000;-0.044312
7457.000000;-0.044310
7456.000000;-0.044270
7455.000000;-0.044194
7454.000000;-0.044112
7453.000000;-0.044105
7452.000000;-0.044212
7451.000000;-0.044340
7450.000000;-0.044357
7449.000000;-0.044253
7448.000000;-0.044130
7447.000000;-0.044044
7446.000000;-0.043979
7445.000000;-0.043937
7444.000000;-0.043937
7443.000000;-0.043935
7442.000000;-0.043873
7441.000000;-0.043810
7440.000000;-0.043874
7439.000000;-0.044045
7438.000000;-0.044162
7437.000000;-0.044141
7436.000000;-0.044076
7435.000000;-0.044070
7434.000000;-0.044097
7433.000000;-0.044094
7432.000000;-0.044070
7431.000000;-0.044058
7430.000000;-0.044046
7429.000000;-0.044016
7428.000000;-0.043987
7427.000000;-0.043962
7426.000000;-0.043933
7425.000000;-0.043940
7424.000000;-0.044040
7423.000000;-0.044154
7422.000000;-0.044100
7421.000000;-0.043830
7420.000000;-0.043545
7419.000000;-0.043471
7418.000000;-0.043618
7417.000000;-0.043826
7416.000000;-0.043961
7415.000000;-0.043974
7414.000000;-0.043877
7413.000000;-0.043730
7412.000000;-0.043621
7411.000000;-0.043609
7410.000000;-0.043696
7409.000000;-0.043842
7408.000000;-0.043956
7407.000000;-0.043925
7406.000000;-0.043740
7405.000000;-0.043579
7404.000000;-0.043613
7403.000000;-0.043789
7402.000000;-0.043911
7401.000000;-0.043881
7400.000000;-0.043745
7399.000000;-0.043592
7398.000000;-0.043510
7397.000000;-0.043561
7396.000000;-0.043678
7395.000000;-0.043714
7394.000000;-0.043699
7393.000000;-0.043871
7392.000000;-0.044318
7391.000000;-0.044757
7390.000000;-0.044851
7389.000000;-0.044622
7388.000000;-0.044305
7387.000000;-0.043973
7386.000000;-0.043597
7385.000000;-0.043346
7384.000000;-0.043401
7383.000000;-0.043493
7382.000000;-0.043177
7381.000000;-0.042618
7380.000000;-0.042559
7379.000000;-0.043211
7378.000000;-0.043752
7377.000000;-0.043383
7376.000000;-0.042417
7375.000000;-0.041854
7374.000000;-0.042159
7373.000000;-0.042919
7372.000000;-0.043509
7371.000000;-0.043632
7370.000000;-0.043351
7369.000000;-0.043011
7368.000000;-0.043008
7367.000000;-0.043360
7366.000000;-0.043653
7365.000000;-0.043614
7364.000000;-0.043470
7363.000000;-0.043454
7362.000000;-0.043385
7361.000000;-0.043125
7360.000000;-0.043060
7359.000000;-0.043450
7358.000000;-0.043743
7357.000000;-0.043288
7356.000000;-0.042405
7355.000000;-0.042020
7354.000000;-0.042382
7353.000000;-0.042937
7352.000000;-0.043249
7351.000000;-0.043283
7350.000000;-0.042981
7349.000000;-0.042416
7348.000000;-0.042171
7347.000000;-0.042663
7346.000000;-0.043299
7345.000000;-0.043222
7344.000000;-0.042628
7343.000000;-0.042282
7342.000000;-0.042011
7341.000000;-0.040994
7340.000000;-0.039594
7339.000000;-0.039386
7338.000000;-0.040848
7337.000000;-0.042532
7336.000000;-0.043081
7335.000000;-0.042755
7334.000000;-0.042448
7333.000000;-0.042422
7332.000000;-0.042614
7331.000000;-0.043020
7330.000000;-0.043196
7329.000000;-0.042491
7328.000000;-0.041336
7327.000000;-0.041150
7326.000000;-0.042295
7325.000000;-0.043336
7324.000000;-0.043133
7323.000000;-0.042412
7322.000000;-0.042449
7321.000000;-0.043163
7320.000000;-0.043507
7319.000000;-0.043131
7318.000000;-0.042537
7317.000000;-0.042074
7316.000000;-0.041816
7315.000000;-0.041949
7314.000000;-0.042338
7313.000000;-0.042176
7312.000000;-0.041117
7311.000000;-0.040219
7310.000000;-0.040573
7309.000000;-0.041581
7308.000000;-0.041836
7307.000000;-0.041261
7306.000000;-0.041095
7305.000000;-0.041860
7304.000000;-0.042702
7303.000000;-0.042928
7302.000000;-0.042806
7301.000000;-0.042674
7300.000000;-0.042427
7299.000000;-0.042251
7298.000000;-0.042709
7297.000000;-0.043542
7296.000000;-0.043554
7295.000000;-0.042314
7294.000000;-0.041028
7293.000000;-0.040978
7292.000000;-0.041775
7291.000000;-0.042070
7290.000000;-0.041376
7289.000000;-0.040347
7288.000000;-0.039748
7287.000000;-0.039803
7286.000000;-0.040367
7285.000000;-0.041136
7284.000000;-0.041694
7283.000000;-0.041802
7282.000000;-0.041654
7281.000000;-0.041599
7280.000000;-0.041677
7279.000000;-0.041683
7278.000000;-0.041577
7277.000000;-0.041481
7276.000000;-0.041388
7275.000000;-0.041149
7274.000000;-0.040754
7273.000000;-0.040415
7272.000000;-0.040346
7271.000000;-0.040511
7270.000000;-0.040652
7269.000000;-0.040533
7268.000000;-0.040195
7267.000000;-0.039962
7266.000000;-0.040038
7265.000000;-0.040150
7264.000000;-0.039814
7263.000000;-0.039025
7262.000000;-0.038407
7261.000000;-0.038488
7260.000000;-0.039058
7259.000000;-0.039501
7258.000000;-0.039560
7257.000000;-0.039436
7256.000000;-0.039240
7255.000000;-0.038810
7254.000000;-0.038138
7253.000000;-0.037583
7252.000000;-0.037533
7251.000000;-0.037950
7250.000000;-0.038352
7249.000000;-0.038305
7248.000000;-0.037920
7247.000000;-0.037740
7246.000000;-0.037908
7245.000000;-0.037766
7244.000000;-0.036679
7243.000000;-0.035136
7242.000000;-0.034442
7241.000000;-0.035143
7240.000000;-0.036308
7239.000000;-0.036748
7238.000000;-0.036432
7237.000000;-0.036246
7236.000000;-0.036609
7235.000000;-0.036839
7234.000000;-0.036069
7233.000000;-0.034468
7232.000000;-0.033339
7231.000000;-0.033814
7230.000000;-0.035499
7229.000000;-0.036806
7228.000000;-0.036663
7227.000000;-0.035554
7226.000000;-0.034775
7225.000000;-0.035061
7224.000000;-0.036103
7223.000000;-0.037073
7222.000000;-0.037374
7221.000000;-0.036996
7220.000000;-0.036469
7219.000000;-0.036393
7218.000000;-0.036845
7217.000000;-0.037328
7216.000000;-0.037391
7215.000000;-0.037165
7214.000000;-0.037128
7213.000000;-0.037438
7212.000000;-0.037756
7211.000000;-0.037780
7210.000000;-0.037616
7209.000000;-0.037474
7208.000000;-0.037289
7207.000000;-0.036848
7206.000000;-0.036147
7205.000000;-0.035472
7204.000000;-0.035188
7203.000000;-0.035442
7202.000000;-0.036016
7201.000000;-0.036491
7200.000000;-0.036647
7199.000000;-0.036672
7198.000000;-0.036860
7197.000000;-0.037144
7196.000000;-0.037181
7195.000000;-0.036927
7194.000000;-0.036809
7193.000000;-0.037102
7192.000000;-0.037501
7191.000000;-0.037586
7190.000000;-0.037429
7189.000000;-0.037346
7188.000000;-0.037306
7187.000000;-0.037134
7186.000000;-0.037064
7185.000000;-0.037477
7184.000000;-0.038115
7183.000000;-0.038233
7182.000000;-0.037664
7181.000000;-0.037122
7180.000000;-0.037177
7179.000000;-0.037492
7178.000000;-0.037458
7177.000000;-0.037100
7176.000000;-0.036875
7175.000000;-0.036984
7174.000000;-0.037289
7173.000000;-0.037637
7172.000000;-0.037858
7171.000000;-0.037628
7170.000000;-0.036857
7169.000000;-0.035988
7168.000000;-0.035522
7167.000000;-0.035509
7166.000000;-0.035811
7165.000000;-0.036493
7164.000000;-0.037432
7163.000000;-0.038000
7162.000000;-0.037757
7161.000000;-0.037188
7160.000000;-0.037149
7159.000000;-0.037635
7158.000000;-0.037814
7157.000000;-0.037333
7156.000000;-0.036802
7155.000000;-0.036848
7154.000000;-0.037322
7153.000000;-0.037688
7152.000000;-0.037732
7151.000000;-0.037606
7150.000000;-0.037509
7149.000000;-0.037527
7148.000000;-0.037613
7147.000000;-0.037597
7146.000000;-0.037303
7145.000000;-0.036818
7144.000000;-0.036519
7143.000000;-0.036617
7142.000000;-0.036769
7141.000000;-0.036487
7140.000000;-0.035900
7139.000000;-0.035722
7138.000000;-0.036295
7137.000000;-0.037052
7136.000000;-0.037274
7135.000000;-0.037010
7134.000000;-0.036883
7133.000000;-0.037163
7132.000000;-0.037484
7131.000000;-0.037505
7130.000000;-0.037370
7129.000000;-0.037352
7128.000000;-0.037410
7127.000000;-0.037410
7126.000000;-0.037426
7125.000000;-0.037501
7124.000000;-0.037398
7123.000000;-0.037006
7122.000000;-0.036739
7121.000000;-0.037037
7120.000000;-0.037603
7119.000000;-0.037688
7118.000000;-0.037167
7117.000000;-0.036777
7116.000000;-0.037039
7115.000000;-0.037494
7114.000000;-0.037446
7113.000000;-0.036955
7112.000000;-0.036623
7111.000000;-0.036703
7110.000000;-0.036907
7109.000000;-0.036972
7108.000000;-0.036924
7107.000000;-0.036838
7106.000000;-0.036755
7105.000000;-0.036817
7104.000000;-0.037130
7103.000000;-0.037503
7102.000000;-0.037587
7101.000000;-0.037327
7100.000000;-0.037070
7099.000000;-0.037175
7098.000000;-0.037572
7097.000000;-0.037869
7096.000000;-0.037829
7095.000000;-0.037598
7094.000000;-0.037443
7093.000000;-0.037410
7092.000000;-0.037339
7091.000000;-0.037141
7090.000000;-0.036946
7089.000000;-0.036931
7088.000000;-0.037092
7087.000000;-0.037258
7086.000000;-0.037324
7085.000000;-0.037364
7084.000000;-0.037478
7083.000000;-0.037618
7082.000000;-0.037669
7081.000000;-0.037636
7080.000000;-0.037665
7079.000000;-0.037816
7078.000000;-0.037926
7077.000000;-0.037823
7076.000000;-0.037617
7075.000000;-0.037575
7074.000000;-0.037744
7073.000000;-0.037901
7072.000000;-0.037876
7071.000000;-0.037742
7070.000000;-0.037650
7069.000000;-0.037606
7068.000000;-0.037531
7067.000000;-0.037425
7066.000000;-0.037367
7065.000000;-0.037384
7064.000000;-0.037433
7063.000000;-0.037489
7062.000000;-0.037583
7061.000000;-0.037714
7060.000000;-0.037843
7059.000000;-0.037952
7058.000000;-0.038057
7057.000000;-0.038137
7056.000000;-0.038160
7055.000000;-0.038145
7054.000000;-0.038146
7053.000000;-0.038207
7052.000000;-0.038328
7051.000000;-0.038454
7050.000000;-0.038492
7049.000000;-0.038396
7048.000000;-0.038239
7047.000000;-0.038168
7046.000000;-0.038231
7045.000000;-0.038314
7044.000000;-0.038290
7043.000000;-0.038193
7042.000000;-0.038151
7041.000000;-0.038201
7040.000000;-0.038265
7039.000000;-0.038306
7038.000000;-0.038381
7037.000000;-0.038510
7036.000000;-0.038624
7035.000000;-0.038667
7034.000000;-0.038669
7033.000000;-0.038689
7032.000000;-0.038736
7031.000000;-0.038777
7030.000000;-0.038780
7029.000000;-0.038728
7028.000000;-0.038637
7027.000000;-0.038565
7026.000000;-0.038550
7025.000000;-0.038549
7024.000000;-0.038508
7023.000000;-0.038483
7022.000000;-0.038596
7021.000000;-0.038840
7020.000000;-0.039056
7019.000000;-0.039134
7018.000000;-0.039134
7017.000000;-0.039167
7016.000000;-0.039220
7015.000000;-0.039214
7014.000000;-0.039153
7013.000000;-0.039117
7012.000000;-0.039155
7011.000000;-0.039247
7010.000000;-0.039362
7009.000000;-0.039468
7008.000000;-0.039523
7007.000000;-0.039529
7006.000000;-0.039547
7005.000000;-0.039605
7004.000000;-0.039635
7003.000000;-0.039570
7002.000000;-0.039468
7001.000000;-0.039449
7000.000000;-0.039541
6999.000000;-0.039672
6998.000000;-0.039804
6997.000000;-0.039958
6996.000000;-0.040106
6995.000000;-0.040156
6994.000000;-0.040073
6993.000000;-0.039958
6992.000000;-0.039940
6991.000000;-0.040035
6990.000000;-0.040152
6989.000000;-0.040205
6988.000000;-0.040177
6987.000000;-0.040105
6986.000000;-0.040053
6985.000000;-0.040065
6984.000000;-0.040122
6983.000000;-0.040160
6982.000000;-0.040161
6981.000000;-0.040192
6980.000000;-0.040320
6979.000000;-0.040512
6978.000000;-0.040652
6977.000000;-0.040681
6976.000000;-0.040661
6975.000000;-0.040684
6974.000000;-0.040742
6973.000000;-0.040767
6972.000000;-0.040760
6971.000000;-0.040794
6970.000000;-0.040890
6969.000000;-0.040972
6968.000000;-0.040997
6967.000000;-0.041037
6966.000000;-0.041172
6965.000000;-0.041348
6964.000000;-0.041429
6963.000000;-0.041389
6962.000000;-0.041333
6961.000000;-0.041351
6960.000000;-0.041426
6959.000000;-0.041501
6958.000000;-0.041532
6957.000000;-0.041488
6956.000000;-0.041388
6955.000000;-0.041339
6954.000000;-0.041451
6953.000000;-0.041697
6952.000000;-0.041926
6951.000000;-0.042037
6950.000000;-0.042051
6949.000000;-0.042014
6948.000000;-0.041941
6947.000000;-0.041880
6946.000000;-0.041920
6945.000000;-0.042072
6944.000000;-0.042210
6943.000000;-0.042236
6942.000000;-0.042206
6941.000000;-0.042210
6940.000000;-0.042227
6939.000000;-0.042190
6938.000000;-0.042135
6937.000000;-0.042166
6936.000000;-0.042282
6935.000000;-0.042388
6934.000000;-0.042437
6933.000000;-0.042479
6932.000000;-0.042549
6931.000000;-0.042626
6930.000000;-0.042693
6929.000000;-0.042766
6928.000000;-0.042853
6927.000000;-0.042925
6926.000000;-0.042971
6925.000000;-0.043009
6924.000000;-0.043029
6923.000000;-0.042994
6922.000000;-0.042933
6921.000000;-0.042925
6920.000000;-0.042968
6919.000000;-0.042958
6918.000000;-0.042848
6917.000000;-0.042742
6916.000000;-0.042782
6915.000000;-0.042971
6914.000000;-0.043181
6913.000000;-0.043304
6912.000000;-0.043345
6911.000000;-0.043381
6910.000000;-0.043462
6909.000000;-0.043568
6908.000000;-0.043641
6907.000000;-0.043646
6906.000000;-0.043621
6905.000000;-0.043646
6904.000000;-0.043764
6903.000000;-0.043929
6902.000000;-0.044055
6901.000000;-0.044084
6900.000000;-0.044010
6899.000000;-0.043881
6898.000000;-0.043784
6897.000000;-0.043773
6896.000000;-0.043815
6895.000000;-0.043829
6894.000000;-0.043788
6893.000000;-0.043746
6892.000000;-0.043769
6891.000000;-0.043869
6890.000000;-0.044016
6889.000000;-0.044167
6888.000000;-0.044285
6887.000000;-0.044363
6886.000000;-0.044435
6885.000000;-0.044539
6884.000000;-0.044658
6883.000000;-0.044739
6882.000000;-0.044764
6881.000000;-0.044774
6880.000000;-0.044804
6879.000000;-0.044836
6878.000000;-0.044835
6877.000000;-0.044803
6876.000000;-0.044790
6875.000000;-0.044851
6874.000000;-0.044989
6873.000000;-0.045153
6872.000000;-0.045275
6871.000000;-0.045329
6870.000000;-0.045326
6869.000000;-0.045290
6868.000000;-0.045242
6867.000000;-0.045208
6866.000000;-0.045218
6865.000000;-0.045265
6864.000000;-0.045314
6863.000000;-0.045342
6862.000000;-0.045365
6861.000000;-0.045407
6860.000000;-0.045469
6859.000000;-0.045542
6858.000000;-0.045616
6857.000000;-0.045671
6856.000000;-0.045682
6855.000000;-0.045660
6854.000000;-0.045664
6853.000000;-0.045748
6852.000000;-0.045894
6851.000000;-0.046024
6850.000000;-0.046069
6849.000000;-0.046028
6848.000000;-0.045957
6847.000000;-0.045909
6846.000000;-0.045895
6845.000000;-0.045887
6844.000000;-0.045862
6843.000000;-0.045841
6842.000000;-0.045866
6841.000000;-0.045946
6840.000000;-0.046049
6839.000000;-0.046157
6838.000000;-0.046278
6837.000000;-0.046395
6836.000000;-0.046457
6835.000000;-0.046458
6834.000000;-0.046467
6833.000000;-0.046544
6832.000000;-0.046646
6831.000000;-0.046689
6830.000000;-0.046657
6829.000000;-0.046614
6828.000000;-0.046600
6827.000000;-0.046596
6826.000000;-0.046594
6825.000000;-0.046629
6824.000000;-0.046712
6823.000000;-0.046794
6822.000000;-0.046829
6821.000000;-0.046836
6820.000000;-0.046867
6819.000000;-0.046934
6818.000000;-0.047011
6817.000000;-0.047087
6816.000000;-0.047175
6815.000000;-0.047273
6814.000000;-0.047357
6813.000000;-0.047403
6812.000000;-0.047410
6811.000000;-0.047392
6810.000000;-0.047374
6809.000000;-0.047393
6808.000000;-0.047465
6807.000000;-0.047553
6806.000000;-0.047595
6805.000000;-0.047575
6804.000000;-0.047556
6803.000000;-0.047605
6802.000000;-0.047700
6801.000000;-0.047750
6800.000000;-0.047715
6799.000000;-0.047668
6798.000000;-0.047714
6797.000000;-0.047867
6796.000000;-0.048037
6795.000000;-0.048123
6794.000000;-0.048104
6793.000000;-0.048034
6792.000000;-0.047995
6791.000000;-0.048041
6790.000000;-0.048159
6789.000000;-0.048272
6788.000000;-0.048302
6787.000000;-0.048253
6786.000000;-0.048210
6785.000000;-0.048245
6784.000000;-0.048342
6783.000000;-0.048441
6782.000000;-0.048515
6781.000000;-0.048583
6780.000000;-0.048659
6779.000000;-0.048721
6778.000000;-0.048742
6777.000000;-0.048731
6776.000000;-0.048737
6775.000000;-0.048805
6774.000000;-0.048917
6773.000000;-0.048995
6772.000000;-0.048986
6771.000000;-0.048933
6770.000000;-0.048923
6769.000000;-0.048975
6768.000000;-0.049026
6767.000000;-0.049042
6766.000000;-0.049074
6765.000000;-0.049171
6764.000000;-0.049289
6763.000000;-0.049351
6762.000000;-0.049346
6761.000000;-0.049319
6760.000000;-0.049303
6759.000000;-0.049306
6758.000000;-0.049339
6757.000000;-0.049401
6756.000000;-0.049460
6755.000000;-0.049497
6754.000000;-0.049561
6753.000000;-0.049700
6752.000000;-0.049873
6751.000000;-0.049989
6750.000000;-0.050021
6749.000000;-0.050023
6748.000000;-0.050039
6747.000000;-0.050060
6746.000000;-0.050063
6745.000000;-0.050055
6744.000000;-0.050046
6743.000000;-0.050030
6742.000000;-0.050014
6741.000000;-0.050024
6740.000000;-0.050063
6739.000000;-0.050108
6738.000000;-0.050142
6737.000000;-0.050179
6736.000000;-0.050230
6735.000000;-0.050276
6734.000000;-0.050297
6733.000000;-0.050301
6732.000000;-0.050315
6731.000000;-0.050362
6730.000000;-0.050442
6729.000000;-0.050529
6728.000000;-0.050590
6727.000000;-0.050615
6726.000000;-0.050632
6725.000000;-0.050671
6724.000000;-0.050723
6723.000000;-0.050758
6722.000000;-0.050775
6721.000000;-0.050794
6720.000000;-0.050815
6719.000000;-0.050818
6718.000000;-0.050813
6717.000000;-0.050837
6716.000000;-0.050910
6715.000000;-0.051003
6714.000000;-0.051089
6713.000000;-0.051157
6712.000000;-0.051217
6711.000000;-0.051248
6710.000000;-0.051240
6709.000000;-0.051235
6708.000000;-0.051265
6707.000000;-0.051300
6706.000000;-0.051315
6705.000000;-0.051330
6704.000000;-0.051360
6703.000000;-0.051305
6702.000000;-0.051387
6701.000000;-0.051491
6700.000000;-0.051604
6699.000000;-0.051698
6698.000000;-0.051749
6697.000000;-0.051750
6696.000000;-0.051719
6695.000000;-0.051682
6694.000000;-0.051663
6693.000000;-0.051670
6692.000000;-0.051688
6691.000000;-0.051696
6690.000000;-0.051684
6689.000000;-0.051670
6688.000000;-0.051679
6687.000000;-0.051726
6686.000000;-0.051804
6685.000000;-0.051890
6684.000000;-0.051959
6683.000000;-0.051998
6682.000000;-0.052009
6681.000000;-0.052006
6680.000000;-0.051999
6679.000000;-0.051997
6678.000000;-0.052011
6677.000000;-0.052047
6676.000000;-0.052099
6675.000000;-0.052154
6674.000000;-0.052202
6673.000000;-0.052234
6672.000000;-0.052239
6671.000000;-0.052217
6670.000000;-0.052196
6669.000000;-0.052214
6668.000000;-0.052291
6667.000000;-0.052406
6666.000000;-0.052518
6665.000000;-0.052588
6664.000000;-0.052610
6663.000000;-0.052608
6662.000000;-0.052617
6661.000000;-0.052633
6660.000000;-0.052629
6659.000000;-0.052604
6658.000000;-0.052594
6657.000000;-0.052621
6656.000000;-0.052661
6655.000000;-0.052683
6654.000000;-0.052696
6653.000000;-0.052729
6652.000000;-0.052775
6651.000000;-0.052806
6650.000000;-0.052819
6649.000000;-0.052836
6648.000000;-0.052861
6647.000000;-0.052879
6646.000000;-0.052889
6645.000000;-0.052912
6644.000000;-0.052946
6643.000000;-0.052961
6642.000000;-0.052952
6641.000000;-0.052947
6640.000000;-0.052976
6639.000000;-0.053029
6638.000000;-0.053076
6637.000000;-0.053102
6636.000000;-0.053114
6635.000000;-0.053122
6634.000000;-0.053124
6633.000000;-0.053110
6632.000000;-0.053077
6631.000000;-0.053053
6630.000000;-0.053080
6629.000000;-0.053169
6628.000000;-0.053281
6627.000000;-0.053365
6626.000000;-0.053413
6625.000000;-0.053452
6624.000000;-0.053494
6623.000000;-0.053521
6622.000000;-0.053515
6621.000000;-0.053484
6620.000000;-0.053447
6619.000000;-0.053419
6618.000000;-0.053410
6617.000000;-0.053425
6616.000000;-0.053452
6615.000000;-0.053476
6614.000000;-0.053492
6613.000000;-0.053506
6612.000000;-0.053521
6611.000000;-0.053529
6610.000000;-0.053530
6609.000000;-0.053540
6608.000000;-0.053572
6607.000000;-0.053628
6606.000000;-0.053702
6605.000000;-0.053788
6604.000000;-0.053872
6603.000000;-0.053936
6602.000000;-0.053970
6601.000000;-0.053979
6600.000000;-0.053970
6599.000000;-0.053954
6598.000000;-0.053948
6597.000000;-0.053960
6596.000000;-0.053981
6595.000000;-0.053991
6594.000000;-0.053974
6593.000000;-0.053924
6592.000000;-0.053850
6591.000000;-0.053778
6590.000000;-0.053753
6589.000000;-0.053791
6588.000000;-0.053866
6587.000000;-0.053940
6586.000000;-0.054009
6585.000000;-0.054086
6584.000000;-0.054160
6583.000000;-0.054201
6582.000000;-0.054210
6581.000000;-0.054226
6580.000000;-0.054265
6579.000000;-0.054301
6578.000000;-0.054304
6577.000000;-0.054295
6576.000000;-0.054317
6575.000000;-0.054386
6574.000000;-0.054467
6573.000000;-0.054514
6572.000000;-0.054505
6571.000000;-0.054458
6570.000000;-0.054413
6569.000000;-0.054406
6568.000000;-0.054443
6567.000000;-0.054498
6566.000000;-0.054536
6565.000000;-0.054538
6564.000000;-0.054520
6563.000000;-0.054518
6562.000000;-0.054551
6561.000000;-0.054606
6560.000000;-0.054649
6559.000000;-0.054662
6558.000000;-0.054660
6557.000000;-0.054662
6556.000000;-0.054660
6555.000000;-0.054641
6554.000000;-0.054606
6553.000000;-0.054571
6552.000000;-0.054557
6551.000000;-0.054573
6550.000000;-0.054620
6549.000000;-0.054676
6548.000000;-0.054709
6547.000000;-0.054712
6546.000000;-0.054715
6545.000000;-0.054754
6544.000000;-0.054819
6543.000000;-0.054864
6542.000000;-0.054862
6541.000000;-0.054830
6540.000000;-0.054803
6539.000000;-0.054798
6538.000000;-0.054804
6537.000000;-0.054795
6536.000000;-0.054759
6535.000000;-0.054707
6534.000000;-0.054663
6533.000000;-0.054648
6532.000000;-0.054661
6531.000000;-0.054697
6530.000000;-0.054751
6529.000000;-0.054806
6528.000000;-0.054841
6527.000000;-0.054853
6526.000000;-0.054860
6525.000000;-0.054882
6524.000000;-0.054918
6523.000000;-0.054959
6522.000000;-0.055001
6521.000000;-0.055039
6520.000000;-0.055065
6519.000000;-0.055078
6518.000000;-0.055085
6517.000000;-0.055094
6516.000000;-0.055110
6515.000000;-0.055144
6514.000000;-0.055201
6513.000000;-0.055259
6512.000000;-0.055289
6511.000000;-0.055291
6510.000000;-0.055300
6509.000000;-0.055324
6508.000000;-0.055324
6507.000000;-0.055273
6506.000000;-0.055196
6505.000000;-0.055136
6504.000000;-0.055098
6503.000000;-0.055063
6502.000000;-0.055038
6501.000000;-0.055050
6500.000000;-0.055101
6499.000000;-0.055165
6498.000000;-0.055218
6497.000000;-0.055244
6496.000000;-0.055235
6495.000000;-0.055200
6494.000000;-0.055165
6493.000000;-0.055151
6492.000000;-0.055145
6491.000000;-0.055138
6490.000000;-0.055144
6489.000000;-0.055180
6488.000000;-0.055227
6487.000000;-0.055255
6486.000000;-0.055273
6485.000000;-0.055314
6484.000000;-0.055376
6483.000000;-0.055418
6482.000000;-0.055415
6481.000000;-0.055386
6480.000000;-0.055358
6479.000000;-0.055340
6478.000000;-0.055335
6477.000000;-0.055346
6476.000000;-0.055368
6475.000000;-0.055385
6474.000000;-0.055386
6473.000000;-0.055371
6472.000000;-0.055344
6471.000000;-0.055308
6470.000000;-0.055278
6469.000000;-0.055270
6468.000000;-0.055285
6467.000000;-0.055310
6466.000000;-0.055329
6465.000000;-0.055333
6464.000000;-0.055314
6463.000000;-0.055279
6462.000000;-0.055244
6461.000000;-0.055218
6460.000000;-0.055189
6459.000000;-0.055153
6458.000000;-0.055140
6457.000000;-0.055178
6456.000000;-0.055248
6455.000000;-0.055299
6454.000000;-0.055305
6453.000000;-0.055282
6452.000000;-0.055252
6451.000000;-0.055222
6450.000000;-0.055198
6449.000000;-0.055188
6448.000000;-0.055203
6447.000000;-0.055242
6446.000000;-0.055297
6445.000000;-0.055352
6444.000000;-0.055386
6443.000000;-0.055394
6442.000000;-0.055392
6441.000000;-0.055389
6440.000000;-0.055365
6439.000000;-0.055307
6438.000000;-0.055239
6437.000000;-0.055202
6436.000000;-0.055204
6435.000000;-0.055223
6434.000000;-0.055239
6433.000000;-0.055250
6432.000000;-0.055253
6431.000000;-0.055243
6430.000000;-0.055225
6429.000000;-0.055203
6428.000000;-0.055175
6427.000000;-0.055137
6426.000000;-0.055107
6425.000000;-0.055109
6424.000000;-0.055140
6423.000000;-0.055177
6422.000000;-0.055207
6421.000000;-0.055226
6420.000000;-0.055229
6419.000000;-0.055211
6418.000000;-0.055186
6417.000000;-0.055172
6416.000000;-0.055170
6415.000000;-0.055171
6414.000000;-0.055181
6413.000000;-0.055209
6412.000000;-0.055241
6411.000000;-0.055254
6410.000000;-0.055242
6409.000000;-0.055215
6408.000000;-0.055177
6407.000000;-0.055135
6406.000000;-0.055111
6405.000000;-0.055119
6404.000000;-0.055139
6403.000000;-0.055138
6402.000000;-0.055116
6401.000000;-0.055096
6400.000000;-0.055087
6399.000000;-0.055074
6398.000000;-0.055066
6397.000000;-0.055083
6396.000000;-0.055120
6395.000000;-0.055137
6394.000000;-0.055110
6393.000000;-0.055063
6392.000000;-0.055038
6391.000000;-0.055049
6390.000000;-0.055075
6389.000000;-0.055095
6388.000000;-0.055102
6387.000000;-0.055103
6386.000000;-0.055101
6385.000000;-0.055085
6384.000000;-0.055040
6383.000000;-0.054971
6382.000000;-0.054909
6381.000000;-0.054873
6380.000000;-0.054847
6379.000000;-0.054807
6378.000000;-0.054756
6377.000000;-0.054720
6376.000000;-0.054714
6375.000000;-0.054733
6374.000000;-0.054771
6373.000000;-0.054816
6372.000000;-0.054846
6371.000000;-0.054848
6370.000000;-0.054843
6369.000000;-0.054872
6368.000000;-0.054944
6367.000000;-0.055029
6366.000000;-0.055089
6365.000000;-0.055109
6364.000000;-0.055098
6363.000000;-0.055078
6362.000000;-0.055066
6361.000000;-0.055059
6360.000000;-0.055038
6359.000000;-0.054988
6358.000000;-0.054917
6357.000000;-0.054850
6356.000000;-0.054798
6355.000000;-0.054768
6354.000000;-0.054757
6353.000000;-0.054753
6352.000000;-0.054735
6351.000000;-0.054706
6350.000000;-0.054707
6349.000000;-0.054765
6348.000000;-0.054854
6347.000000;-0.054909
6346.000000;-0.054899
6345.000000;-0.054839
6344.000000;-0.054766
6343.000000;-0.054708
6342.000000;-0.054676
6341.000000;-0.054665
6340.000000;-0.054658
6339.000000;-0.054645
6338.000000;-0.054630
6337.000000;-0.054611
6336.000000;-0.054575
6335.000000;-0.054519
6334.000000;-0.054469
6333.000000;-0.054451
6332.000000;-0.054456
6331.000000;-0.054464
6330.000000;-0.054471
6329.000000;-0.054485
6328.000000;-0.054494
6327.000000;-0.054486
6326.000000;-0.054469
6325.000000;-0.054458
6324.000000;-0.054454
6323.000000;-0.054448
6322.000000;-0.054440
6321.000000;-0.054437
6320.000000;-0.054427
6319.000000;-0.054402
6318.000000;-0.054374
6317.000000;-0.054368
6316.000000;-0.054387
6315.000000;-0.054420
6314.000000;-0.054462
6313.000000;-0.054492
6312.000000;-0.054475
6311.000000;-0.054397
6310.000000;-0.054306
6309.000000;-0.054257
6308.000000;-0.054255
6307.000000;-0.054264
6306.000000;-0.054270
6305.000000;-0.054287
6304.000000;-0.054315
6303.000000;-0.054329
6302.000000;-0.054326
6301.000000;-0.054330
6300.000000;-0.054354
6299.000000;-0.054381
6298.000000;-0.054392
6297.000000;-0.054374
6296.000000;-0.054316
6295.000000;-0.054217
6294.000000;-0.054106
6293.000000;-0.054028
6292.000000;-0.054007
6291.000000;-0.054033
6290.000000;-0.054093
6289.000000;-0.054173
6288.000000;-0.054240
6287.000000;-0.054264
6286.000000;-0.054248
6285.000000;-0.054221
6284.000000;-0.054194
6283.000000;-0.054161
6282.000000;-0.054129
6281.000000;-0.054112
6280.000000;-0.054104
6279.000000;-0.054081
6278.000000;-0.054048
6277.000000;-0.054032
6276.000000;-0.054035
6275.000000;-0.054025
6274.000000;-0.053983
6273.000000;-0.053935
6272.000000;-0.053914
6271.000000;-0.053918
6270.000000;-0.053925
6269.000000;-0.053923
6268.000000;-0.053920
6267.000000;-0.053925
6266.000000;-0.053940
6265.000000;-0.053951
6264.000000;-0.053937
6263.000000;-0.053889
6262.000000;-0.053830
6261.000000;-0.053789
6260.000000;-0.053772
6259.000000;-0.053772
6258.000000;-0.053792
6257.000000;-0.053838
6256.000000;-0.053880
6255.000000;-0.053874
6254.000000;-0.053808
6253.000000;-0.053716
6252.000000;-0.053635
6251.000000;-0.053579
6250.000000;-0.053546
6249.000000;-0.053530
6248.000000;-0.053511
6247.000000;-0.053472
6246.000000;-0.053425
6245.000000;-0.053409
6244.000000;-0.053443
6243.000000;-0.053503
6242.000000;-0.053544
6241.000000;-0.053542
6240.000000;-0.053501
6239.000000;-0.053454
6238.000000;-0.053441
6237.000000;-0.053476
6236.000000;-0.053521
6235.000000;-0.053520
6234.000000;-0.053459
6233.000000;-0.053378
6232.000000;-0.053321
6231.000000;-0.053299
6230.000000;-0.053294
6229.000000;-0.053279
6228.000000;-0.053238
6227.000000;-0.053180
6226.000000;-0.053144
6225.000000;-0.053161
6224.000000;-0.053212
6223.000000;-0.053247
6222.000000;-0.053241
6221.000000;-0.053211
6220.000000;-0.053183
6219.000000;-0.053158
6218.000000;-0.053128
6217.000000;-0.053092
6216.000000;-0.053060
6215.000000;-0.053040
6214.000000;-0.053041
6213.000000;-0.053055
6212.000000;-0.053060
6211.000000;-0.053043
6210.000000;-0.053025
6209.000000;-0.053039
6208.000000;-0.053087
6207.000000;-0.053142
6206.000000;-0.053184
6205.000000;-0.053211
6204.000000;-0.053222
6203.000000;-0.053212
6202.000000;-0.053195
6201.000000;-0.053194
6200.000000;-0.053207
6199.000000;-0.053209
6198.000000;-0.053191
6197.000000;-0.053168
6196.000000;-0.053152
6195.000000;-0.053135
6194.000000;-0.053111
6193.000000;-0.053084
6192.000000;-0.053059
6191.000000;-0.053036
6190.000000;-0.053020
6189.000000;-0.053024
6188.000000;-0.053044
6187.000000;-0.053057
6186.000000;-0.053045
6185.000000;-0.053018
6184.000000;-0.052993
6183.000000;-0.052976
6182.000000;-0.052956
6181.000000;-0.052918
6180.000000;-0.052848
6179.000000;-0.052756
6178.000000;-0.052676
6177.000000;-0.052639
6176.000000;-0.052651
6175.000000;-0.052693
6174.000000;-0.052754
6173.000000;-0.052823
6172.000000;-0.052884
6171.000000;-0.052920
6170.000000;-0.052925
6169.000000;-0.052905
6168.000000;-0.052862
6167.000000;-0.052806
6166.000000;-0.052765
6165.000000;-0.052768
6164.000000;-0.052810
6163.000000;-0.052858
6162.000000;-0.052885
6161.000000;-0.052888
6160.000000;-0.052864
6159.000000;-0.052812
6158.000000;-0.052749
6157.000000;-0.052703
6156.000000;-0.052680
6155.000000;-0.052661
6154.000000;-0.052630
6153.000000;-0.052591
6152.000000;-0.052554
6151.000000;-0.052526
6150.000000;-0.052517
6149.000000;-0.052531
6148.000000;-0.052550
6147.000000;-0.052542
6146.000000;-0.052493
6145.000000;-0.052422
6144.000000;-0.052361
6143.000000;-0.052339
6142.000000;-0.052373
6141.000000;-0.052459
6140.000000;-0.052558
6139.000000;-0.052624
6138.000000;-0.052635
6137.000000;-0.052605
6136.000000;-0.052562
6135.000000;-0.052524
6134.000000;-0.052503
6133.000000;-0.052493
6132.000000;-0.052478
6131.000000;-0.052445
6130.000000;-0.052409
6129.000000;-0.052394
6128.000000;-0.052402
6127.000000;-0.052415
6126.000000;-0.052420
6125.000000;-0.052420
6124.000000;-0.052418
6123.000000;-0.052413
6122.000000;-0.052408
6121.000000;-0.052408
6120.000000;-0.052402
6119.000000;-0.052377
6118.000000;-0.052331
6117.000000;-0.052277
6116.000000;-0.052225
6115.000000;-0.052183
6114.000000;-0.052166
6113.000000;-0.052184
6112.000000;-0.052231
6111.000000;-0.052287
6110.000000;-0.052343
6109.000000;-0.052395
6108.000000;-0.052433
6107.000000;-0.052444
6106.000000;-0.052428
6105.000000;-0.052399
6104.000000;-0.052371
6103.000000;-0.052354
6102.000000;-0.052352
6101.000000;-0.052360
6100.000000;-0.052359
6099.000000;-0.052335
6098.000000;-0.052299
6097.000000;-0.052270
6096.000000;-0.052252
6095.000000;-0.052235
6094.000000;-0.052212
6093.000000;-0.052184
6092.000000;-0.052154
6091.000000;-0.052135
6090.000000;-0.052144
6089.000000;-0.052187
6088.000000;-0.052241
6087.000000;-0.052282
6086.000000;-0.052298
6085.000000;-0.052289
6084.000000;-0.052252
6083.000000;-0.052200
6082.000000;-0.052164
6081.000000;-0.052161
6080.000000;-0.052167
6079.000000;-0.052154
6078.000000;-0.052128
6077.000000;-0.052108
6076.000000;-0.052091
6075.000000;-0.052066
6074.000000;-0.052045
6073.000000;-0.052048
6072.000000;-0.052062
6071.000000;-0.052055
6070.000000;-0.052031
6069.000000;-0.052025
6068.000000;-0.052058
6067.000000;-0.052114
6066.000000;-0.052171
6065.000000;-0.052215
6064.000000;-0.052237
6063.000000;-0.052238
6062.000000;-0.052232
6061.000000;-0.052238
6060.000000;-0.052249
6059.000000;-0.052237
6058.000000;-0.052192
6057.000000;-0.052126
6056.000000;-0.052049
6055.000000;-0.051973
6054.000000;-0.051922
6053.000000;-0.051924
6052.000000;-0.051969
6051.000000;-0.052019
6050.000000;-0.052043
6049.000000;-0.052042
6048.000000;-0.052022
6047.000000;-0.051989
6046.000000;-0.051954
6045.000000;-0.051946
6044.000000;-0.051983
6043.000000;-0.052058
6042.000000;-0.052146
6041.000000;-0.052213
6040.000000;-0.052241
6039.000000;-0.052231
6038.000000;-0.052208
6037.000000;-0.052190
6036.000000;-0.052182
6035.000000;-0.052194
6034.000000;-0.052236
6033.000000;-0.052289
6032.000000;-0.052298
6031.000000;-0.052234
6030.000000;-0.052136
6029.000000;-0.052068
6028.000000;-0.052050
6027.000000;-0.052056
6026.000000;-0.052071
6025.000000;-0.052100
6024.000000;-0.052144
6023.000000;-0.052188
6022.000000;-0.052229
6021.000000;-0.052275
6020.000000;-0.052324
6019.000000;-0.052362
6018.000000;-0.052389
6017.000000;-0.052404
6016.000000;-0.052393
6015.000000;-0.052342
6014.000000;-0.052270
6013.000000;-0.052216
6012.000000;-0.052197
6011.000000;-0.052199
6010.000000;-0.052217
6009.000000;-0.052250
6008.000000;-0.052283
6007.000000;-0.052290
6006.000000;-0.052274
6005.000000;-0.052265
6004.000000;-0.052281
6003.000000;-0.052310
6002.000000;-0.052338
6001.000000;-0.052368
6000.000000;-0.052403
5999.000000;-0.052438
5998.000000;-0.052463
5997.000000;-0.052471
5996.000000;-0.052459
5995.000000;-0.052440
5994.000000;-0.052438
5993.000000;-0.052455
5992.000000;-0.052466
5991.000000;-0.052453
5990.000000;-0.052446
5989.000000;-0.052480
5988.000000;-0.052536
5987.000000;-0.052564
5986.000000;-0.052549
5985.000000;-0.052531
5984.000000;-0.052546
5983.000000;-0.052577
5982.000000;-0.052592
5981.000000;-0.052580
5980.000000;-0.052554
5979.000000;-0.052533
5978.000000;-0.052527
5977.000000;-0.052541
5976.000000;-0.052565
5975.000000;-0.052589
5974.000000;-0.052615
5973.000000;-0.052651
5972.000000;-0.052692
5971.000000;-0.052726
5970.000000;-0.052756
5969.000000;-0.052790
5968.000000;-0.052823
5967.000000;-0.052838
5966.000000;-0.052833
5965.000000;-0.052818
5964.000000;-0.052803
5963.000000;-0.052798
5962.000000;-0.052818
5961.000000;-0.052865
5960.000000;-0.052908
5959.000000;-0.052911
5958.000000;-0.052872
5957.000000;-0.052822
5956.000000;-0.052785
5955.000000;-0.052772
5954.000000;-0.052793
5953.000000;-0.052847
5952.000000;-0.052914
5951.000000;-0.052962
5950.000000;-0.052981
5949.000000;-0.052976
5948.000000;-0.052946
5947.000000;-0.052900
5946.000000;-0.052871
5945.000000;-0.052886
5944.000000;-0.052925
5943.000000;-0.052940
5942.000000;-0.052916
5941.000000;-0.052889
5940.000000;-0.052897
5939.000000;-0.052942
5938.000000;-0.053002
5937.000000;-0.053060
5936.000000;-0.053112
5935.000000;-0.053163
5934.000000;-0.053214
5933.000000;-0.053250
5932.000000;-0.053246
5931.000000;-0.053207
5930.000000;-0.053172
5929.000000;-0.053173
5928.000000;-0.053196
5927.000000;-0.053219
5926.000000;-0.053254
5925.000000;-0.053329
5924.000000;-0.053429
5923.000000;-0.053503
5922.000000;-0.053521
5921.000000;-0.053494
5920.000000;-0.053454
5919.000000;-0.053431
5918.000000;-0.053450
5917.000000;-0.053517
5916.000000;-0.053598
5915.000000;-0.053651
5914.000000;-0.053666
5913.000000;-0.053654
5912.000000;-0.053618
5911.000000;-0.053568
5910.000000;-0.053541
5909.000000;-0.053573
5908.000000;-0.053649
5907.000000;-0.053711
5906.000000;-0.053726
5905.000000;-0.053709
5904.000000;-0.053697
5903.000000;-0.053713
5902.000000;-0.053770
5901.000000;-0.053855
5900.000000;-0.053934
5899.000000;-0.053978
5898.000000;-0.054007
5897.000000;-0.054055
5896.000000;-0.054122
5895.000000;-0.054173
5894.000000;-0.054198
5893.000000;-0.054222
5892.000000;-0.054262
5891.000000;-0.054302
5890.000000;-0.054327
5889.000000;-0.054338
5888.000000;-0.054335
5887.000000;-0.054309
5886.000000;-0.054270
5885.000000;-0.054240
5884.000000;-0.054229
5883.000000;-0.054227
5882.000000;-0.054235
5881.000000;-0.054273
5880.000000;-0.054340
5879.000000;-0.054407
5878.000000;-0.054446
5877.000000;-0.054457
5876.000000;-0.054461
5875.000000;-0.054480
5874.000000;-0.054520
5873.000000;-0.054571
5872.000000;-0.054612
5871.000000;-0.054640
5870.000000;-0.054681
5869.000000;-0.054749
5868.000000;-0.054818
5867.000000;-0.054852
5866.000000;-0.054850
5865.000000;-0.054852
5864.000000;-0.054884
5863.000000;-0.054938
5862.000000;-0.054993
5861.000000;-0.055038
5860.000000;-0.055067
5859.000000;-0.055082
5858.000000;-0.055097
5857.000000;-0.055119
5856.000000;-0.055138
5855.000000;-0.055147
5854.000000;-0.055160
5853.000000;-0.055195
5852.000000;-0.055240
5851.000000;-0.055264
5850.000000;-0.055267
5849.000000;-0.055268
5848.000000;-0.055277
5847.000000;-0.055291
5846.000000;-0.055318
5845.000000;-0.055368
5844.000000;-0.055426
5843.000000;-0.055471
5842.000000;-0.055501
5841.000000;-0.055538
5840.000000;-0.055590
5839.000000;-0.055650
5838.000000;-0.055717
5837.000000;-0.055789
5836.000000;-0.055851
5835.000000;-0.055892
5834.000000;-0.055926
5833.000000;-0.055976
5832.000000;-0.056032
5831.000000;-0.056069
5830.000000;-0.056085
5829.000000;-0.056101
5828.000000;-0.056132
5827.000000;-0.056181
5826.000000;-0.056260
5825.000000;-0.056372
5824.000000;-0.056491
5823.000000;-0.056573
5822.000000;-0.056610
5821.000000;-0.056620
5820.000000;-0.056618
5819.000000;-0.056603
5818.000000;-0.056588
5817.000000;-0.056594
5816.000000;-0.056625
5815.000000;-0.056675
5814.000000;-0.056746
5813.000000;-0.056832
5812.000000;-0.056899
5811.000000;-0.056912
5810.000000;-0.056878
5809.000000;-0.056849
5808.000000;-0.056856
5807.000000;-0.056896
5806.000000;-0.056953
5805.000000;-0.057018
5804.000000;-0.057082
5803.000000;-0.057146
5802.000000;-0.057228
5801.000000;-0.057333
5800.000000;-0.057430
5799.000000;-0.057476
5798.000000;-0.057472
5797.000000;-0.057462
5796.000000;-0.057486
5795.000000;-0.057553
5794.000000;-0.057653
5793.000000;-0.057764
5792.000000;-0.057852
5791.000000;-0.057902
5790.000000;-0.057943
5789.000000;-0.058005
5788.000000;-0.058073
5787.000000;-0.058113
5786.000000;-0.058126
5785.000000;-0.058150
5784.000000;-0.058200
5783.000000;-0.058255
5782.000000;-0.058311
5781.000000;-0.058389
5780.000000;-0.058491
5779.000000;-0.058592
5778.000000;-0.058671
5777.000000;-0.058733
5776.000000;-0.058786
5775.000000;-0.058824
5774.000000;-0.058849
5773.000000;-0.058881
5772.000000;-0.058931
5771.000000;-0.058992
5770.000000;-0.059057
5769.000000;-0.059123
5768.000000;-0.059188
5767.000000;-0.059248
5766.000000;-0.059312
5765.000000;-0.059389
5764.000000;-0.059471
5763.000000;-0.059546
5762.000000;-0.059615
5761.000000;-0.059679
5760.000000;-0.059730
5759.000000;-0.059763
5758.000000;-0.059800
5757.000000;-0.059863
5756.000000;-0.059940
5755.000000;-0.060004
5754.000000;-0.060053
5753.000000;-0.060102
5752.000000;-0.060161
5751.000000;-0.060230
5750.000000;-0.060323
5749.000000;-0.060448
5748.000000;-0.060577
5747.000000;-0.060679
5746.000000;-0.060746
5745.000000;-0.060788
5744.000000;-0.060805
5743.000000;-0.060811
5742.000000;-0.060850
5741.000000;-0.060949
5740.000000;-0.061067
5739.000000;-0.061148
5738.000000;-0.061197
5737.000000;-0.061258
5736.000000;-0.061336
5735.000000;-0.061395
5734.000000;-0.061417
5733.000000;-0.061434
5732.000000;-0.061472
5731.000000;-0.061538
5730.000000;-0.061633
5729.000000;-0.061762
5728.000000;-0.061900
5727.000000;-0.062008
5726.000000;-0.062076
5725.000000;-0.062130
5724.000000;-0.062186
5723.000000;-0.062247
5722.000000;-0.062315
5721.000000;-0.062390
5720.000000;-0.062449
5719.000000;-0.062477
5718.000000;-0.062497
5717.000000;-0.062543
5716.000000;-0.062616
5715.000000;-0.062698
5714.000000;-0.062800
5713.000000;-0.062947
5712.000000;-0.063113
5711.000000;-0.063234
5710.000000;-0.063286
5709.000000;-0.063307
5708.000000;-0.063339
5707.000000;-0.063396
5706.000000;-0.063474
5705.000000;-0.063579
5704.000000;-0.063696
5703.000000;-0.063802
5702.000000;-0.063886
5701.000000;-0.063959
5700.000000;-0.064025
5699.000000;-0.064085
5698.000000;-0.064180
5697.000000;-0.064263
5696.000000;-0.064350
5695.000000;-0.064437
5694.000000;-0.064533
5693.000000;-0.064644
5692.000000;-0.064750
5691.000000;-0.064835
5690.000000;-0.064914
5689.000000;-0.065006
5688.000000;-0.065092
5687.000000;-0.065141
5686.000000;-0.065169
5685.000000;-0.065224
5684.000000;-0.065320
5683.000000;-0.065430
5682.000000;-0.065540
5681.000000;-0.065658
5680.000000;-0.065782
5679.000000;-0.065893
5678.000000;-0.065983
5677.000000;-0.066056
5676.000000;-0.066105
5675.000000;-0.066133
5674.000000;-0.066176
5673.000000;-0.066267
5672.000000;-0.066386
5671.000000;-0.066486
5670.000000;-0.066558
5669.000000;-0.066638
5668.000000;-0.066747
5667.000000;-0.066870
5666.000000;-0.066982
5665.000000;-0.067072
5664.000000;-0.067137
5663.000000;-0.067186
5662.000000;-0.067251
5661.000000;-0.067352
5660.000000;-0.067462
5659.000000;-0.067544
5658.000000;-0.067601
5657.000000;-0.067665
5656.000000;-0.067748
5655.000000;-0.067842
5654.000000;-0.067949
5653.000000;-0.068073
5652.000000;-0.068190
5651.000000;-0.068282
5650.000000;-0.068369
5649.000000;-0.068475
5648.000000;-0.068580
5647.000000;-0.068651
5646.000000;-0.068703
5645.000000;-0.068776
5644.000000;-0.068872
5643.000000;-0.068961
5642.000000;-0.069034
5641.000000;-0.069107
5640.000000;-0.069177
5639.000000;-0.069230
5638.000000;-0.069280
5637.000000;-0.069361
5636.000000;-0.069469
5635.000000;-0.069574
5634.000000;-0.069672
5633.000000;-0.069787
5632.000000;-0.069916
5631.000000;-0.070036
5630.000000;-0.070149
5629.000000;-0.070266
5628.000000;-0.070368
5627.000000;-0.070428
5626.000000;-0.070465
5625.000000;-0.070524
5624.000000;-0.070608
5623.000000;-0.070679
5622.000000;-0.070735
5621.000000;-0.070814
5620.000000;-0.070934
5619.000000;-0.071069
5618.000000;-0.071197
5617.000000;-0.071316
5616.000000;-0.071424
5615.000000;-0.071524
5614.000000;-0.071640
5613.000000;-0.071787
5612.000000;-0.071935
5611.000000;-0.072041
5610.000000;-0.072113
5609.000000;-0.072191
5608.000000;-0.072282
5607.000000;-0.072358
5606.000000;-0.072413
5605.000000;-0.072463
5604.000000;-0.072512
5603.000000;-0.072558
5602.000000;-0.072625
5601.000000;-0.072743
5600.000000;-0.072892
5599.000000;-0.073021
5598.000000;-0.073112
5597.000000;-0.073182
5596.000000;-0.073237
5595.000000;-0.073283
5594.000000;-0.073354
5593.000000;-0.073473
5592.000000;-0.073614
5591.000000;-0.073738
5590.000000;-0.073859
5589.000000;-0.073995
5588.000000;-0.074115
5587.000000;-0.074171
5586.000000;-0.074191
5585.000000;-0.074243
5584.000000;-0.074342
5583.000000;-0.074459
5582.000000;-0.074593
5581.000000;-0.074764
5580.000000;-0.074948
5579.000000;-0.075093
5578.000000;-0.075204
5577.000000;-0.075326
5576.000000;-0.075454
5575.000000;-0.075553
5574.000000;-0.075635
5573.000000;-0.075747
5572.000000;-0.075885
5571.000000;-0.076001
5570.000000;-0.076094
5569.000000;-0.076209
5568.000000;-0.076334
5567.000000;-0.076407
5566.000000;-0.076425
5565.000000;-0.076458
5564.000000;-0.076537
5563.000000;-0.076620
5562.000000;-0.076691
5561.000000;-0.076789
5560.000000;-0.076931
5559.000000;-0.077073
5558.000000;-0.077187
5557.000000;-0.077304
5556.000000;-0.077447
5555.000000;-0.077592
5554.000000;-0.077721
5553.000000;-0.077863
5552.000000;-0.078036
5551.000000;-0.078209
5550.000000;-0.078349
5549.000000;-0.078466
5548.000000;-0.078581
5547.000000;-0.078706
5546.000000;-0.078852
5545.000000;-0.079017
5544.000000;-0.079152
5543.000000;-0.079214
5542.000000;-0.079236
5541.000000;-0.079306
5540.000000;-0.079443
5539.000000;-0.079577
5538.000000;-0.079663
5537.000000;-0.079743
5536.000000;-0.079856
5535.000000;-0.079967
5534.000000;-0.080033
5533.000000;-0.080078
5532.000000;-0.080162
5531.000000;-0.080297
5530.000000;-0.080451
5529.000000;-0.080593
5528.000000;-0.080704
5527.000000;-0.080806
5526.000000;-0.080958
5525.000000;-0.081176
5524.000000;-0.081385
5523.000000;-0.081500
5522.000000;-0.081542
5521.000000;-0.081624
5520.000000;-0.081777
5519.000000;-0.081903
5518.000000;-0.081941
5517.000000;-0.081964
5516.000000;-0.082074
5515.000000;-0.082270
5514.000000;-0.082460
5513.000000;-0.082602
5512.000000;-0.082740
5511.000000;-0.082903
5510.000000;-0.083061
5509.000000;-0.083181
5508.000000;-0.083289
5507.000000;-0.083448
5506.000000;-0.083654
5505.000000;-0.083799
5504.000000;-0.083825
5503.000000;-0.083852
5502.000000;-0.084032
5501.000000;-0.084341
5500.000000;-0.084559
5499.000000;-0.084550
5498.000000;-0.084501
5497.000000;-0.084642
5496.000000;-0.084884
5495.000000;-0.084946
5494.000000;-0.084794
5493.000000;-0.084729
5492.000000;-0.084956
5491.000000;-0.085257
5490.000000;-0.085332
5489.000000;-0.085233
5488.000000;-0.085265
5487.000000;-0.085545
5486.000000;-0.085896
5485.000000;-0.086116
5484.000000;-0.086227
5483.000000;-0.086352
5482.000000;-0.086440
5481.000000;-0.086416
5480.000000;-0.086420
5479.000000;-0.086631
5478.000000;-0.086963
5477.000000;-0.087117
5476.000000;-0.087004
5475.000000;-0.086955
5474.000000;-0.087253
5473.000000;-0.087666
5472.000000;-0.087819
5471.000000;-0.087768
5470.000000;-0.087873
5469.000000;-0.088260
5468.000000;-0.088639
5467.000000;-0.088741
5466.000000;-0.088708
5465.000000;-0.088785
5464.000000;-0.088936
5463.000000;-0.089008
5462.000000;-0.088989
5461.000000;-0.089005
5460.000000;-0.089156
5459.000000;-0.089416
5458.000000;-0.089687
5457.000000;-0.089881
5456.000000;-0.089968
5455.000000;-0.090068
5454.000000;-0.090354
5453.000000;-0.090717
5452.000000;-0.090819
5451.000000;-0.090600
5450.000000;-0.090436
5449.000000;-0.090632
5448.000000;-0.090915
5447.000000;-0.090814
5446.000000;-0.090498
5445.000000;-0.090569
5444.000000;-0.091118
5443.000000;-0.091604
5442.000000;-0.091635
5441.000000;-0.091445
5440.000000;-0.091546
5439.000000;-0.092028
5438.000000;-0.092463
5437.000000;-0.092525
5436.000000;-0.092295
5435.000000;-0.092113
5434.000000;-0.092292
5433.000000;-0.092765
5432.000000;-0.093123
5431.000000;-0.093108
5430.000000;-0.092896
5429.000000;-0.092886
5428.000000;-0.093255
5427.000000;-0.093781
5426.000000;-0.094167
5425.000000;-0.094356
5424.000000;-0.094481
5423.000000;-0.094704
5422.000000;-0.095072
5421.000000;-0.095368
5420.000000;-0.095352
5419.000000;-0.095164
5418.000000;-0.095134
5417.000000;-0.095238
5416.000000;-0.095090
5415.000000;-0.094575
5414.000000;-0.094213
5413.000000;-0.094481
5412.000000;-0.095085
5411.000000;-0.095425
5410.000000;-0.095496
5409.000000;-0.095770
5408.000000;-0.096364
5407.000000;-0.096910
5406.000000;-0.097170
5405.000000;-0.097358
5404.000000;-0.097681
5403.000000;-0.097949
5402.000000;-0.098045
5401.000000;-0.098137
5400.000000;-0.098228
5399.000000;-0.098178
5398.000000;-0.098054
5397.000000;-0.098080
5396.000000;-0.098247
5395.000000;-0.098253
5394.000000;-0.098091
5393.000000;-0.098143
5392.000000;-0.098515
5391.000000;-0.098846
5390.000000;-0.098936
5389.000000;-0.099035
5388.000000;-0.099359
5387.000000;-0.099703
5386.000000;-0.099829
5385.000000;-0.099956
5384.000000;-0.100268
5383.000000;-0.100415
5382.000000;-0.100192
5381.000000;-0.100023
5380.000000;-0.100242
5379.000000;-0.100535
5378.000000;-0.100468
5377.000000;-0.100263
5376.000000;-0.100441
5375.000000;-0.100899
5374.000000;-0.101132
5373.000000;-0.101142
5372.000000;-0.101367
5371.000000;-0.101883
5370.000000;-0.102301
5369.000000;-0.102450
5368.000000;-0.102615
5367.000000;-0.102923
5366.000000;-0.103104
5365.000000;-0.103077
5364.000000;-0.103125
5363.000000;-0.103365
5362.000000;-0.103588
5361.000000;-0.103612
5360.000000;-0.103496
5359.000000;-0.103364
5358.000000;-0.103287
5357.000000;-0.103342
5356.000000;-0.103532
5355.000000;-0.103616
5354.000000;-0.103395
5353.000000;-0.103163
5352.000000;-0.103309
5351.000000;-0.103543
5350.000000;-0.103372
5349.000000;-0.103050
5348.000000;-0.103218
5347.000000;-0.103811
5346.000000;-0.104018
5345.000000;-0.103518
5344.000000;-0.103065
5343.000000;-0.103301
5342.000000;-0.103720
5341.000000;-0.103631
5340.000000;-0.103239
5339.000000;-0.103176
5338.000000;-0.103557
5337.000000;-0.103977
5336.000000;-0.104248
5335.000000;-0.104482
5334.000000;-0.104608
5333.000000;-0.104544
5332.000000;-0.104588
5331.000000;-0.104966
5330.000000;-0.105361
5329.000000;-0.105352
5328.000000;-0.105060
5327.000000;-0.105023
5326.000000;-0.105385
5325.000000;-0.105708
5324.000000;-0.105722
5323.000000;-0.105643
5322.000000;-0.105695
5321.000000;-0.105831
5320.000000;-0.105961
5319.000000;-0.106103
5318.000000;-0.106258
5317.000000;-0.106341
5316.000000;-0.106343
5315.000000;-0.106350
5314.000000;-0.106324
5313.000000;-0.106147
5312.000000;-0.105921
5311.000000;-0.105845
5310.000000;-0.105881
5309.000000;-0.105799
5308.000000;-0.105585
5307.000000;-0.105494
5306.000000;-0.105621
5305.000000;-0.105733
5304.000000;-0.105663
5303.000000;-0.105557
5302.000000;-0.105598
5301.000000;-0.105704
5300.000000;-0.105690
5299.000000;-0.105579
5298.000000;-0.105529
5297.000000;-0.105489
5296.000000;-0.105291
5295.000000;-0.105011
5294.000000;-0.104869
5293.000000;-0.104860
5292.000000;-0.104743
5291.000000;-0.104406
5290.000000;-0.104093
5289.000000;-0.104053
5288.000000;-0.104151
5287.000000;-0.104068
5286.000000;-0.103770
5285.000000;-0.103553
5284.000000;-0.103605
5283.000000;-0.103738
5282.000000;-0.103694
5281.000000;-0.103502
5280.000000;-0.103370
5279.000000;-0.103343
5278.000000;-0.103310
5277.000000;-0.103223
5276.000000;-0.103112
5275.000000;-0.103002
5274.000000;-0.102870
5273.000000;-0.102726
5272.000000;-0.102601
5271.000000;-0.102396
5270.000000;-0.101970
5269.000000;-0.101467
5268.000000;-0.101173
5267.000000;-0.101073
5266.000000;-0.100861
5265.000000;-0.100431
5264.000000;-0.100062
5263.000000;-0.100027
5262.000000;-0.100174
5261.000000;-0.100174
5260.000000;-0.100049
5259.000000;-0.100082
5258.000000;-0.100287
5257.000000;-0.100383
5256.000000;-0.100207
5255.000000;-0.099931
5254.000000;-0.099794
5253.000000;-0.099800
5252.000000;-0.099813
5251.000000;-0.099690
5250.000000;-0.099347
5249.000000;-0.098934
5248.000000;-0.098756
5247.000000;-0.098906
5246.000000;-0.099095
5245.000000;-0.099010
5244.000000;-0.098787
5243.000000;-0.098873
5242.000000;-0.099349
5241.000000;-0.099745
5240.000000;-0.099735
5239.000000;-0.099592
5238.000000;-0.099664
5237.000000;-0.099824
5236.000000;-0.099790
5235.000000;-0.099642
5234.000000;-0.099634
5233.000000;-0.099713
5232.000000;-0.099594
5231.000000;-0.099282
5230.000000;-0.099115
5229.000000;-0.099187
5228.000000;-0.099173
5227.000000;-0.098882
5226.000000;-0.098575
5225.000000;-0.098550
5224.000000;-0.098735
5223.000000;-0.098880
5222.000000;-0.098958
5221.000000;-0.099085
5220.000000;-0.099260
5219.000000;-0.099416
5218.000000;-0.099548
5217.000000;-0.099692
5216.000000;-0.099799
5215.000000;-0.099787
5214.000000;-0.099726
5213.000000;-0.099727
5212.000000;-0.099729
5211.000000;-0.099632
5210.000000;-0.099472
5209.000000;-0.099321
5208.000000;-0.099137
5207.000000;-0.098906
5206.000000;-0.098817
5205.000000;-0.099066
5204.000000;-0.099516
5203.000000;-0.099828
5202.000000;-0.099942
5201.000000;-0.100086
5200.000000;-0.100345
5199.000000;-0.100489
5198.000000;-0.100365
5197.000000;-0.100211
5196.000000;-0.100307
5195.000000;-0.100539
5194.000000;-0.100647
5193.000000;-0.100626
5192.000000;-0.100626
5191.000000;-0.100663
5190.000000;-0.100657
5189.000000;-0.100662
5188.000000;-0.100784
5187.000000;-0.100902
5186.000000;-0.100807
5185.000000;-0.100594
5184.000000;-0.100591
5183.000000;-0.100857
5182.000000;-0.101111
5181.000000;-0.101186
5180.000000;-0.101248
5179.000000;-0.101444
5178.000000;-0.101648
5177.000000;-0.101706
5176.000000;-0.101720
5175.000000;-0.101858
5174.000000;-0.102060
5173.000000;-0.102154
5172.000000;-0.102128
5171.000000;-0.102096
5170.000000;-0.102112
5169.000000;-0.102166
5168.000000;-0.102283
5167.000000;-0.102468
5166.000000;-0.102626
5165.000000;-0.102685
5164.000000;-0.102723
5163.000000;-0.102842
5162.000000;-0.102989
5161.000000;-0.103063
5160.000000;-0.103091
5159.000000;-0.103172
5158.000000;-0.103290
5157.000000;-0.103346
5156.000000;-0.103344
5155.000000;-0.103388
5154.000000;-0.103508
5153.000000;-0.103635
5152.000000;-0.103754
5151.000000;-0.103925
5150.000000;-0.104145
5149.000000;-0.104314
5148.000000;-0.104375
5147.000000;-0.104386
5146.000000;-0.104438
5145.000000;-0.104550
5144.000000;-0.104682
5143.000000;-0.104791
5142.000000;-0.104860
5141.000000;-0.104905
5140.000000;-0.104966
5139.000000;-0.105058
5138.000000;-0.105167
5137.000000;-0.105288
5136.000000;-0.105446
5135.000000;-0.105639
5134.000000;-0.105801
5133.000000;-0.105883
5132.000000;-0.105921
5131.000000;-0.105971
5130.000000;-0.106042
5129.000000;-0.106125
5128.000000;-0.106243
5127.000000;-0.106399
5126.000000;-0.106519
5125.000000;-0.106549
5124.000000;-0.106553
5123.000000;-0.106633
5122.000000;-0.106788
5121.000000;-0.106931
5120.000000;-0.107030
5119.000000;-0.107127
5118.000000;-0.107237
5117.000000;-0.107323
5116.000000;-0.107377
5115.000000;-0.107447
5114.000000;-0.107565
5113.000000;-0.107718
5112.000000;-0.107885
5111.000000;-0.108056
5110.000000;-0.108204
5109.000000;-0.108304
5108.000000;-0.108371
5107.000000;-0.108450
5106.000000;-0.108556
5105.000000;-0.108683
5104.000000;-0.108831
5103.000000;-0.108993
5102.000000;-0.109127
5101.000000;-0.109193
5100.000000;-0.109211
5099.000000;-0.109235
5098.000000;-0.109286
5097.000000;-0.109349
5096.000000;-0.109423
5095.000000;-0.109515
5094.000000;-0.109604
5093.000000;-0.109669
5092.000000;-0.109737
5091.000000;-0.109848
5090.000000;-0.109983
5089.000000;-0.110087
5088.000000;-0.110147
5087.000000;-0.110197
5086.000000;-0.110257
5085.000000;-0.110322
5084.000000;-0.110410
5083.000000;-0.110542
5082.000000;-0.110692
5081.000000;-0.110800
5080.000000;-0.110848
5079.000000;-0.110878
5078.000000;-0.110933
5077.000000;-0.111030
5076.000000;-0.111173
5075.000000;-0.111356
5074.000000;-0.111535
5073.000000;-0.111659
5072.000000;-0.111726
5071.000000;-0.111777
5070.000000;-0.111840
5069.000000;-0.111924
5068.000000;-0.112040
5067.000000;-0.112196
5066.000000;-0.112360
5065.000000;-0.112483
5064.000000;-0.112546
5063.000000;-0.112573
5062.000000;-0.112590
5061.000000;-0.112618
5060.000000;-0.112685
5059.000000;-0.112801
5058.000000;-0.112913
5057.000000;-0.112955
5056.000000;-0.112931
5055.000000;-0.112916
5054.000000;-0.112961
5053.000000;-0.113060
5052.000000;-0.113188
5051.000000;-0.113331
5050.000000;-0.113470
5049.000000;-0.113582
5048.000000;-0.113672
5047.000000;-0.113775
5046.000000;-0.113909
5045.000000;-0.114064
5044.000000;-0.114220
5043.000000;-0.114359
5042.000000;-0.114461
5041.000000;-0.114519
5040.000000;-0.114558
5039.000000;-0.114612
5038.000000;-0.114685
5037.000000;-0.114753
5036.000000;-0.114810
5035.000000;-0.114872
5034.000000;-0.114947
5033.000000;-0.115029
5032.000000;-0.115119
5031.000000;-0.115228
5030.000000;-0.115356
5029.000000;-0.115496
5028.000000;-0.115650
5027.000000;-0.115808
5026.000000;-0.115930
5025.000000;-0.115989
5024.000000;-0.116014
5023.000000;-0.116063
5022.000000;-0.116157
5021.000000;-0.116277
5020.000000;-0.116406
5019.000000;-0.116532
5018.000000;-0.116634
5017.000000;-0.116686
5016.000000;-0.116710
5015.000000;-0.116754
5014.000000;-0.116838
5013.000000;-0.116939
5012.000000;-0.117027
5011.000000;-0.117091
5010.000000;-0.117128
5009.000000;-0.117144
5008.000000;-0.117165
5007.000000;-0.117223
5006.000000;-0.117325
5005.000000;-0.117452
5004.000000;-0.117590
5003.000000;-0.117725
5002.000000;-0.117812
5001.000000;-0.117883
5000.000000;-0.117925
4999.000000;-0.117982
4998.000000;-0.118075
4997.000000;-0.118193
4996.000000;-0.118306
4995.000000;-0.118385
4994.000000;-0.118416
4993.000000;-0.118423
4992.000000;-0.118469
4991.000000;-0.118597
4990.000000;-0.118778
4989.000000;-0.118942
4988.000000;-0.119060
4987.000000;-0.119153
4986.000000;-0.119240
4985.000000;-0.119320
4984.000000;-0.119393
4983.000000;-0.119467
4982.000000;-0.119537
4981.000000;-0.119598
4980.000000;-0.119663
4979.000000;-0.119753
4978.000000;-0.119852
4977.000000;-0.119928
4976.000000;-0.119977
4975.000000;-0.120033
4974.000000;-0.120120
4973.000000;-0.120216
4972.000000;-0.120286
4971.000000;-0.120319
4970.000000;-0.120332
4969.000000;-0.120362
4968.000000;-0.120445
4967.000000;-0.120581
4966.000000;-0.120729
4965.000000;-0.120840
4964.000000;-0.120912
4963.000000;-0.120975
4962.000000;-0.121053
4961.000000;-0.121146
4960.000000;-0.121242
4959.000000;-0.121328
4958.000000;-0.121387
4957.000000;-0.121423
4956.000000;-0.121466
4955.000000;-0.121545
4954.000000;-0.121653
4953.000000;-0.121767
4952.000000;-0.121887
4951.000000;-0.122020
4950.000000;-0.122140
4949.000000;-0.122210
4948.000000;-0.122231
4947.000000;-0.122259
4946.000000;-0.122336
4945.000000;-0.122456
4944.000000;-0.122583
4943.000000;-0.122688
4942.000000;-0.122760
4941.000000;-0.122807
4940.000000;-0.122861
4939.000000;-0.122955
4938.000000;-0.123096
4937.000000;-0.123258
4936.000000;-0.123406
4935.000000;-0.123507
4934.000000;-0.123546
4933.000000;-0.123540
4932.000000;-0.123539
4931.000000;-0.123588
4930.000000;-0.123689
4929.000000;-0.123820
4928.000000;-0.123964
4927.000000;-0.124112
4926.000000;-0.124241
4925.000000;-0.124334
4924.000000;-0.124407
4923.000000;-0.124498
4922.000000;-0.124617
4921.000000;-0.124740
4920.000000;-0.124847
4919.000000;-0.124942
4918.000000;-0.125036
4917.000000;-0.125130
4916.000000;-0.125220
4915.000000;-0.125303
4914.000000;-0.125372
4913.000000;-0.125434
4912.000000;-0.125502
4911.000000;-0.125592
4910.000000;-0.125696
4909.000000;-0.125803
4908.000000;-0.125916
4907.000000;-0.126040
4906.000000;-0.126166
4905.000000;-0.126271
4904.000000;-0.126348
4903.000000;-0.126404
4902.000000;-0.126449
4901.000000;-0.126497
4900.000000;-0.126574
4899.000000;-0.126700
4898.000000;-0.126856
4897.000000;-0.127002
4896.000000;-0.127115
4895.000000;-0.127204
4894.000000;-0.127292
4893.000000;-0.127398
4892.000000;-0.127530
4891.000000;-0.127672
4890.000000;-0.127789
4889.000000;-0.127854
4888.000000;-0.127879
4887.000000;-0.127904
4886.000000;-0.127964
4885.000000;-0.128080
4884.000000;-0.128255
4883.000000;-0.128466
4882.000000;-0.128662
4881.000000;-0.128802
4880.000000;-0.128882
4879.000000;-0.128923
4878.000000;-0.128949
4877.000000;-0.128980
4876.000000;-0.129038
4875.000000;-0.129131
4874.000000;-0.129241
4873.000000;-0.129343
4872.000000;-0.129429
4871.000000;-0.129502
4870.000000;-0.129562
4869.000000;-0.129623
4868.000000;-0.129714
4867.000000;-0.129851
4866.000000;-0.130006
4865.000000;-0.130138
4864.000000;-0.130242
4863.000000;-0.130345
4862.000000;-0.130462
4861.000000;-0.130591
4860.000000;-0.130726
4859.000000;-0.130860
4858.000000;-0.130966
4857.000000;-0.131017
4856.000000;-0.131020
4855.000000;-0.131010
4854.000000;-0.131028
4853.000000;-0.131094
4852.000000;-0.131207
4851.000000;-0.131339
4850.000000;-0.131444
4849.000000;-0.131500
4848.000000;-0.131529
4847.000000;-0.131572
4846.000000;-0.131650
4845.000000;-0.131754
4844.000000;-0.131864
4843.000000;-0.131955
4842.000000;-0.132005
4841.000000;-0.132022
4840.000000;-0.132054
4839.000000;-0.132147
4838.000000;-0.132291
4837.000000;-0.132442
4836.000000;-0.132572
4835.000000;-0.132672
4834.000000;-0.132736
4833.000000;-0.132771
4832.000000;-0.132817
4831.000000;-0.132918
4830.000000;-0.133071
4829.000000;-0.133226
4828.000000;-0.133332
4827.000000;-0.133369
4826.000000;-0.133354
4825.000000;-0.133338
4824.000000;-0.133382
4823.000000;-0.133516
4822.000000;-0.133703
4821.000000;-0.133872
4820.000000;-0.133983
4819.000000;-0.134039
4818.000000;-0.134056
4817.000000;-0.134055
4816.000000;-0.134084
4815.000000;-0.134185
4814.000000;-0.134352
4813.000000;-0.134521
4812.000000;-0.134624
4811.000000;-0.134644
4810.000000;-0.134615
4809.000000;-0.134601
4808.000000;-0.134663
4807.000000;-0.134813
4806.000000;-0.135003
4805.000000;-0.135154
4804.000000;-0.135226
4803.000000;-0.135228
4802.000000;-0.135197
4801.000000;-0.135178
4800.000000;-0.135212
4799.000000;-0.135317
4798.000000;-0.135473
4797.000000;-0.135635
4796.000000;-0.135775
4795.000000;-0.135889
4794.000000;-0.135982
4793.000000;-0.136073
4792.000000;-0.136197
4791.000000;-0.136376
4790.000000;-0.136581
4789.000000;-0.136740
4788.000000;-0.136803
4787.000000;-0.136778
4786.000000;-0.136716
4785.000000;-0.136675
4784.000000;-0.136688
4783.000000;-0.136751
4782.000000;-0.136831
4781.000000;-0.136891
4780.000000;-0.136921
4779.000000;-0.136932
4778.000000;-0.136936
4777.000000;-0.136949
4776.000000;-0.136995
4775.000000;-0.137083
4774.000000;-0.137177
4773.000000;-0.137224
4772.000000;-0.137213
4771.000000;-0.137191
4770.000000;-0.137208
4769.000000;-0.137278
4768.000000;-0.137387
4767.000000;-0.137510
4766.000000;-0.137613
4765.000000;-0.137661
4764.000000;-0.137642
4763.000000;-0.137592
4762.000000;-0.137576
4761.000000;-0.137644
4760.000000;-0.137801
4759.000000;-0.138013
4758.000000;-0.138226
4757.000000;-0.138393
4756.000000;-0.138493
4755.000000;-0.138531
4754.000000;-0.138537
4753.000000;-0.138558
4752.000000;-0.138631
4751.000000;-0.138753
4750.000000;-0.138871
4749.000000;-0.138935
4748.000000;-0.138938
4747.000000;-0.138920
4746.000000;-0.138936
4745.000000;-0.139015
4744.000000;-0.139135
4743.000000;-0.139231
4742.000000;-0.139255
4741.000000;-0.139222
4740.000000;-0.139202
4739.000000;-0.139239
4738.000000;-0.139314
4737.000000;-0.139385
4736.000000;-0.139448
4735.000000;-0.139521
4734.000000;-0.139599
4733.000000;-0.139653
4732.000000;-0.139683
4731.000000;-0.139720
4730.000000;-0.139795
4729.000000;-0.139899
4728.000000;-0.139999
4727.000000;-0.140068
4726.000000;-0.140104
4725.000000;-0.140131
4724.000000;-0.140185
4723.000000;-0.140278
4722.000000;-0.140386
4721.000000;-0.140474
4720.000000;-0.140518
4719.000000;-0.140519
4718.000000;-0.140493
4717.000000;-0.140472
4716.000000;-0.140487
4715.000000;-0.140553
4714.000000;-0.140652
4713.000000;-0.140758
4712.000000;-0.140845
4711.000000;-0.140888
4710.000000;-0.140865
4709.000000;-0.140792
4708.000000;-0.140727
4707.000000;-0.140715
4706.000000;-0.140751
4705.000000;-0.140795
4704.000000;-0.140823
4703.000000;-0.140832
4702.000000;-0.140830
4701.000000;-0.140839
4700.000000;-0.140898
4699.000000;-0.141024
4698.000000;-0.141185
4697.000000;-0.141322
4696.000000;-0.141413
4695.000000;-0.141478
4694.000000;-0.141542
4693.000000;-0.141603
4692.000000;-0.141646
4691.000000;-0.141672
4690.000000;-0.141686
4689.000000;-0.141691
4688.000000;-0.141682
4687.000000;-0.141653
4686.000000;-0.141606
4685.000000;-0.141567
4684.000000;-0.141556
4683.000000;-0.141564
4682.000000;-0.141552
4681.000000;-0.141505
4680.000000;-0.141452
4679.000000;-0.141428
4678.000000;-0.141432
4677.000000;-0.141443
4676.000000;-0.141456
4675.000000;-0.141480
4674.000000;-0.141500
4673.000000;-0.141498
4672.000000;-0.141476
4671.000000;-0.141455
4670.000000;-0.141445
4669.000000;-0.141447
4668.000000;-0.141470
4667.000000;-0.141519
4666.000000;-0.141567
4665.000000;-0.141576
4664.000000;-0.141539
4663.000000;-0.141498
4662.000000;-0.141497
4661.000000;-0.141545
4660.000000;-0.141611
4659.000000;-0.141638
4658.000000;-0.141589
4657.000000;-0.141473
4656.000000;-0.141338
4655.000000;-0.141228
4654.000000;-0.141146
4653.000000;-0.141091
4652.000000;-0.141077
4651.000000;-0.141109
4650.000000;-0.141150
4649.000000;-0.141148
4648.000000;-0.141088
4647.000000;-0.140992
4646.000000;-0.140888
4645.000000;-0.140802
4644.000000;-0.140763
4643.000000;-0.140774
4642.000000;-0.140785
4641.000000;-0.140736
4640.000000;-0.140627
4639.000000;-0.140514
4638.000000;-0.140433
4637.000000;-0.140368
4636.000000;-0.140305
4635.000000;-0.140262
4634.000000;-0.140262
4633.000000;-0.140286
4632.000000;-0.140291
4631.000000;-0.140259
4630.000000;-0.140210
4629.000000;-0.140178
4628.000000;-0.140174
4627.000000;-0.140166
4626.000000;-0.140109
4625.000000;-0.139983
4624.000000;-0.139820
4623.000000;-0.139672
4622.000000;-0.139565
4621.000000;-0.139494
4620.000000;-0.139449
4619.000000;-0.139413
4618.000000;-0.139355
4617.000000;-0.139242
4616.000000;-0.139073
4615.000000;-0.138887
4614.000000;-0.138728
4613.000000;-0.138608
4612.000000;-0.138518
4611.000000;-0.138421
4610.000000;-0.138271
4609.000000;-0.138046
4608.000000;-0.137781
4607.000000;-0.137551
4606.000000;-0.137405
4605.000000;-0.137338
4604.000000;-0.137309
4603.000000;-0.137273
4602.000000;-0.137191
4601.000000;-0.137045
4600.000000;-0.136860
4599.000000;-0.136697
4598.000000;-0.136591
4597.000000;-0.136516
4596.000000;-0.136413
4595.000000;-0.136245
4594.000000;-0.136021
4593.000000;-0.135781
4592.000000;-0.135561
4591.000000;-0.135384
4590.000000;-0.135247
4589.000000;-0.135136
4588.000000;-0.135021
4587.000000;-0.134865
4586.000000;-0.134646
4585.000000;-0.134369
4584.000000;-0.134068
4583.000000;-0.133780
4582.000000;-0.133514
4581.000000;-0.133258
4580.000000;-0.132991
4579.000000;-0.132696
4578.000000;-0.132374
4577.000000;-0.132037
4576.000000;-0.131707
4575.000000;-0.131381
4574.000000;-0.131039
4573.000000;-0.130660
4572.000000;-0.130252
4571.000000;-0.129837
4570.000000;-0.129433
4569.000000;-0.129054
4568.000000;-0.128707
4567.000000;-0.128374
4566.000000;-0.128012
4565.000000;-0.127599
4564.000000;-0.127158
4563.000000;-0.126734
4562.000000;-0.126336
4561.000000;-0.125936
4560.000000;-0.125512
4559.000000;-0.125057
4558.000000;-0.124560
4557.000000;-0.124007
4556.000000;-0.123411
4555.000000;-0.122815
4554.000000;-0.122251
4553.000000;-0.121714
4552.000000;-0.121176
4551.000000;-0.120623
4550.000000;-0.120055
4549.000000;-0.119472
4548.000000;-0.118872
4547.000000;-0.118259
4546.000000;-0.117650
4545.000000;-0.117056
4544.000000;-0.116470
4543.000000;-0.115866
4542.000000;-0.115230
4541.000000;-0.114576
4540.000000;-0.113929
4539.000000;-0.113298
4538.000000;-0.112682
4537.000000;-0.112087
4536.000000;-0.111532
4535.000000;-0.111020
4534.000000;-0.110523
4533.000000;-0.110017
4532.000000;-0.109504
4531.000000;-0.109005
4530.000000;-0.108540
4529.000000;-0.108127
4528.000000;-0.107769
4527.000000;-0.107431
4526.000000;-0.107052
4525.000000;-0.106600
4524.000000;-0.106107
4523.000000;-0.105642
4522.000000;-0.105248
4521.000000;-0.104917
4520.000000;-0.104613
4519.000000;-0.104303
4518.000000;-0.103972
4517.000000;-0.103635
4516.000000;-0.103329
4515.000000;-0.103078
4514.000000;-0.102873
4513.000000;-0.102694
4512.000000;-0.102512
4511.000000;-0.102290
4510.000000;-0.101994
4509.000000;-0.101631
4508.000000;-0.101268
4507.000000;-0.100970
4506.000000;-0.100754
4505.000000;-0.100592
4504.000000;-0.100440
4503.000000;-0.100258
4502.000000;-0.100010
4501.000000;-0.099695
4500.000000;-0.099354
4499.000000;-0.099027
4498.000000;-0.098718
4497.000000;-0.098408
4496.000000;-0.098083
4495.000000;-0.097727
4494.000000;-0.097325
4493.000000;-0.096899
4492.000000;-0.096523
4491.000000;-0.096259
4490.000000;-0.096084
4489.000000;-0.095902
4488.000000;-0.095636
4487.000000;-0.095276
4486.000000;-0.094849
4485.000000;-0.094386
4484.000000;-0.093916
4483.000000;-0.093474
4482.000000;-0.093078
4481.000000;-0.092713
4480.000000;-0.092342
4479.000000;-0.091924
4478.000000;-0.091455
4477.000000;-0.090980
4476.000000;-0.090564
4475.000000;-0.090217
4474.000000;-0.089875
4473.000000;-0.089465
4472.000000;-0.088993
4471.000000;-0.088518
4470.000000;-0.088079
4469.000000;-0.087664
4468.000000;-0.087247
4467.000000;-0.086822
4466.000000;-0.086379
4465.000000;-0.085897
4464.000000;-0.085352
4463.000000;-0.084740
4462.000000;-0.084082
4461.000000;-0.083417
4460.000000;-0.082796
4459.000000;-0.082236
4458.000000;-0.081701
4457.000000;-0.081130
4456.000000;-0.080502
4455.000000;-0.079858
4454.000000;-0.079258
4453.000000;-0.078731
4452.000000;-0.078262
4451.000000;-0.077812
4450.000000;-0.077345
4449.000000;-0.076842
4448.000000;-0.076294
4447.000000;-0.075687
4446.000000;-0.075008
4445.000000;-0.074285
4444.000000;-0.073590
4443.000000;-0.072981
4442.000000;-0.072442
4441.000000;-0.071915
4440.000000;-0.071358
4439.000000;-0.070776
4438.000000;-0.070193
4437.000000;-0.069623
4436.000000;-0.069060
4435.000000;-0.068479
4434.000000;-0.067862
4433.000000;-0.067224
4432.000000;-0.066589
4431.000000;-0.065952
4430.000000;-0.065281
4429.000000;-0.064583
4428.000000;-0.063929
4427.000000;-0.063363
4426.000000;-0.062832
4425.000000;-0.062226
4424.000000;-0.061490
4423.000000;-0.060663
4422.000000;-0.059821
4421.000000;-0.059028
4420.000000;-0.058320
4419.000000;-0.057685
4418.000000;-0.057057
4417.000000;-0.056349
4416.000000;-0.055536
4415.000000;-0.054674
4414.000000;-0.053843
4413.000000;-0.053087
4412.000000;-0.052385
4411.000000;-0.051678
4410.000000;-0.050900
4409.000000;-0.050024
4408.000000;-0.049090
4407.000000;-0.048173
4406.000000;-0.047337
4405.000000;-0.046604
4404.000000;-0.045959
4403.000000;-0.045349
4402.000000;-0.044698
4401.000000;-0.043942
4400.000000;-0.043066
4399.000000;-0.042119
4398.000000;-0.041179
4397.000000;-0.040316
4396.000000;-0.039537
4395.000000;-0.038770
4394.000000;-0.037905
4393.000000;-0.036895
4392.000000;-0.035801
4391.000000;-0.034724
4390.000000;-0.033718
4389.000000;-0.032779
4388.000000;-0.031874
4387.000000;-0.030957
4386.000000;-0.029977
4385.000000;-0.028917
4384.000000;-0.027826
4383.000000;-0.026771
4382.000000;-0.025763
4381.000000;-0.024745
4380.000000;-0.023670
4379.000000;-0.022542
4378.000000;-0.021393
4377.000000;-0.020243
4376.000000;-0.019094
4375.000000;-0.017949
4374.000000;-0.016823
4373.000000;-0.015731
4372.000000;-0.014668
4371.000000;-0.013582
4370.000000;-0.012400
4369.000000;-0.011102
4368.000000;-0.009762
4367.000000;-0.008489
4366.000000;-0.007326
4365.000000;-0.006220
4364.000000;-0.005081
4363.000000;-0.003850
4362.000000;-0.002528
4361.000000;-0.001159
4360.000000;0.000209
4359.000000;0.001551
4358.000000;0.002876
4357.000000;0.004198
4356.000000;0.005520
4355.000000;0.006872
4354.000000;0.008303
4353.000000;0.009831
4352.000000;0.011393
4351.000000;0.012889
4350.000000;0.014275
4349.000000;0.015594
4348.000000;0.016922
4347.000000;0.018317
4346.000000;0.019796
4345.000000;0.021337
4344.000000;0.022903
4343.000000;0.024469
4342.000000;0.026046
4341.000000;0.027654
4340.000000;0.029281
4339.000000;0.030888
4338.000000;0.032440
4337.000000;0.033939
4336.000000;0.035428
4335.000000;0.036962
4334.000000;0.038570
4333.000000;0.040235
4332.000000;0.041938
4331.000000;0.043705
4330.000000;0.045560
4329.000000;0.047439
4328.000000;0.049205
4327.000000;0.050779
4326.000000;0.052227
4325.000000;0.053690
4324.000000;0.055250
4323.000000;0.056911
4322.000000;0.058646
4321.000000;0.060432
4320.000000;0.062237
4319.000000;0.064038
4318.000000;0.065827
4317.000000;0.067591
4316.000000;0.069310
4315.000000;0.071005
4314.000000;0.072749
4313.000000;0.074598
4312.000000;0.076510
4311.000000;0.078377
4310.000000;0.080136
4309.000000;0.081825
4308.000000;0.083567
4307.000000;0.085481
4306.000000;0.087596
4305.000000;0.089798
4304.000000;0.091902
4303.000000;0.093804
4302.000000;0.095563
4301.000000;0.097323
4300.000000;0.099179
4299.000000;0.101157
4298.000000;0.103236
4297.000000;0.105366
4296.000000;0.107481
4295.000000;0.109549
4294.000000;0.111597
4293.000000;0.113680
4292.000000;0.115825
4291.000000;0.118024
4290.000000;0.120230
4289.000000;0.122359
4288.000000;0.124362
4287.000000;0.126313
4286.000000;0.128370
4285.000000;0.130605
4284.000000;0.132941
4283.000000;0.135277
4282.000000;0.137586
4281.000000;0.139841
4280.000000;0.141961
4279.000000;0.143932
4278.000000;0.145905
4277.000000;0.148072
4276.000000;0.150460
4275.000000;0.152946
4274.000000;0.155424
4273.000000;0.157873
4272.000000;0.160276
4271.000000;0.162603
4270.000000;0.164884
4269.000000;0.167215
4268.000000;0.169660
4267.000000;0.172188
4266.000000;0.174724
4265.000000;0.177209
4264.000000;0.179631
4263.000000;0.182039
4262.000000;0.184495
4261.000000;0.187003
4260.000000;0.189508
4259.000000;0.191989
4258.000000;0.194504
4257.000000;0.197081
4256.000000;0.199631
4255.000000;0.202077
4254.000000;0.204501
4253.000000;0.207067
4252.000000;0.209811
4251.000000;0.212587
4250.000000;0.215242
4249.000000;0.217746
4248.000000;0.220173
4247.000000;0.222634
4246.000000;0.225227
4245.000000;0.227992
4244.000000;0.230894
4243.000000;0.233868
4242.000000;0.236867
4241.000000;0.239830
4240.000000;0.242671
4239.000000;0.245364
4238.000000;0.248004
4237.000000;0.250726
4236.000000;0.253585
4235.000000;0.256571
4234.000000;0.259658
4233.000000;0.262783
4232.000000;0.265834
4231.000000;0.268786
4230.000000;0.271788
4229.000000;0.275003
4228.000000;0.278384
4227.000000;0.281734
4226.000000;0.284946
4225.000000;0.288065
4224.000000;0.291160
4223.000000;0.294271
4222.000000;0.297463
4221.000000;0.300796
4220.000000;0.304215
4219.000000;0.307586
4218.000000;0.310866
4217.000000;0.314145
4216.000000;0.317513
4215.000000;0.320972
4214.000000;0.324484
4213.000000;0.328006
4212.000000;0.331487
4211.000000;0.334900
4210.000000;0.338314
4209.000000;0.341831
4208.000000;0.345464
4207.000000;0.349157
4206.000000;0.352910
4205.000000;0.356778
4204.000000;0.360732
4203.000000;0.364628
4202.000000;0.368342
4201.000000;0.371889
4200.000000;0.375423
4199.000000;0.379181
4198.000000;0.383340
4197.000000;0.387822
4196.000000;0.392281
4195.000000;0.396406
4194.000000;0.400236
4193.000000;0.404058
4192.000000;0.408064
4191.000000;0.412258
4190.000000;0.416639
4189.000000;0.421226
4188.000000;0.425877
4187.000000;0.430301
4186.000000;0.434367
4185.000000;0.438287
4184.000000;0.442396
4183.000000;0.446843
4182.000000;0.451541
4181.000000;0.456314
4180.000000;0.461009
4179.000000;0.465543
4178.000000;0.469909
4177.000000;0.474158
4176.000000;0.478389
4175.000000;0.482760
4174.000000;0.487407
4173.000000;0.492294
4172.000000;0.497198
4171.000000;0.501956
4170.000000;0.506654
4169.000000;0.511441
4168.000000;0.516266
4167.000000;0.520980
4166.000000;0.525657
4165.000000;0.530593
4164.000000;0.535921
4163.000000;0.541394
4162.000000;0.546581
4161.000000;0.551207
4160.000000;0.555376
4159.000000;0.559558
4158.000000;0.564283
4157.000000;0.569663
4156.000000;0.575259
4155.000000;0.580572
4154.000000;0.585584
4153.000000;0.590598
4152.000000;0.595700
4151.000000;0.600702
4150.000000;0.605593
4149.000000;0.610610
4148.000000;0.615812
4147.000000;0.620937
4146.000000;0.625862
4145.000000;0.630870
4144.000000;0.636235
4143.000000;0.641775
4142.000000;0.647082
4141.000000;0.652014
4140.000000;0.656714
4139.000000;0.661240
4138.000000;0.665485
4137.000000;0.669467
4136.000000;0.673523
4135.000000;0.678069
4134.000000;0.683183
4133.000000;0.688457
4132.000000;0.693335
4131.000000;0.697716
4130.000000;0.702149
4129.000000;0.707282
4128.000000;0.713096
4127.000000;0.718830
4126.000000;0.723725
4125.000000;0.727718
4124.000000;0.731363
4123.000000;0.735214
4122.000000;0.739365
4121.000000;0.743465
4120.000000;0.747116
4119.000000;0.750324
4118.000000;0.753573
4117.000000;0.757360
4116.000000;0.761656
4115.000000;0.765910
4114.000000;0.769576
4113.000000;0.772531
4112.000000;0.775041
4111.000000;0.777511
4110.000000;0.780280
4109.000000;0.783407
4108.000000;0.786574
4107.000000;0.789307
4106.000000;0.791401
4105.000000;0.793070
4104.000000;0.794691
4103.000000;0.796520
4102.000000;0.798627
4101.000000;0.800877
4100.000000;0.802936
4099.000000;0.804505
4098.000000;0.805664
4097.000000;0.806858
4096.000000;0.808458
4095.000000;0.810427
4094.000000;0.812443
4093.000000;0.814209
4092.000000;0.815566
4091.000000;0.816463
4090.000000;0.816966
4089.000000;0.817221
4088.000000;0.817270
4087.000000;0.816956
4086.000000;0.816127
4085.000000;0.814919
4084.000000;0.813725
4083.000000;0.812837
4082.000000;0.812197
4081.000000;0.811514
4080.000000;0.810601
4079.000000;0.809540
4078.000000;0.808507
4077.000000;0.807444
4076.000000;0.806062
4075.000000;0.804258
4074.000000;0.802427
4073.000000;0.801138
4072.000000;0.800460
4071.000000;0.799732
4070.000000;0.798137
4069.000000;0.795437
4068.000000;0.792071
4067.000000;0.788675
4066.000000;0.785685
4065.000000;0.783299
4064.000000;0.781516
4063.000000;0.780085
4062.000000;0.778539
4061.000000;0.776410
4060.000000;0.773450
4059.000000;0.769714
4058.000000;0.765600
4057.000000;0.761747
4056.000000;0.758646
4055.000000;0.756195
4054.000000;0.753747
4053.000000;0.750719
4052.000000;0.747103
4051.000000;0.743310
4050.000000;0.739686
4049.000000;0.736297
4048.000000;0.733066
4047.000000;0.729947
4046.000000;0.726992
4045.000000;0.724334
4044.000000;0.722021
4043.000000;0.719774
4042.000000;0.717036
4041.000000;0.713450
4040.000000;0.709261
4039.000000;0.705105
4038.000000;0.701406
4037.000000;0.698111
4036.000000;0.694912
4035.000000;0.691513
4034.000000;0.687692
4033.000000;0.683355
4032.000000;0.678709
4031.000000;0.674262
4030.000000;0.670448
4029.000000;0.667219
4028.000000;0.664095
4027.000000;0.660625
4026.000000;0.656778
4025.000000;0.652871
4024.000000;0.649191
4023.000000;0.645762
4022.000000;0.642468
4021.000000;0.639296
4020.000000;0.636371
4019.000000;0.633725
4018.000000;0.631115
4017.000000;0.628085
4016.000000;0.624253
4015.000000;0.619638
4014.000000;0.614765
4013.000000;0.610386
4012.000000;0.606895
4011.000000;0.603976
4010.000000;0.600906
4009.000000;0.597231
4008.000000;0.593107
4007.000000;0.589018
4006.000000;0.585311
4005.000000;0.582020
4004.000000;0.578988
4003.000000;0.576021
4002.000000;0.572997
4001.000000;0.569893
4000.000000;0.566734
3999.000000;0.563511
3998.000000;0.560195
3997.000000;0.556800
3996.000000;0.553373
3995.000000;0.549929
3994.000000;0.546495
3993.000000;0.543151
3992.000000;0.539923
3991.000000;0.536675
3990.000000;0.533258
3989.000000;0.529693
3988.000000;0.526060
3987.000000;0.522271
3986.000000;0.518236
3985.000000;0.514241
3984.000000;0.510813
3983.000000;0.508084
3982.000000;0.505536
3981.000000;0.502559
3980.000000;0.499064
3979.000000;0.495381
3978.000000;0.491757
3977.000000;0.488252
3976.000000;0.484996
3975.000000;0.482203
3974.000000;0.479855
3973.000000;0.477593
3972.000000;0.475031
3971.000000;0.472089
3970.000000;0.468958
3969.000000;0.465812
3968.000000;0.462631
3967.000000;0.459320
3966.000000;0.455950
3965.000000;0.452769
3964.000000;0.449874
3963.000000;0.446961
3962.000000;0.443605
3961.000000;0.439818
3960.000000;0.436105
3959.000000;0.432897
3958.000000;0.430093
3957.000000;0.427276
3956.000000;0.424227
3955.000000;0.421036
3954.000000;0.417816
3953.000000;0.414534
3952.000000;0.411135
3951.000000;0.407635
3950.000000;0.404083
3949.000000;0.400550
3948.000000;0.397173
3947.000000;0.394061
3946.000000;0.391090
3945.000000;0.387935
3944.000000;0.384453
3943.000000;0.380981
3942.000000;0.378102
3941.000000;0.376016
3940.000000;0.374248
3939.000000;0.372098
3938.000000;0.369316
3937.000000;0.366166
3936.000000;0.362863
3935.000000;0.359258
3934.000000;0.355217
3933.000000;0.351050
3932.000000;0.347289
3931.000000;0.344132
3930.000000;0.341369
3929.000000;0.338745
3928.000000;0.336117
3927.000000;0.333307
3926.000000;0.330109
3925.000000;0.326523
3924.000000;0.322777
3923.000000;0.319065
3922.000000;0.315431
3921.000000;0.311898
3920.000000;0.308477
3919.000000;0.305029
3918.000000;0.301369
3917.000000;0.297646
3916.000000;0.294346
3915.000000;0.291765
3914.000000;0.289669
3913.000000;0.287592
3912.000000;0.285282
3911.000000;0.282722
3910.000000;0.279916
3909.000000;0.276837
3908.000000;0.273453
3907.000000;0.269663
3906.000000;0.265416
3905.000000;0.261047
3904.000000;0.257235
3903.000000;0.254376
3902.000000;0.252139
3901.000000;0.249901
3900.000000;0.247512
3899.000000;0.245333
3898.000000;0.243572
3897.000000;0.241943
3896.000000;0.240025
3895.000000;0.237658
3894.000000;0.234872
3893.000000;0.231712
3892.000000;0.228390
3891.000000;0.225376
3890.000000;0.223048
3889.000000;0.221191
3888.000000;0.219097
3887.000000;0.216346
3886.000000;0.213302
3885.000000;0.210684
3884.000000;0.208748
3883.000000;0.207043
3882.000000;0.204957
3881.000000;0.202409
3880.000000;0.199841
3879.000000;0.197638
3878.000000;0.195733
3877.000000;0.193757
3876.000000;0.191519
3875.000000;0.189175
3874.000000;0.186927
3873.000000;0.184752
3872.000000;0.182473
3871.000000;0.179987
3870.000000;0.177372
3869.000000;0.174795
3868.000000;0.172349
3867.000000;0.169974
3866.000000;0.167625
3865.000000;0.165437
3864.000000;0.163510
3863.000000;0.161672
3862.000000;0.159684
3861.000000;0.157600
3860.000000;0.155698
3859.000000;0.154036
3858.000000;0.152331
3857.000000;0.150337
3856.000000;0.148119
3855.000000;0.145863
3854.000000;0.143614
3853.000000;0.141291
3852.000000;0.138989
3851.000000;0.136984
3850.000000;0.135279
3849.000000;0.133624
3848.000000;0.131815
3847.000000;0.129724
3846.000000;0.127354
3845.000000;0.124943
3844.000000;0.122817
3843.000000;0.120987
3842.000000;0.119086
3841.000000;0.116842
3840.000000;0.114406
3839.000000;0.112082
3838.000000;0.109936
3837.000000;0.107868
3836.000000;0.105841
3835.000000;0.103848
3834.000000;0.101786
3833.000000;0.099553
3832.000000;0.097168
3831.000000;0.094720
3830.000000;0.092291
3829.000000;0.089993
3828.000000;0.087926
3827.000000;0.085991
3826.000000;0.083906
3825.000000;0.081581
3824.000000;0.079305
3823.000000;0.077381
3822.000000;0.075720
3821.000000;0.073971
3820.000000;0.072001
3819.000000;0.070041
3818.000000;0.068165
3817.000000;0.066081
3816.000000;0.063545
3815.000000;0.060698
3814.000000;0.057941
3813.000000;0.055552
3812.000000;0.053529
3811.000000;0.051700
3810.000000;0.049828
3809.000000;0.047699
3808.000000;0.045240
3807.000000;0.042563
3806.000000;0.039938
3805.000000;0.037759
3804.000000;0.036279
3803.000000;0.035289
3802.000000;0.034112
3801.000000;0.032046
3800.000000;0.029002
3799.000000;0.025539
3798.000000;0.022230
3797.000000;0.019332
3796.000000;0.016891
3795.000000;0.014820
3794.000000;0.012872
3793.000000;0.010718
3792.000000;0.008232
3791.000000;0.005668
3790.000000;0.003431
3789.000000;0.001673
3788.000000;0.000123
3787.000000;-0.001681
3786.000000;-0.003983
3785.000000;-0.006619
3784.000000;-0.009228
3783.000000;-0.011620
3782.000000;-0.013886
3781.000000;-0.016189
3780.000000;-0.018552
3779.000000;-0.020911
3778.000000;-0.023248
3777.000000;-0.025622
3776.000000;-0.028141
3775.000000;-0.030916
3774.000000;-0.033924
3773.000000;-0.036940
3772.000000;-0.039673
3771.000000;-0.042013
3770.000000;-0.044105
3769.000000;-0.046151
3768.000000;-0.048256
3767.000000;-0.050498
3766.000000;-0.052963
3765.000000;-0.055605
3764.000000;-0.058231
3763.000000;-0.060726
3762.000000;-0.063150
3761.000000;-0.065556
3760.000000;-0.067860
3759.000000;-0.070043
3758.000000;-0.072270
3757.000000;-0.074684
3756.000000;-0.077171
3755.000000;-0.079488
3754.000000;-0.081560
3753.000000;-0.083548
3752.000000;-0.085699
3751.000000;-0.088271
3750.000000;-0.091430
3749.000000;-0.094982
3748.000000;-0.098374
3747.000000;-0.101142
3746.000000;-0.103358
3745.000000;-0.105566
3744.000000;-0.108217
3743.000000;-0.111148
3742.000000;-0.113901
3741.000000;-0.116388
3740.000000;-0.118887
3739.000000;-0.121619
3738.000000;-0.124541
3737.000000;-0.127451
3736.000000;-0.130222
3735.000000;-0.132887
3734.000000;-0.135542
3733.000000;-0.138244
3732.000000;-0.141034
3731.000000;-0.143877
3730.000000;-0.146621
3729.000000;-0.149176
3728.000000;-0.151700
3727.000000;-0.154466
3726.000000;-0.157521
3725.000000;-0.160598
3724.000000;-0.163477
3723.000000;-0.166277
3722.000000;-0.169223
3721.000000;-0.172295
3720.000000;-0.175332
3719.000000;-0.178355
3718.000000;-0.181506
3717.000000;-0.184718
3716.000000;-0.187734
3715.000000;-0.190452
3714.000000;-0.193052
3713.000000;-0.195736
3712.000000;-0.198582
3711.000000;-0.201661
3710.000000;-0.204965
3709.000000;-0.208230
3708.000000;-0.211119
3707.000000;-0.213625
3706.000000;-0.216044
3705.000000;-0.218565
3704.000000;-0.221136
3703.000000;-0.223785
3702.000000;-0.226782
3701.000000;-0.230283
3700.000000;-0.234026
3699.000000;-0.237628
3698.000000;-0.241011
3697.000000;-0.244342
3696.000000;-0.247714
3695.000000;-0.251075
3694.000000;-0.254367
3693.000000;-0.257536
3692.000000;-0.260483
3691.000000;-0.263190
3690.000000;-0.265851
3689.000000;-0.268737
3688.000000;-0.271899
3687.000000;-0.275185
3686.000000;-0.278524
3685.000000;-0.281968
3684.000000;-0.285522
3683.000000;-0.289153
3682.000000;-0.292825
3681.000000;-0.296430
3680.000000;-0.299802
3679.000000;-0.302879
3678.000000;-0.305742
3677.000000;-0.308482
3676.000000;-0.311226
3675.000000;-0.314273
3674.000000;-0.317786
3673.000000;-0.321510
3672.000000;-0.325098
3671.000000;-0.328505
3670.000000;-0.332027
3669.000000;-0.335871
3668.000000;-0.339712
3667.000000;-0.343079
3666.000000;-0.346016
3665.000000;-0.349012
3664.000000;-0.352455
3663.000000;-0.356324
3662.000000;-0.360324
3661.000000;-0.364171
3660.000000;-0.367795
3659.000000;-0.371353
3658.000000;-0.375045
3657.000000;-0.378860
3656.000000;-0.382601
3655.000000;-0.386140
3654.000000;-0.389559
3653.000000;-0.393009
3652.000000;-0.396512
3651.000000;-0.400029
3650.000000;-0.403579
3649.000000;-0.407154
3648.000000;-0.410566
3647.000000;-0.413673
3646.000000;-0.416708
3645.000000;-0.420041
3644.000000;-0.423644
3643.000000;-0.427140
3642.000000;-0.430344
3641.000000;-0.433506
3640.000000;-0.436972
3639.000000;-0.440792
3638.000000;-0.444728
3637.000000;-0.448518
3636.000000;-0.452086
3635.000000;-0.455543
3634.000000;-0.459031
3633.000000;-0.462606
3632.000000;-0.466268
3631.000000;-0.470037
3630.000000;-0.473856
3629.000000;-0.477514
3628.000000;-0.480813
3627.000000;-0.483712
3626.000000;-0.486389
3625.000000;-0.489054
3624.000000;-0.491785
3623.000000;-0.494717
3622.000000;-0.498046
3621.000000;-0.501671
3620.000000;-0.505189
3619.000000;-0.508448
3618.000000;-0.511785
3617.000000;-0.515486
3616.000000;-0.519311
3615.000000;-0.522783
3614.000000;-0.525742
3613.000000;-0.528376
3612.000000;-0.530900
3611.000000;-0.533496
3610.000000;-0.536387
3609.000000;-0.539558
3608.000000;-0.542522
3607.000000;-0.544773
3606.000000;-0.546479
3605.000000;-0.548435
3604.000000;-0.551256
3603.000000;-0.554790
3602.000000;-0.558336
3601.000000;-0.561251
3600.000000;-0.563364
3599.000000;-0.565018
3598.000000;-0.566780
3597.000000;-0.568963
3596.000000;-0.571397
3595.000000;-0.573774
3594.000000;-0.576118
3593.000000;-0.578676
3592.000000;-0.581399
3591.000000;-0.583794
3590.000000;-0.585353
3589.000000;-0.586042
3588.000000;-0.586390
3587.000000;-0.587159
3586.000000;-0.588765
3585.000000;-0.590905
3584.000000;-0.592869
3583.000000;-0.594240
3582.000000;-0.595234
3581.000000;-0.596312
3580.000000;-0.597607
3579.000000;-0.598915
3578.000000;-0.600086
3577.000000;-0.601151
3576.000000;-0.602122
3575.000000;-0.602967
3574.000000;-0.603760
3573.000000;-0.604598
3572.000000;-0.605347
3571.000000;-0.605735
3570.000000;-0.605745
3569.000000;-0.605676
3568.000000;-0.605735
3567.000000;-0.605749
3566.000000;-0.605367
3565.000000;-0.604415
3564.000000;-0.603093
3563.000000;-0.601894
3562.000000;-0.601294
3561.000000;-0.601395
3560.000000;-0.601775
3559.000000;-0.601830
3558.000000;-0.601337
3557.000000;-0.600606
3556.000000;-0.600042
3555.000000;-0.599708
3554.000000;-0.599371
3553.000000;-0.598816
3552.000000;-0.597961
3551.000000;-0.596751
3550.000000;-0.595159
3549.000000;-0.593335
3548.000000;-0.591616
3547.000000;-0.590270
3546.000000;-0.589229
3545.000000;-0.588138
3544.000000;-0.586700
3543.000000;-0.584937
3542.000000;-0.583082
3541.000000;-0.581280
3540.000000;-0.579526
3539.000000;-0.577832
3538.000000;-0.576275
3537.000000;-0.574801
3536.000000;-0.573186
3535.000000;-0.571325
3534.000000;-0.569410
3533.000000;-0.567644
3532.000000;-0.565886
3531.000000;-0.563822
3530.000000;-0.561434
3529.000000;-0.559059
3528.000000;-0.556928
3527.000000;-0.554876
3526.000000;-0.552577
3525.000000;-0.549941
3524.000000;-0.547158
3523.000000;-0.544480
3522.000000;-0.542058
3521.000000;-0.539963
3520.000000;-0.538242
3519.000000;-0.536866
3518.000000;-0.535630
3517.000000;-0.534161
3516.000000;-0.532164
3515.000000;-0.529717
3514.000000;-0.527223
3513.000000;-0.524980
3512.000000;-0.522858
3511.000000;-0.520513
3510.000000;-0.517836
3509.000000;-0.515049
3508.000000;-0.512386
3507.000000;-0.509840
3506.000000;-0.507253
3505.000000;-0.504576
3504.000000;-0.501998
3503.000000;-0.499858
3502.000000;-0.498361
3501.000000;-0.497275
3500.000000;-0.495961
3499.000000;-0.493850
3498.000000;-0.490943
3497.000000;-0.487799
3496.000000;-0.485043
3495.000000;-0.482903
3494.000000;-0.481141
3493.000000;-0.479287
3492.000000;-0.476954
3491.000000;-0.474087
3490.000000;-0.470975
3489.000000;-0.467961
3488.000000;-0.465160
3487.000000;-0.462548
3486.000000;-0.460200
3485.000000;-0.458231
3484.000000;-0.456460
3483.000000;-0.454413
3482.000000;-0.451831
3481.000000;-0.449072
3480.000000;-0.446786
3479.000000;-0.445197
3478.000000;-0.443814
3477.000000;-0.441929
3476.000000;-0.439317
3475.000000;-0.436399
3474.000000;-0.433752
3473.000000;-0.431557
3472.000000;-0.429533
3471.000000;-0.427355
3470.000000;-0.424994
3469.000000;-0.422649
3468.000000;-0.420443
3467.000000;-0.418303
3466.000000;-0.416101
3465.000000;-0.413844
3464.000000;-0.411690
3463.000000;-0.409793
3462.000000;-0.408140
3461.000000;-0.406547
3460.000000;-0.404805
3459.000000;-0.402790
3458.000000;-0.400464
3457.000000;-0.397875
3456.000000;-0.395228
3455.000000;-0.392831
3454.000000;-0.390843
3453.000000;-0.389120
3452.000000;-0.387457
3451.000000;-0.385874
3450.000000;-0.384475
3449.000000;-0.383094
3448.000000;-0.381394
3447.000000;-0.379368
3446.000000;-0.377415
3445.000000;-0.375784
3444.000000;-0.374202
3443.000000;-0.372259
3442.000000;-0.369959
3441.000000;-0.367655
3440.000000;-0.365619
3439.000000;-0.363892
3438.000000;-0.362404
3437.000000;-0.360978
3436.000000;-0.359308
3435.000000;-0.357229
3434.000000;-0.354977
3433.000000;-0.352947
3432.000000;-0.351224
3431.000000;-0.349569
3430.000000;-0.347841
3429.000000;-0.346155
3428.000000;-0.344577
3427.000000;-0.342946
3426.000000;-0.341113
3425.000000;-0.339181
3424.000000;-0.337388
3423.000000;-0.335850
3422.000000;-0.334473
3421.000000;-0.333047
3420.000000;-0.331408
3419.000000;-0.329575
3418.000000;-0.327750
3417.000000;-0.326099
3416.000000;-0.324557
3415.000000;-0.322950
3414.000000;-0.321259
3413.000000;-0.319632
3412.000000;-0.318142
3411.000000;-0.316678
3410.000000;-0.315124
3409.000000;-0.313513
3408.000000;-0.311957
3407.000000;-0.310511
3406.000000;-0.309120
3405.000000;-0.307629
3404.000000;-0.305873
3403.000000;-0.303882
3402.000000;-0.301967
3401.000000;-0.300469
3400.000000;-0.299392
3399.000000;-0.298425
3398.000000;-0.297315
3397.000000;-0.296070
3396.000000;-0.294785
3395.000000;-0.293422
3394.000000;-0.291873
3393.000000;-0.290125
3392.000000;-0.288284
3391.000000;-0.286527
3390.000000;-0.285022
3389.000000;-0.283771
3388.000000;-0.282508
3387.000000;-0.280905
3386.000000;-0.278989
3385.000000;-0.277197
3384.000000;-0.275886
3383.000000;-0.274887
3382.000000;-0.273718
3381.000000;-0.272180
3380.000000;-0.270586
3379.000000;-0.269370
3378.000000;-0.268614
3377.000000;-0.268002
3376.000000;-0.267180
3375.000000;-0.266046
3374.000000;-0.264714
3373.000000;-0.263286
3372.000000;-0.261777
3371.000000;-0.260251
3370.000000;-0.258918
3369.000000;-0.257935
3368.000000;-0.257119
3367.000000;-0.255996
3366.000000;-0.254228
3365.000000;-0.251968
3364.000000;-0.249732
3363.000000;-0.247965
3362.000000;-0.246748
3361.000000;-0.245884
3360.000000;-0.245164
3359.000000;-0.244495
3358.000000;-0.243845
3357.000000;-0.243123
3356.000000;-0.242197
3355.000000;-0.241008
3354.000000;-0.239654
3353.000000;-0.238328
3352.000000;-0.237154
3351.000000;-0.236084
3350.000000;-0.234978
3349.000000;-0.233796
3348.000000;-0.232711
3347.000000;-0.231923
3346.000000;-0.231338
3345.000000;-0.230526
3344.000000;-0.229161
3343.000000;-0.227446
3342.000000;-0.225938
3341.000000;-0.224921
3340.000000;-0.224123
3339.000000;-0.223113
3338.000000;-0.221832
3337.000000;-0.220620
3336.000000;-0.219843
3335.000000;-0.219617
3334.000000;-0.219744
3333.000000;-0.219751
3332.000000;-0.219086
3331.000000;-0.217556
3330.000000;-0.215586
3329.000000;-0.213899
3328.000000;-0.212868
3327.000000;-0.212275
3326.000000;-0.211667
3325.000000;-0.210807
3324.000000;-0.209785
3323.000000;-0.208833
3322.000000;-0.208116
3321.000000;-0.207568
3320.000000;-0.206884
3319.000000;-0.205766
3318.000000;-0.204283
3317.000000;-0.202872
3316.000000;-0.201901
3315.000000;-0.201280
3314.000000;-0.200624
3313.000000;-0.199738
3312.000000;-0.198797
3311.000000;-0.198024
3310.000000;-0.197345
3309.000000;-0.196498
3308.000000;-0.195401
3307.000000;-0.194258
3306.000000;-0.193266
3305.000000;-0.192380
3304.000000;-0.191456
3303.000000;-0.190525
3302.000000;-0.189761
3301.000000;-0.189198
3300.000000;-0.188649
3299.000000;-0.187945
3298.000000;-0.187120
3297.000000;-0.186294
3296.000000;-0.185505
3295.000000;-0.184728
3294.000000;-0.183955
3293.000000;-0.183142
3292.000000;-0.182170
3291.000000;-0.180996
3290.000000;-0.179789
3289.000000;-0.178769
3288.000000;-0.177913
3287.000000;-0.176973
3286.000000;-0.175794
3285.000000;-0.174513
3284.000000;-0.173415
3283.000000;-0.172668
3282.000000;-0.172240
3281.000000;-0.171974
3280.000000;-0.171678
3279.000000;-0.171210
3278.000000;-0.170551
3277.000000;-0.169796
3276.000000;-0.169038
3275.000000;-0.168263
3274.000000;-0.167398
3273.000000;-0.166426
3272.000000;-0.165425
3271.000000;-0.164478
3270.000000;-0.163610
3269.000000;-0.162863
3268.000000;-0.162337
3267.000000;-0.162056
3266.000000;-0.161780
3265.000000;-0.161111
3264.000000;-0.159921
3263.000000;-0.158567
3262.000000;-0.157557
3261.000000;-0.157015
3260.000000;-0.156645
3259.000000;-0.156163
3258.000000;-0.155572
3257.000000;-0.154954
3256.000000;-0.154236
3255.000000;-0.153340
3254.000000;-0.152441
3253.000000;-0.151854
3252.000000;-0.151659
3251.000000;-0.151568
3250.000000;-0.151212
3249.000000;-0.150477
3248.000000;-0.149545
3247.000000;-0.148662
3246.000000;-0.147916
3245.000000;-0.147250
3244.000000;-0.146612
3243.000000;-0.146009
3242.000000;-0.145399
3241.000000;-0.144646
3240.000000;-0.143727
3239.000000;-0.142903
3238.000000;-0.142492
3237.000000;-0.142426
3236.000000;-0.142223
3235.000000;-0.141494
3234.000000;-0.140347
3233.000000;-0.139208
3232.000000;-0.138370
3231.000000;-0.137849
3230.000000;-0.137574
3229.000000;-0.137485
3228.000000;-0.137446
3227.000000;-0.137213
3226.000000;-0.136613
3225.000000;-0.135730
3224.000000;-0.134822
3223.000000;-0.134064
3222.000000;-0.133392
3221.000000;-0.132661
3220.000000;-0.131909
3219.000000;-0.131343
3218.000000;-0.131012
3217.000000;-0.130641
3216.000000;-0.129948
3215.000000;-0.129033
3214.000000;-0.128229
3213.000000;-0.127639
3212.000000;-0.127093
3211.000000;-0.126577
3210.000000;-0.126414
3209.000000;-0.126822
3208.000000;-0.127526
3207.000000;-0.128024
3206.000000;-0.128100
3205.000000;-0.127867
3204.000000;-0.127399
3203.000000;-0.126555
3202.000000;-0.125197
3201.000000;-0.123462
3200.000000;-0.121777
3199.000000;-0.120601
3198.000000;-0.120073
3197.000000;-0.119855
3196.000000;-0.119410
3195.000000;-0.118513
3194.000000;-0.117431
3193.000000;-0.116563
3192.000000;-0.116050
3191.000000;-0.115819
3190.000000;-0.115830
3189.000000;-0.116083
3188.000000;-0.116458
3187.000000;-0.116720
3186.000000;-0.116653
3185.000000;-0.116141
3184.000000;-0.115200
3183.000000;-0.114056
3182.000000;-0.113058
3181.000000;-0.112347
3180.000000;-0.111688
3179.000000;-0.110786
3178.000000;-0.109696
3177.000000;-0.108745
3176.000000;-0.108125
3175.000000;-0.107774
3174.000000;-0.107618
3173.000000;-0.107671
3172.000000;-0.107825
3171.000000;-0.107739
3170.000000;-0.107141
3169.000000;-0.106160
3168.000000;-0.105265
3167.000000;-0.104832
3166.000000;-0.104801
3165.000000;-0.104737
3164.000000;-0.104266
3163.000000;-0.103430
3162.000000;-0.102605
3161.000000;-0.102099
3160.000000;-0.101914
3159.000000;-0.101904
3158.000000;-0.101954
3157.000000;-0.101943
3156.000000;-0.101681
3155.000000;-0.101090
3154.000000;-0.100367
3153.000000;-0.099796
3152.000000;-0.099424
3151.000000;-0.099066
3150.000000;-0.098561
3149.000000;-0.097890
3148.000000;-0.097063
3147.000000;-0.096104
3146.000000;-0.095137
3145.000000;-0.094330
3144.000000;-0.093706
3143.000000;-0.093143
3142.000000;-0.092609
3141.000000;-0.092247
3140.000000;-0.092145
3139.000000;-0.092129
3138.000000;-0.091914
3137.000000;-0.091397
3136.000000;-0.090724
3135.000000;-0.090094
3134.000000;-0.089581
3133.000000;-0.089171
3132.000000;-0.088902
3131.000000;-0.088842
3130.000000;-0.088897
3129.000000;-0.088763
3128.000000;-0.088224
3127.000000;-0.087455
3126.000000;-0.086858
3125.000000;-0.086567
3124.000000;-0.086303
3123.000000;-0.085816
3122.000000;-0.085256
3121.000000;-0.084921
3120.000000;-0.084796
3119.000000;-0.084566
3118.000000;-0.084026
3117.000000;-0.083269
3116.000000;-0.082513
3115.000000;-0.081923
3114.000000;-0.081568
3113.000000;-0.081357
3112.000000;-0.081020
3111.000000;-0.080339
3110.000000;-0.079453
3109.000000;-0.078751
3108.000000;-0.078435
3107.000000;-0.078363
3106.000000;-0.078351
3105.000000;-0.078412
3104.000000;-0.078568
3103.000000;-0.078610
3102.000000;-0.078263
3101.000000;-0.077541
3100.000000;-0.076758
3099.000000;-0.076162
3098.000000;-0.075670
3097.000000;-0.075026
3096.000000;-0.074156
3095.000000;-0.073301
3094.000000;-0.072789
3093.000000;-0.072685
3092.000000;-0.072707
3091.000000;-0.072490
3090.000000;-0.071933
3089.000000;-0.071271
3088.000000;-0.070826
3087.000000;-0.070679
3086.000000;-0.070593
3085.000000;-0.070240
3084.000000;-0.069518
3083.000000;-0.068633
3082.000000;-0.067884
3081.000000;-0.067402
3080.000000;-0.067158
3079.000000;-0.067099
3078.000000;-0.067132
3077.000000;-0.067032
3076.000000;-0.066596
3075.000000;-0.065948
3074.000000;-0.065483
3073.000000;-0.065395
3072.000000;-0.065436
3071.000000;-0.065272
3070.000000;-0.064884
3069.000000;-0.064420
3068.000000;-0.063867
3067.000000;-0.063130
3066.000000;-0.062349
3065.000000;-0.061815
3064.000000;-0.061558
3063.000000;-0.061289
3062.000000;-0.060794
3061.000000;-0.060160
3060.000000;-0.059569
3059.000000;-0.059074
3058.000000;-0.058681
3057.000000;-0.058422
3056.000000;-0.058256
3055.000000;-0.058038
3054.000000;-0.057713
3053.000000;-0.057395
3052.000000;-0.057162
3051.000000;-0.056908
3050.000000;-0.056510
3049.000000;-0.056041
3048.000000;-0.055682
3047.000000;-0.055488
3046.000000;-0.055340
3045.000000;-0.055075
3044.000000;-0.054561
3043.000000;-0.053765
3042.000000;-0.052841
3041.000000;-0.052104
3040.000000;-0.051775
3039.000000;-0.051787
3038.000000;-0.051902
3037.000000;-0.051945
3036.000000;-0.051834
3035.000000;-0.051484
3034.000000;-0.050852
3033.000000;-0.050061
3032.000000;-0.049338
3031.000000;-0.048800
3030.000000;-0.048413
3029.000000;-0.048121
3028.000000;-0.047883
3027.000000;-0.047618
3026.000000;-0.047280
3025.000000;-0.047004
3024.000000;-0.046982
3023.000000;-0.047108
3022.000000;-0.046942
3021.000000;-0.046189
3020.000000;-0.045112
3019.000000;-0.044298
3018.000000;-0.044064
3017.000000;-0.044218
3016.000000;-0.044356
3015.000000;-0.044221
3014.000000;-0.043785
3013.000000;-0.043184
3012.000000;-0.042652
3011.000000;-0.042363
3010.000000;-0.042260
3009.000000;-0.042085
3008.000000;-0.041665
3007.000000;-0.041093
3006.000000;-0.040589
3005.000000;-0.040276
3004.000000;-0.040115
3003.000000;-0.039965
3002.000000;-0.039620
3001.000000;-0.038914
3000.000000;-0.037907
2999.000000;-0.036888
2998.000000;-0.036121
2997.000000;-0.035634
2996.000000;-0.035314
2995.000000;-0.035099
2994.000000;-0.034933
2993.000000;-0.034632
2992.000000;-0.034024
2991.000000;-0.033210
2990.000000;-0.032484
2989.000000;-0.032025
2988.000000;-0.031804
2987.000000;-0.031778
2986.000000;-0.031958
2985.000000;-0.032231
2984.000000;-0.032329
2983.000000;-0.032055
2982.000000;-0.031446
2981.000000;-0.030656
2980.000000;-0.029828
2979.000000;-0.029136
2978.000000;-0.028765
2977.000000;-0.028729
2976.000000;-0.028797
2975.000000;-0.028703
2974.000000;-0.028341
2973.000000;-0.027721
2972.000000;-0.026872
2971.000000;-0.025899
2970.000000;-0.025019
2969.000000;-0.024389
2968.000000;-0.023957
2967.000000;-0.023581
2966.000000;-0.023236
2965.000000;-0.023000
2964.000000;-0.022924
2963.000000;-0.022966
2962.000000;-0.023017
2961.000000;-0.022911
2960.000000;-0.022503
2959.000000;-0.021814
2958.000000;-0.021014
2957.000000;-0.020216
2956.000000;-0.019394
2955.000000;-0.018595
2954.000000;-0.018073
2953.000000;-0.018033
2952.000000;-0.018340
2951.000000;-0.018633
2950.000000;-0.018682
2949.000000;-0.018486
2948.000000;-0.018087
2947.000000;-0.017481
2946.000000;-0.016707
2945.000000;-0.015895
2944.000000;-0.015199
2943.000000;-0.014738
2942.000000;-0.014554
2941.000000;-0.014535
2940.000000;-0.014455
2939.000000;-0.014205
2938.000000;-0.013937
2937.000000;-0.013830
2936.000000;-0.013777
2935.000000;-0.013494
2934.000000;-0.012913
2933.000000;-0.012251
2932.000000;-0.011663
2931.000000;-0.011049
2930.000000;-0.010282
2929.000000;-0.009421
2928.000000;-0.008565
2927.000000;-0.007659
2926.000000;-0.006638
2925.000000;-0.005698
2924.000000;-0.005217
2923.000000;-0.005341
2922.000000;-0.005765
2921.000000;-0.005990
2920.000000;-0.005771
2919.000000;-0.005276
2918.000000;-0.004822
2917.000000;-0.004502
2916.000000;-0.004120
2915.000000;-0.003459
2914.000000;-0.002533
2913.000000;-0.001559
2912.000000;-0.000744
2911.000000;-0.000172
2910.000000;0.000167
2909.000000;0.000333
2908.000000;0.000433
2907.000000;0.000582
2906.000000;0.000833
2905.000000;0.001172
2904.000000;0.001537
2903.000000;0.001829
2902.000000;0.001967
2901.000000;0.002013
2900.000000;0.002181
2899.000000;0.002659
2898.000000;0.003451
2897.000000;0.004440
2896.000000;0.005519
2895.000000;0.006542
2894.000000;0.007246
2893.000000;0.007450
2892.000000;0.007357
2891.000000;0.007439
2890.000000;0.007949
2889.000000;0.008679
2888.000000;0.009260
2887.000000;0.009548
2886.000000;0.009615
2885.000000;0.009557
2884.000000;0.009485
2883.000000;0.009617
2882.000000;0.010127
2881.000000;0.010898
2880.000000;0.011581
2879.000000;0.011968
2878.000000;0.012185
2877.000000;0.012479
2876.000000;0.012923
2875.000000;0.013409
2874.000000;0.013841
2873.000000;0.014220
2872.000000;0.014562
2871.000000;0.014829
2870.000000;0.015017
2869.000000;0.015256
2868.000000;0.015763
2867.000000;0.016630
2866.000000;0.017661
2865.000000;0.018458
2864.000000;0.018743
2863.000000;0.018646
2862.000000;0.018644
2861.000000;0.019163
2860.000000;0.020213
2859.000000;0.021400
2858.000000;0.022289
2857.000000;0.022741
2856.000000;0.022912
2855.000000;0.023012
2854.000000;0.023143
2853.000000;0.023328
2852.000000;0.023590
2851.000000;0.023961
2850.000000;0.024449
2849.000000;0.025034
2848.000000;0.025667
2847.000000;0.026251
2846.000000;0.026687
2845.000000;0.026984
2844.000000;0.027308
2843.000000;0.027838
2842.000000;0.028569
2841.000000;0.029261
2840.000000;0.029614
2839.000000;0.029513
2838.000000;0.029158
2837.000000;0.028965
2836.000000;0.029271
2835.000000;0.030051
2834.000000;0.030947
2833.000000;0.031620
2832.000000;0.032091
2831.000000;0.032662
2830.000000;0.033546
2829.000000;0.034615
2828.000000;0.035548
2827.000000;0.036140
2826.000000;0.036460
2825.000000;0.036737
2824.000000;0.037132
2823.000000;0.037614
2822.000000;0.038011
2821.000000;0.038185
2820.000000;0.038170
2819.000000;0.038139
2818.000000;0.038239
2817.000000;0.038497
2816.000000;0.038883
2815.000000;0.039391
2814.000000;0.040042
2813.000000;0.040795
2812.000000;0.041540
2811.000000;0.042193
2810.000000;0.042803
2809.000000;0.043511
2808.000000;0.044385
2807.000000;0.045279
2806.000000;0.045932
2805.000000;0.046228
2804.000000;0.046354
2803.000000;0.046620
2802.000000;0.047116
2801.000000;0.047606
2800.000000;0.047821
2799.000000;0.047820
2798.000000;0.047974
2797.000000;0.048552
2796.000000;0.049427
2795.000000;0.050235
2794.000000;0.050777
2793.000000;0.051152
2792.000000;0.051529
2791.000000;0.051922
2790.000000;0.052268
2789.000000;0.052624
2788.000000;0.053133
2787.000000;0.053839
2786.000000;0.054627
2785.000000;0.055364
2784.000000;0.056016
2783.000000;0.056598
2782.000000;0.057108
2781.000000;0.057535
2780.000000;0.057894
2779.000000;0.058218
2778.000000;0.058577
2777.000000;0.059101
2776.000000;0.059878
2775.000000;0.060740
2774.000000;0.061271
2773.000000;0.061189
2772.000000;0.060699
2771.000000;0.060332
2770.000000;0.060439
2769.000000;0.060922
2768.000000;0.061482
2767.000000;0.061998
2766.000000;0.062599
2765.000000;0.063413
2764.000000;0.064387
2763.000000;0.065324
2762.000000;0.066032
2761.000000;0.066433
2760.000000;0.066594
2759.000000;0.066703
2758.000000;0.066969
2757.000000;0.067496
2756.000000;0.068212
2755.000000;0.068928
2754.000000;0.069473
2753.000000;0.069795
2752.000000;0.069961
2751.000000;0.070081
2750.000000;0.070261
2749.000000;0.070585
2748.000000;0.071109
2747.000000;0.071806
2746.000000;0.072545
2745.000000;0.073149
2744.000000;0.073535
2743.000000;0.073791
2742.000000;0.074105
2741.000000;0.074594
2740.000000;0.075206
2739.000000;0.075783
2738.000000;0.076219
2737.000000;0.076578
2736.000000;0.077042
2735.000000;0.077735
2734.000000;0.078589
2733.000000;0.079377
2732.000000;0.079888
2731.000000;0.080060
2730.000000;0.080000
2729.000000;0.079923
2728.000000;0.080081
2727.000000;0.080645
2726.000000;0.081560
2725.000000;0.082533
2724.000000;0.083267
2723.000000;0.083741
2722.000000;0.084196
2721.000000;0.084813
2720.000000;0.085509
2719.000000;0.086109
2718.000000;0.086603
2717.000000;0.087090
2716.000000;0.087549
2715.000000;0.087845
2714.000000;0.087983
2713.000000;0.088183
2712.000000;0.088590
2711.000000;0.089058
2710.000000;0.089367
2709.000000;0.089549
2708.000000;0.089843
2707.000000;0.090350
2706.000000;0.090937
2705.000000;0.091470
2704.000000;0.091987
2703.000000;0.092553
2702.000000;0.093099
2701.000000;0.093566
2700.000000;0.094095
2699.000000;0.094906
2698.000000;0.095943
2697.000000;0.096834
2696.000000;0.097265
2695.000000;0.097341
2694.000000;0.097466
2693.000000;0.097925
2692.000000;0.098664
2691.000000;0.099440
2690.000000;0.100054
2689.000000;0.100451
2688.000000;0.100692
2687.000000;0.100933
2686.000000;0.101357
2685.000000;0.102012
2684.000000;0.102725
2683.000000;0.103230
2682.000000;0.103399
2681.000000;0.103335
2680.000000;0.103270
2679.000000;0.103412
2678.000000;0.103865
2677.000000;0.104614
2676.000000;0.105550
2675.000000;0.106513
2674.000000;0.107312
2673.000000;0.107760
2672.000000;0.107807
2671.000000;0.107713
2670.000000;0.107964
2669.000000;0.108857
2668.000000;0.110180
2667.000000;0.111395
2666.000000;0.112149
2665.000000;0.112497
2664.000000;0.112676
2663.000000;0.112841
2662.000000;0.113074
2661.000000;0.113449
2660.000000;0.113978
2659.000000;0.114582
2658.000000;0.115185
2657.000000;0.115748
2656.000000;0.116162
2655.000000;0.116274
2654.000000;0.116145
2653.000000;0.116166
2652.000000;0.116721
2651.000000;0.117760
2650.000000;0.118854
2649.000000;0.119630
2648.000000;0.120024
2647.000000;0.120152
2646.000000;0.120138
2645.000000;0.120117
2644.000000;0.120260
2643.000000;0.120660
2642.000000;0.121244
2641.000000;0.121860
2640.000000;0.122456
2639.000000;0.123110
2638.000000;0.123871
2637.000000;0.124621
2636.000000;0.125149
2635.000000;0.125404
2634.000000;0.125592
2633.000000;0.125955
2632.000000;0.126482
2631.000000;0.126961
2630.000000;0.127323
2629.000000;0.127743
2628.000000;0.128331
2627.000000;0.128884
2626.000000;0.129114
2625.000000;0.129045
2624.000000;0.129018
2623.000000;0.129353
2622.000000;0.130136
2621.000000;0.131259
2620.000000;0.132492
2619.000000;0.133519
2618.000000;0.134094
2617.000000;0.134232
2616.000000;0.134166
2615.000000;0.134110
2614.000000;0.134158
2613.000000;0.134369
2612.000000;0.134811
2611.000000;0.135478
2610.000000;0.136292
2609.000000;0.137203
2608.000000;0.138189
2607.000000;0.139127
2606.000000;0.139814
2605.000000;0.140200
2604.000000;0.140509
2603.000000;0.141039
2602.000000;0.141869
2601.000000;0.142773
2600.000000;0.143407
2599.000000;0.143588
2598.000000;0.143445
2597.000000;0.143323
2596.000000;0.143490
2595.000000;0.143953
2594.000000;0.144567
2593.000000;0.145261
2592.000000;0.146047
2591.000000;0.146868
2590.000000;0.147586
2589.000000;0.148147
2588.000000;0.148623
2587.000000;0.149050
2586.000000;0.149334
2585.000000;0.149391
2584.000000;0.149326
2583.000000;0.149395
2582.000000;0.149825
2581.000000;0.150624
2580.000000;0.151536
2579.000000;0.152199
2578.000000;0.152468
2577.000000;0.152569
2576.000000;0.152840
2575.000000;0.153366
2574.000000;0.153969
2573.000000;0.154519
2572.000000;0.155046
2571.000000;0.155537
2570.000000;0.155832
2569.000000;0.155862
2568.000000;0.155840
2567.000000;0.156099
2566.000000;0.156766
2565.000000;0.157678
2564.000000;0.158546
2563.000000;0.159155
2562.000000;0.159503
2561.000000;0.159788
2560.000000;0.160222
2559.000000;0.160795
2558.000000;0.161318
2557.000000;0.161687
2556.000000;0.161991
2555.000000;0.162347
2554.000000;0.162792
2553.000000;0.163388
2552.000000;0.164242
2551.000000;0.165287
2550.000000;0.166190
2549.000000;0.166672
2548.000000;0.166817
2547.000000;0.166947
2546.000000;0.167274
2545.000000;0.167806
2544.000000;0.168495
2543.000000;0.169283
2542.000000;0.170049
2541.000000;0.170674
2540.000000;0.171161
2539.000000;0.171589
2538.000000;0.171993
2537.000000;0.172416
2536.000000;0.172971
2535.000000;0.173669
2534.000000;0.174250
2533.000000;0.174415
2532.000000;0.174266
2531.000000;0.174276
2530.000000;0.174763
2529.000000;0.175535
2528.000000;0.176171
2527.000000;0.176495
2526.000000;0.176679
2525.000000;0.176978
2524.000000;0.177495
2523.000000;0.178164
2522.000000;0.178834
2521.000000;0.179388
2520.000000;0.179832
2519.000000;0.180262
2518.000000;0.180742
2517.000000;0.181240
2516.000000;0.181726
2515.000000;0.182232
2514.000000;0.182780
2513.000000;0.183304
2512.000000;0.183723
2511.000000;0.184044
2510.000000;0.184332
2509.000000;0.184623
2508.000000;0.184924
2507.000000;0.185281
2506.000000;0.185741
2505.000000;0.186235
2504.000000;0.186583
2503.000000;0.186666
2502.000000;0.186607
2501.000000;0.186724
2500.000000;0.187261
2499.000000;0.188127
2498.000000;0.188942
2497.000000;0.189412
2496.000000;0.189660
2495.000000;0.190072
2494.000000;0.190788
2493.000000;0.191485
2492.000000;0.191768
2491.000000;0.191679
2490.000000;0.191651
2489.000000;0.191986
2488.000000;0.192568
2487.000000;0.193122
2486.000000;0.193579
2485.000000;0.194065
2484.000000;0.194658
2483.000000;0.195319
2482.000000;0.196017
2481.000000;0.196763
2480.000000;0.197535
2479.000000;0.198258
2478.000000;0.198897
2477.000000;0.199472
2476.000000;0.199954
2475.000000;0.200278
2474.000000;0.200476
2473.000000;0.200729
2472.000000;0.201184
2471.000000;0.201793
2470.000000;0.202392
2469.000000;0.202893
2468.000000;0.203311
2467.000000;0.203641
2466.000000;0.203816
2465.000000;0.203816
2464.000000;0.203766
2463.000000;0.203894
2462.000000;0.204392
2461.000000;0.205287
2460.000000;0.206374
2459.000000;0.207290
2458.000000;0.207779
2457.000000;0.207923
2456.000000;0.208087
2455.000000;0.208578
2454.000000;0.209387
2453.000000;0.210285
2452.000000;0.211086
2451.000000;0.211762
2450.000000;0.212328
2449.000000;0.212732
2448.000000;0.212929
2447.000000;0.213006
2446.000000;0.213151
2445.000000;0.213484
2444.000000;0.213967
2443.000000;0.214490
2442.000000;0.214992
2441.000000;0.215477
2440.000000;0.215954
2439.000000;0.216435
2438.000000;0.216940
2437.000000;0.217440
2436.000000;0.217816
2435.000000;0.217986
2434.000000;0.218081
2433.000000;0.218384
2432.000000;0.219024
2431.000000;0.219820
2430.000000;0.220469
2429.000000;0.220837
2428.000000;0.220993
2427.000000;0.221080
2426.000000;0.221263
2425.000000;0.221726
2424.000000;0.222525
2423.000000;0.223433
2422.000000;0.224091
2421.000000;0.224389
2420.000000;0.224593
2419.000000;0.225036
2418.000000;0.225781
2417.000000;0.226632
2416.000000;0.227397
2415.000000;0.228029
2414.000000;0.228582
2413.000000;0.229115
2412.000000;0.229629
2411.000000;0.230039
2410.000000;0.230222
2409.000000;0.230167
2408.000000;0.230054
2407.000000;0.230133
2406.000000;0.230507
2405.000000;0.231063
2404.000000;0.231601
2403.000000;0.231975
2402.000000;0.232173
2401.000000;0.232330
2400.000000;0.232666
2399.000000;0.233305
2398.000000;0.234112
2397.000000;0.234756
2396.000000;0.235025
2395.000000;0.235055
2394.000000;0.235193
2393.000000;0.235648
2392.000000;0.236318
2391.000000;0.236956
2390.000000;0.237450
2389.000000;0.237886
2388.000000;0.238377
2387.000000;0.238902
2386.000000;0.239350
2385.000000;0.239678
2384.000000;0.239977
2383.000000;0.240393
2382.000000;0.240978
2381.000000;0.241631
2380.000000;0.242168
2379.000000;0.242496
2378.000000;0.242729
2377.000000;0.243101
2376.000000;0.243715
2375.000000;0.244395
2374.000000;0.244832
2373.000000;0.244921
2372.000000;0.244894
2371.000000;0.245120
2370.000000;0.245774
2369.000000;0.246722
2368.000000;0.247650
2367.000000;0.248285
2366.000000;0.248524
2365.000000;0.248438
2364.000000;0.248224
2363.000000;0.248171
2362.000000;0.248539
2361.000000;0.249358
2360.000000;0.250419
2359.000000;0.251406
2358.000000;0.252093
2357.000000;0.252441
2356.000000;0.252496
2355.000000;0.252421
2354.000000;0.252489
2353.000000;0.252957
2352.000000;0.253786
2351.000000;0.254604
2350.000000;0.255105
2349.000000;0.255301
2348.000000;0.255481
2347.000000;0.255895
2346.000000;0.256499
2345.000000;0.257119
2344.000000;0.257582
2343.000000;0.257929
2342.000000;0.258255
2341.000000;0.258662
2340.000000;0.259246
2339.000000;0.259984
2338.000000;0.260722
2337.000000;0.261219
2336.000000;0.261394
2335.000000;0.261375
2334.000000;0.261451
2333.000000;0.261772
2332.000000;0.262319
2331.000000;0.262873
2330.000000;0.263339
2329.000000;0.263684
2328.000000;0.264030
2327.000000;0.264509
2326.000000;0.265198
2325.000000;0.266047
2324.000000;0.266845
2323.000000;0.267431
2322.000000;0.267801
2321.000000;0.268056
2320.000000;0.268227
2319.000000;0.268202
2318.000000;0.267994
2317.000000;0.267823
2316.000000;0.268056
2315.000000;0.268799
2314.000000;0.269853
2313.000000;0.270806
2312.000000;0.271449
2311.000000;0.271877
2310.000000;0.272460
2309.000000;0.273465
2308.000000;0.274825
2307.000000;0.276104
2306.000000;0.276846
2305.000000;0.276902
2304.000000;0.276552
2303.000000;0.276233
2302.000000;0.276248
2301.000000;0.276601
2300.000000;0.277142
2299.000000;0.277698
2298.000000;0.278170
2297.000000;0.278454
2296.000000;0.278488
2295.000000;0.278332
2294.000000;0.278221
2293.000000;0.278416
2292.000000;0.279028
2291.000000;0.279983
2290.000000;0.281114
2289.000000;0.282214
2288.000000;0.283049
2287.000000;0.283485
2286.000000;0.283616
2285.000000;0.283686
2284.000000;0.283842
2283.000000;0.284075
2282.000000;0.284401
2281.000000;0.284955
2280.000000;0.285750
2279.000000;0.286490
2278.000000;0.286824
2277.000000;0.286784
2276.000000;0.286813
2275.000000;0.287290
2274.000000;0.288138
2273.000000;0.288960
2272.000000;0.289463
2271.000000;0.289691
2270.000000;0.289889
2269.000000;0.290254
2268.000000;0.290851
2267.000000;0.291639
2266.000000;0.292498
2265.000000;0.293225
2264.000000;0.293628
2263.000000;0.293694
2262.000000;0.293645
2261.000000;0.293767
2260.000000;0.294195
2259.000000;0.294874
2258.000000;0.295690
2257.000000;0.296531
2256.000000;0.297257
2255.000000;0.297720
2254.000000;0.297895
2253.000000;0.297912
2252.000000;0.297952
2251.000000;0.298150
2250.000000;0.298577
2249.000000;0.299210
2248.000000;0.299905
2247.000000;0.300515
2246.000000;0.301076
2245.000000;0.301751
2244.000000;0.302540
2243.000000;0.303204
2242.000000;0.303576
2241.000000;0.303785
2240.000000;0.304001
2239.000000;0.304118
2238.000000;0.303942
2237.000000;0.303627
2236.000000;0.303656
2235.000000;0.304300
2234.000000;0.305318
2233.000000;0.306290
2232.000000;0.307074
2231.000000;0.307796
2230.000000;0.308536
2229.000000;0.309202
2228.000000;0.309711
2227.000000;0.310110
2226.000000;0.310494
2225.000000;0.310867
2224.000000;0.311167
2223.000000;0.311380
2222.000000;0.311589
2221.000000;0.311902
2220.000000;0.312344
2219.000000;0.312831
2218.000000;0.313234
2217.000000;0.313465
2216.000000;0.313546
2215.000000;0.313633
2214.000000;0.313956
2213.000000;0.314639
2212.000000;0.315533
2211.000000;0.316314
2210.000000;0.316795
2209.000000;0.317100
2208.000000;0.317450
2207.000000;0.317865
2206.000000;0.318191
2205.000000;0.318382
2204.000000;0.318593
2203.000000;0.318980
2202.000000;0.319527
2201.000000;0.320142
2200.000000;0.320812
2199.000000;0.321574
2198.000000;0.322382
2197.000000;0.323096
2196.000000;0.323602
2195.000000;0.323898
2194.000000;0.324066
2193.000000;0.324203
2192.000000;0.324388
2191.000000;0.324662
2190.000000;0.325005
2189.000000;0.325331
2188.000000;0.325579
2187.000000;0.325820
2186.000000;0.326260
2185.000000;0.327034
2184.000000;0.328001
2183.000000;0.328798
2182.000000;0.329165
2181.000000;0.329181
2180.000000;0.329143
2179.000000;0.329274
2178.000000;0.329610
2177.000000;0.330098
2176.000000;0.330682
2175.000000;0.331300
2174.000000;0.331900
2173.000000;0.332507
2172.000000;0.333198
2171.000000;0.333967
2170.000000;0.334658
2169.000000;0.335093
2168.000000;0.335274
2167.000000;0.335440
2166.000000;0.335870
2165.000000;0.336606
2164.000000;0.337362
2163.000000;0.337761
2162.000000;0.337694
2161.000000;0.337426
2160.000000;0.337317
2159.000000;0.337520
2158.000000;0.337957
2157.000000;0.338510
2156.000000;0.339113
2155.000000;0.339711
2154.000000;0.340246
2153.000000;0.340696
2152.000000;0.341089
2151.000000;0.341475
2150.000000;0.341945
2149.000000;0.342596
2148.000000;0.343395
2147.000000;0.344102
2146.000000;0.344455
2145.000000;0.344449
2144.000000;0.344354
2143.000000;0.344454
2142.000000;0.344870
2141.000000;0.345598
2140.000000;0.346576
2139.000000;0.347640
2138.000000;0.348547
2137.000000;0.349151
2136.000000;0.349515
2135.000000;0.349802
2134.000000;0.350099
2133.000000;0.350393
2132.000000;0.350665
2131.000000;0.350918
2130.000000;0.351122
2129.000000;0.351223
2128.000000;0.351256
2127.000000;0.351414
2126.000000;0.351941
2125.000000;0.352884
2124.000000;0.353966
2123.000000;0.354773
2122.000000;0.355124
2121.000000;0.355224
2120.000000;0.355410
2119.000000;0.355847
2118.000000;0.356480
2117.000000;0.357185
2116.000000;0.357821
2115.000000;0.358205
2114.000000;0.358252
2113.000000;0.358152
2112.000000;0.358255
2111.000000;0.358710
2110.000000;0.359308
2109.000000;0.359737
2108.000000;0.359939
2107.000000;0.360139
2106.000000;0.360593
2105.000000;0.361345
2104.000000;0.362217
2103.000000;0.362979
2102.000000;0.363540
2101.000000;0.364011
2100.000000;0.364559
2099.000000;0.365234
2098.000000;0.365948
2097.000000;0.366552
2096.000000;0.366909
2095.000000;0.366947
2094.000000;0.366776
2093.000000;0.366699
2092.000000;0.366965
2091.000000;0.367532
2090.000000;0.368168
2089.000000;0.368746
2088.000000;0.369286
2087.000000;0.369750
2086.000000;0.370027
2085.000000;0.370163
2084.000000;0.370381
2083.000000;0.370790
2082.000000;0.371270
2081.000000;0.371774
2080.000000;0.372512
2079.000000;0.373622
2078.000000;0.374806
2077.000000;0.375565
2076.000000;0.375778
2075.000000;0.375816
2074.000000;0.376091
2073.000000;0.376660
2072.000000;0.377300
2071.000000;0.377808
2070.000000;0.378167
2069.000000;0.378509
2068.000000;0.378966
2067.000000;0.379495
2066.000000;0.379872
2065.000000;0.379937
2064.000000;0.379827
2063.000000;0.379844
2062.000000;0.380111
2061.000000;0.380513
2060.000000;0.380948
2059.000000;0.381484
2058.000000;0.382164
2057.000000;0.382822
2056.000000;0.383231
2055.000000;0.383369
2054.000000;0.383435
2053.000000;0.383631
2052.000000;0.384035
2051.000000;0.384646
2050.000000;0.385415
2049.000000;0.386212
2048.000000;0.386872
2047.000000;0.387324
2046.000000;0.387662
2045.000000;0.388035
2044.000000;0.388502
2043.000000;0.389024
2042.000000;0.389574
2041.000000;0.390179
2040.000000;0.390826
2039.000000;0.391392
2038.000000;0.391756
2037.000000;0.391989
2036.000000;0.392330
2035.000000;0.392909
2034.000000;0.393560
2033.000000;0.393996
2032.000000;0.394168
2031.000000;0.394317
2030.000000;0.394648
2029.000000;0.395108
2028.000000;0.395548
2027.000000;0.395999
2026.000000;0.396608
2025.000000;0.397341
2024.000000;0.397936
2023.000000;0.398223
2022.000000;0.398350
2021.000000;0.398597
2020.000000;0.399065
2019.000000;0.399647
2018.000000;0.400225
2017.000000;0.400741
2016.000000;0.401121
2015.000000;0.401314
2014.000000;0.401444
2013.000000;0.401778
2012.000000;0.402427
2011.000000;0.403188
2010.000000;0.403773
2009.000000;0.404120
2008.000000;0.404394
2007.000000;0.404742
2006.000000;0.405168
2005.000000;0.405649
2004.000000;0.406222
2003.000000;0.406913
2002.000000;0.407622
2001.000000;0.408140
2000.000000;0.408301
1999.000000;0.408167
1998.000000;0.408047
1997.000000;0.408295
1996.000000;0.408999
1995.000000;0.409910
1994.000000;0.410721
1993.000000;0.411348
1992.000000;0.411894
1991.000000;0.412416
1990.000000;0.412882
1989.000000;0.413315
1988.000000;0.413807
1987.000000;0.414355
1986.000000;0.414852
1985.000000;0.415250
1984.000000;0.415624
1983.000000;0.416023
1982.000000;0.416428
1981.000000;0.416907
1980.000000;0.417621
1979.000000;0.418516
1978.000000;0.419173
1977.000000;0.419213
1976.000000;0.418806
1975.000000;0.418565
1974.000000;0.418921
1973.000000;0.419732
1972.000000;0.420536
1971.000000;0.421024
1970.000000;0.421236
1969.000000;0.421436
1968.000000;0.421891
1967.000000;0.422680
1966.000000;0.423606
1965.000000;0.424345
1964.000000;0.424746
1963.000000;0.424948
1962.000000;0.425163
1961.000000;0.425435
1960.000000;0.425699
1959.000000;0.426008
1958.000000;0.426540
1957.000000;0.427342
1956.000000;0.428183
1955.000000;0.428744
1954.000000;0.428955
1953.000000;0.429077
1952.000000;0.429450
1951.000000;0.430168
1950.000000;0.431012
1949.000000;0.431680
1948.000000;0.432063
1947.000000;0.432308
1946.000000;0.432619
1945.000000;0.433058
1944.000000;0.433546
1943.000000;0.434032
1942.000000;0.434554
1941.000000;0.435123
1940.000000;0.435636
1939.000000;0.435991
1938.000000;0.436255
1937.000000;0.436604
1936.000000;0.437065
1935.000000;0.437427
1934.000000;0.437506
1933.000000;0.437454
1932.000000;0.437673
1931.000000;0.438405
1930.000000;0.439478
1929.000000;0.440496
1928.000000;0.441201
1927.000000;0.441615
1926.000000;0.441882
1925.000000;0.442113
1924.000000;0.442373
1923.000000;0.442744
1922.000000;0.443286
1921.000000;0.443928
1920.000000;0.444468
1919.000000;0.444729
1918.000000;0.444774
1917.000000;0.444920
1916.000000;0.445470
1915.000000;0.446420
1914.000000;0.447483
1913.000000;0.448364
1912.000000;0.448954
1911.000000;0.449268
1910.000000;0.449352
1909.000000;0.449349
1908.000000;0.449531
1907.000000;0.450077
1906.000000;0.450835
1905.000000;0.451447
1904.000000;0.451733
1903.000000;0.451839
1902.000000;0.452009
1901.000000;0.452362
1900.000000;0.452918
1899.000000;0.453642
1898.000000;0.454390
1897.000000;0.454950
1896.000000;0.455281
1895.000000;0.455609
1894.000000;0.456149
1893.000000;0.456835
1892.000000;0.457442
1891.000000;0.457886
1890.000000;0.458243
1889.000000;0.458575
1888.000000;0.458889
1887.000000;0.459217
1886.000000;0.459574
1885.000000;0.459894
1884.000000;0.460218
1883.000000;0.460863
1882.000000;0.462063
1881.000000;0.463482
1880.000000;0.464423
1879.000000;0.464669
1878.000000;0.464763
1877.000000;0.465269
1876.000000;0.466063
1875.000000;0.466619
1874.000000;0.466726
1873.000000;0.466558
1872.000000;0.466257
1871.000000;0.465906
1870.000000;0.465841
1869.000000;0.466509
1868.000000;0.467871
1867.000000;0.469261
1866.000000;0.470026
1865.000000;0.470121
1864.000000;0.469929
1863.000000;0.469830
1862.000000;0.470114
1861.000000;0.470995
1860.000000;0.472381
1859.000000;0.473746
1858.000000;0.474511
1857.000000;0.474560
1856.000000;0.474247
1855.000000;0.473989
1854.000000;0.474023
1853.000000;0.474463
1852.000000;0.475295
1851.000000;0.476278
1850.000000;0.477050
1849.000000;0.477426
1848.000000;0.477546
1847.000000;0.477684
1846.000000;0.477998
1845.000000;0.478463
1844.000000;0.478945
1843.000000;0.479275
1842.000000;0.479345
1841.000000;0.479300
1840.000000;0.479534
1839.000000;0.480356
1838.000000;0.481601
1837.000000;0.482649
1836.000000;0.482957
1835.000000;0.482627
1834.000000;0.482339
1833.000000;0.482650
1832.000000;0.483453
1831.000000;0.484260
1830.000000;0.484899
1829.000000;0.485651
1828.000000;0.486643
1827.000000;0.487529
1826.000000;0.487943
1825.000000;0.488021
1824.000000;0.488249
1823.000000;0.488888
1822.000000;0.489780
1821.000000;0.490639
1820.000000;0.491295
1819.000000;0.491668
1818.000000;0.491782
1817.000000;0.491852
1816.000000;0.492168
1815.000000;0.492797
1814.000000;0.493505
1813.000000;0.494043
1812.000000;0.494440
1811.000000;0.494925
1810.000000;0.495631
1809.000000;0.496438
1808.000000;0.497095
1807.000000;0.497468
1806.000000;0.497654
1805.000000;0.497870
1804.000000;0.498223
1803.000000;0.498632
1802.000000;0.498997
1801.000000;0.499365
1800.000000;0.499838
1799.000000;0.500375
1798.000000;0.500806
1797.000000;0.501055
1796.000000;0.501233
1795.000000;0.501517
1794.000000;0.502013
1793.000000;0.502720
1792.000000;0.503550
1791.000000;0.504331
1790.000000;0.504889
1789.000000;0.505209
1788.000000;0.505424
1787.000000;0.505639
1786.000000;0.505901
1785.000000;0.506319
1784.000000;0.507030
1783.000000;0.507981
1782.000000;0.508903
1781.000000;0.509550
1780.000000;0.509909
1779.000000;0.510111
1778.000000;0.510250
1777.000000;0.510398
1776.000000;0.510670
1775.000000;0.511129
1774.000000;0.511656
1773.000000;0.512046
1772.000000;0.512301
1771.000000;0.512647
1770.000000;0.513239
1769.000000;0.514003
1768.000000;0.514721
1767.000000;0.515232
1766.000000;0.515591
1765.000000;0.515995
1764.000000;0.516559
1763.000000;0.517198
1762.000000;0.517775
1761.000000;0.518273
1760.000000;0.518759
1759.000000;0.519274
1758.000000;0.519839
1757.000000;0.520445
1756.000000;0.521004
1755.000000;0.521346
1754.000000;0.521413
1753.000000;0.521402
1752.000000;0.521587
1751.000000;0.522023
1750.000000;0.522565
1749.000000;0.523125
1748.000000;0.523740
1747.000000;0.524399
1746.000000;0.524975
1745.000000;0.525413
1744.000000;0.525857
1743.000000;0.526444
1742.000000;0.527101
1741.000000;0.527664
1740.000000;0.528097
1739.000000;0.528495
1738.000000;0.528927
1737.000000;0.529406
1736.000000;0.529940
1735.000000;0.530489
1734.000000;0.530990
1733.000000;0.531497
1732.000000;0.532085
1731.000000;0.532804
1730.000000;0.533626
1729.000000;0.534428
1728.000000;0.535082
1727.000000;0.535500
1726.000000;0.535619
1725.000000;0.535468
1724.000000;0.535248
1723.000000;0.535237
1722.000000;0.535579
1721.000000;0.536205
1720.000000;0.536923
1719.000000;0.537552
1718.000000;0.538048
1717.000000;0.538564
1716.000000;0.539229
1715.000000;0.539976
1714.000000;0.540639
1713.000000;0.541122
1712.000000;0.541498
1711.000000;0.541931
1710.000000;0.542492
1709.000000;0.543096
1708.000000;0.543631
1707.000000;0.544074
1706.000000;0.544493
1705.000000;0.544978
1704.000000;0.545552
1703.000000;0.546151
1702.000000;0.546669
1701.000000;0.546998
1700.000000;0.547210
1699.000000;0.547592
1698.000000;0.548232
1697.000000;0.548916
1696.000000;0.549376
1695.000000;0.549533
1694.000000;0.549538
1693.000000;0.549649
1692.000000;0.549989
1691.000000;0.550480
1690.000000;0.551021
1689.000000;0.551644
1688.000000;0.552445
1687.000000;0.553396
1686.000000;0.554272
1685.000000;0.554793
1684.000000;0.554996
1683.000000;0.555167
1682.000000;0.555340
1681.000000;0.555492
1680.000000;0.555710
1679.000000;0.556100
1678.000000;0.556730
1677.000000;0.557584
1676.000000;0.558541
1675.000000;0.559399
1674.000000;0.559965
1673.000000;0.560199
1672.000000;0.560353
1671.000000;0.560788
1670.000000;0.561628
1669.000000;0.562655
1668.000000;0.563523
1667.000000;0.564102
1666.000000;0.564532
1665.000000;0.564931
1664.000000;0.565251
1663.000000;0.565492
1662.000000;0.565849
1661.000000;0.566452
1660.000000;0.567161
1659.000000;0.567725
1658.000000;0.568047
1657.000000;0.568258
1656.000000;0.568557
1655.000000;0.569007
1654.000000;0.569485
1653.000000;0.570020
1652.000000;0.570690
1651.000000;0.571224
1650.000000;0.571643
1649.000000;0.572131
1648.000000;0.572645
1647.000000;0.573051
1646.000000;0.573382
1645.000000;0.573749
1644.000000;0.574229
1643.000000;0.574785
1642.000000;0.575264
1641.000000;0.575586
1640.000000;0.575855
1639.000000;0.576240
1638.000000;0.576805
1637.000000;0.577453
1636.000000;0.578047
1635.000000;0.578579
1634.000000;0.579101
1633.000000;0.579742
1632.000000;0.580571
1631.000000;0.581366
1630.000000;0.581824
1629.000000;0.581959
1628.000000;0.582072
1627.000000;0.582361
1626.000000;0.582767
1625.000000;0.583213
1624.000000;0.583764
1623.000000;0.584468
1622.000000;0.585200
1621.000000;0.585788
1620.000000;0.586245
1619.000000;0.586669
1618.000000;0.587025
1617.000000;0.587252
1616.000000;0.587461
1615.000000;0.587766
1614.000000;0.588126
1613.000000;0.588523
1612.000000;0.589081
1611.000000;0.589926
1610.000000;0.590959
1609.000000;0.591912
1608.000000;0.592625
1607.000000;0.593144
1606.000000;0.593545
1605.000000;0.593817
1604.000000;0.593981
1603.000000;0.594182
1602.000000;0.594532
1601.000000;0.594982
1600.000000;0.595429
1599.000000;0.595900
1598.000000;0.596514
1597.000000;0.597297
1596.000000;0.598110
1595.000000;0.598803
1594.000000;0.599356
1593.000000;0.599834
1592.000000;0.600251
1591.000000;0.600559
1590.000000;0.600765
1589.000000;0.600985
1588.000000;0.601354
1587.000000;0.601912
1586.000000;0.602649
1585.000000;0.603582
1584.000000;0.604656
1583.000000;0.605619
1582.000000;0.606152
1581.000000;0.606232
1580.000000;0.606245
1579.000000;0.606563
1578.000000;0.607110
1577.000000;0.607514
1576.000000;0.607665
1575.000000;0.607819
1574.000000;0.608133
1573.000000;0.608494
1572.000000;0.608735
1571.000000;0.608892
1570.000000;0.609208
1569.000000;0.609918
1568.000000;0.610970
1567.000000;0.612075
1566.000000;0.612931
1565.000000;0.613349
1564.000000;0.613401
1563.000000;0.613492
1562.000000;0.614070
1561.000000;0.615118
1560.000000;0.615991
1559.000000;0.616257
1558.000000;0.616438
1557.000000;0.616758
1556.000000;0.617181
1555.000000;0.617659
1554.000000;0.618056
1553.000000;0.618410
1552.000000;0.618877
1551.000000;0.619411
1550.000000;0.619742
1549.000000;0.619765
1548.000000;0.619740
1547.000000;0.620028
1546.000000;0.620669
1545.000000;0.621367
1544.000000;0.621899
1543.000000;0.622324
1542.000000;0.622769
1541.000000;0.623206
1540.000000;0.623605
1539.000000;0.624022
1538.000000;0.624399
1537.000000;0.624809
1536.000000;0.625382
1535.000000;0.626067
1534.000000;0.626739
1533.000000;0.627391
1532.000000;0.628022
1531.000000;0.628516
1530.000000;0.628818
1529.000000;0.629044
1528.000000;0.629373
1527.000000;0.629900
1526.000000;0.630593
1525.000000;0.631368
1524.000000;0.632172
1523.000000;0.632969
1522.000000;0.633712
1521.000000;0.634407
1520.000000;0.635090
1519.000000;0.635817
1518.000000;0.636668
1517.000000;0.637588
1516.000000;0.638345
1515.000000;0.638699
1514.000000;0.638684
1513.000000;0.638624
1512.000000;0.638790
1511.000000;0.639168
1510.000000;0.639573
1509.000000;0.639862
1508.000000;0.640033
1507.000000;0.640298
1506.000000;0.640951
1505.000000;0.641783
1504.000000;0.642499
1503.000000;0.643125
1502.000000;0.643783
1501.000000;0.644539
1500.000000;0.645311
1499.000000;0.645888
1498.000000;0.646144
1497.000000;0.646209
1496.000000;0.646351
1495.000000;0.646712
1494.000000;0.647261
1493.000000;0.647908
1492.000000;0.648546
1491.000000;0.649056
1490.000000;0.649433
1489.000000;0.649815
1488.000000;0.650286
1487.000000;0.650804
1486.000000;0.651357
1485.000000;0.652006
1484.000000;0.652714
1483.000000;0.653233
1482.000000;0.653346
1481.000000;0.653241
1480.000000;0.653402
1479.000000;0.654079
1478.000000;0.654996
1477.000000;0.655685
1476.000000;0.655985
1475.000000;0.656100
1474.000000;0.656307
1473.000000;0.656768
1472.000000;0.657541
1471.000000;0.658489
1470.000000;0.659322
1469.000000;0.659862
1468.000000;0.660169
1467.000000;0.660414
1466.000000;0.660723
1465.000000;0.661167
1464.000000;0.661813
1463.000000;0.662622
1462.000000;0.663384
1461.000000;0.663869
1460.000000;0.664049
1459.000000;0.664130
1458.000000;0.664366
1457.000000;0.664897
1456.000000;0.665622
1455.000000;0.666266
1454.000000;0.666754
1453.000000;0.667185
1452.000000;0.667630
1451.000000;0.668075
1450.000000;0.668470
1449.000000;0.668801
1448.000000;0.669119
1447.000000;0.669514
1446.000000;0.670049
1445.000000;0.670718
1444.000000;0.671461
1443.000000;0.672179
1442.000000;0.672775
1441.000000;0.673216
1440.000000;0.673539
1439.000000;0.673798
1438.000000;0.674039
1437.000000;0.674329
1436.000000;0.674752
1435.000000;0.675294
1434.000000;0.675871
1433.000000;0.676496
1432.000000;0.677268
1431.000000;0.678167
1430.000000;0.678979
1429.000000;0.679473
1428.000000;0.679608
1427.000000;0.679557
1426.000000;0.679562
1425.000000;0.679788
1424.000000;0.680298
1423.000000;0.681048
1422.000000;0.681900
1421.000000;0.682724
1420.000000;0.683463
1419.000000;0.684108
1418.000000;0.684640
1417.000000;0.684967
1416.000000;0.685056
1415.000000;0.685037
1414.000000;0.685096
1413.000000;0.685360
1412.000000;0.685876
1411.000000;0.686620
1410.000000;0.687504
1409.000000;0.688420
1408.000000;0.689291
1407.000000;0.690051
1406.000000;0.690629
1405.000000;0.690970
1404.000000;0.691102
1403.000000;0.691161
1402.000000;0.691337
1401.000000;0.691732
1400.000000;0.692244
1399.000000;0.692638
1398.000000;0.692804
1397.000000;0.692916
1396.000000;0.693289
1395.000000;0.694033
1394.000000;0.694881
1393.000000;0.695425
1392.000000;0.695536
1391.000000;0.695500
1390.000000;0.695731
1389.000000;0.696403
1388.000000;0.697330
1387.000000;0.698168
1386.000000;0.698711
1385.000000;0.699048
1384.000000;0.699436
1383.000000;0.700041
1382.000000;0.700813
1381.000000;0.701607
1380.000000;0.702293
1379.000000;0.702753
1378.000000;0.702929
1377.000000;0.702975
1376.000000;0.703227
1375.000000;0.703889
1374.000000;0.704786
1373.000000;0.705543
1372.000000;0.705991
1371.000000;0.706290
1370.000000;0.706631
1369.000000;0.707012
1368.000000;0.707374
1367.000000;0.707804
1366.000000;0.708446
1365.000000;0.709273
1364.000000;0.710062
1363.000000;0.710623
1362.000000;0.710940
1361.000000;0.711097
1360.000000;0.711187
1359.000000;0.711322
1358.000000;0.711647
1357.000000;0.712254
1356.000000;0.713100
1355.000000;0.714012
1354.000000;0.714798
1353.000000;0.715362
1352.000000;0.715735
1351.000000;0.716016
1350.000000;0.716283
1349.000000;0.716583
1348.000000;0.716992
1347.000000;0.717641
1346.000000;0.718589
1345.000000;0.719664
1344.000000;0.720507
1343.000000;0.720876
1342.000000;0.720899
1341.000000;0.720979
1340.000000;0.721438
1339.000000;0.722301
1338.000000;0.723379
1337.000000;0.724468
1336.000000;0.725424
1335.000000;0.726153
1334.000000;0.726650
1333.000000;0.727024
1332.000000;0.727389
1331.000000;0.727722
1330.000000;0.727925
1329.000000;0.727999
1328.000000;0.728066
1327.000000;0.728194
1326.000000;0.728304
1325.000000;0.728335
1324.000000;0.728436
1323.000000;0.728847
1322.000000;0.729546
1321.000000;0.730149
1320.000000;0.730294
1319.000000;0.730136
1318.000000;0.730285
1317.000000;0.731139
1316.000000;0.732407
1315.000000;0.733419
1314.000000;0.733868
1313.000000;0.734062
1312.000000;0.734427
1311.000000;0.735041
1310.000000;0.735728
1309.000000;0.736366
1308.000000;0.736899
1307.000000;0.737227
1306.000000;0.737329
1305.000000;0.737410
1304.000000;0.737705
1303.000000;0.738182
1302.000000;0.738653
1301.000000;0.739107
1300.000000;0.739701
1299.000000;0.740442
1298.000000;0.741127
1297.000000;0.741649
1296.000000;0.742098
1295.000000;0.742530
1294.000000;0.742862
1293.000000;0.743109
1292.000000;0.743485
1291.000000;0.744109
1290.000000;0.744804
1289.000000;0.745321
1288.000000;0.745647
1287.000000;0.745942
1286.000000;0.746307
1285.000000;0.746751
1284.000000;0.747272
1283.000000;0.747817
1282.000000;0.748247
1281.000000;0.748487
1280.000000;0.748650
1279.000000;0.748924
1278.000000;0.749393
1277.000000;0.750039
1276.000000;0.750809
1275.000000;0.751584
1274.000000;0.752203
1273.000000;0.752623
1272.000000;0.752989
1271.000000;0.753416
1270.000000;0.753851
1269.000000;0.754226
1268.000000;0.754615
1267.000000;0.755085
1266.000000;0.755524
1265.000000;0.755826
1264.000000;0.756126
1263.000000;0.756626
1262.000000;0.757245
1261.000000;0.757699
1260.000000;0.757914
1259.000000;0.758126
1258.000000;0.758552
1257.000000;0.759173
1256.000000;0.759898
1255.000000;0.760741
1254.000000;0.761701
1253.000000;0.762625
1252.000000;0.763301
1251.000000;0.763644
1250.000000;0.763706
1249.000000;0.763589
1248.000000;0.763393
1247.000000;0.763217
1246.000000;0.763137
1245.000000;0.763240
1244.000000;0.763665
1243.000000;0.764521
1242.000000;0.765700
1241.000000;0.766856
1240.000000;0.767668
1239.000000;0.768099
1238.000000;0.768394
1237.000000;0.768820
1236.000000;0.769450
1235.000000;0.770130
1234.000000;0.770650
1233.000000;0.770940
1232.000000;0.771125
1231.000000;0.771365
1230.000000;0.771681
1229.000000;0.771985
1228.000000;0.772272
1227.000000;0.772678
1226.000000;0.773338
1225.000000;0.774215
1224.000000;0.775113
1223.000000;0.775831
1222.000000;0.776304
1221.000000;0.776630
1220.000000;0.776983
1219.000000;0.777460
1218.000000;0.778018
1217.000000;0.778560
1216.000000;0.779065
1215.000000;0.779572
1214.000000;0.780065
1213.000000;0.780468
1212.000000;0.780786
1211.000000;0.781163
1210.000000;0.781739
1209.000000;0.782470
1208.000000;0.783152
1207.000000;0.783629
1206.000000;0.783920
1205.000000;0.784166
1204.000000;0.784497
1203.000000;0.784967
1202.000000;0.785567
1201.000000;0.786214
1200.000000;0.786756
