Criado como novo conjunto de dados;"0307_DANIEL.spp","75785.7 Secs"
cm-1;Abs
10000.000000;0.550243
9999.000000;0.549221
9998.000000;0.548186
9997.000000;0.547185
9996.000000;0.546062
9995.000000;0.544962
9994.000000;0.544103
9993.000000;0.543374
9992.000000;0.542699
9991.000000;0.542091
9990.000000;0.541534
9989.000000;0.540868
9988.000000;0.539999
9987.000000;0.539065
9986.000000;0.538266
9985.000000;0.537573
9984.000000;0.536815
9983.000000;0.536028
9982.000000;0.535497
9981.000000;0.535332
9980.000000;0.535183
9979.000000;0.534572
9978.000000;0.533470
9977.000000;0.532293
9976.000000;0.531335
9975.000000;0.530435
9974.000000;0.529328
9973.000000;0.528111
9972.000000;0.527109
9971.000000;0.526378
9970.000000;0.525578
9969.000000;0.524413
9968.000000;0.523009
9967.000000;0.521745
9966.000000;0.520839
9965.000000;0.520222
9964.000000;0.519741
9963.000000;0.519317
9962.000000;0.518911
9961.000000;0.518436
9960.000000;0.517798
9959.000000;0.516986
9958.000000;0.516088
9957.000000;0.515225
9956.000000;0.514448
9955.000000;0.513690
9954.000000;0.512831
9953.000000;0.511830
9952.000000;0.510788
9951.000000;0.509867
9950.000000;0.509140
9949.000000;0.508538
9948.000000;0.507927
9947.000000;0.507204
9946.000000;0.506355
9945.000000;0.505442
9944.000000;0.504522
9943.000000;0.503582
9942.000000;0.502577
9941.000000;0.501559
9940.000000;0.500701
9939.000000;0.500122
9938.000000;0.499685
9937.000000;0.499060
9936.000000;0.498030
9935.000000;0.496705
9934.000000;0.495419
9933.000000;0.494427
9932.000000;0.493718
9931.000000;0.493076
9930.000000;0.492312
9929.000000;0.491457
9928.000000;0.490698
9927.000000;0.490097
9926.000000;0.489411
9925.000000;0.488287
9924.000000;0.486655
9923.000000;0.484882
9922.000000;0.483483
9921.000000;0.482716
9920.000000;0.482431
9919.000000;0.482202
9918.000000;0.481585
9917.000000;0.480383
9916.000000;0.478792
9915.000000;0.477293
9914.000000;0.476277
9913.000000;0.475740
9912.000000;0.475334
9911.000000;0.474709
9910.000000;0.473766
9909.000000;0.472636
9908.000000;0.471526
9907.000000;0.470591
9906.000000;0.469861
9905.000000;0.469224
9904.000000;0.468517
9903.000000;0.467701
9902.000000;0.466883
9901.000000;0.466135
9900.000000;0.465350
9899.000000;0.464331
9898.000000;0.463026
9897.000000;0.461581
9896.000000;0.460202
9895.000000;0.459017
9894.000000;0.458059
9893.000000;0.457258
9892.000000;0.456395
9891.000000;0.455206
9890.000000;0.453671
9889.000000;0.452173
9888.000000;0.451192
9887.000000;0.450787
9886.000000;0.450462
9885.000000;0.449649
9884.000000;0.448286
9883.000000;0.446848
9882.000000;0.445820
9881.000000;0.445263
9880.000000;0.444869
9879.000000;0.444320
9878.000000;0.443521
9877.000000;0.442548
9876.000000;0.441495
9875.000000;0.440405
9874.000000;0.439309
9873.000000;0.438254
9872.000000;0.437265
9871.000000;0.436272
9870.000000;0.435146
9869.000000;0.433865
9868.000000;0.432599
9867.000000;0.431552
9866.000000;0.430706
9865.000000;0.429789
9864.000000;0.428534
9863.000000;0.426934
9862.000000;0.425252
9861.000000;0.423819
9860.000000;0.422814
9859.000000;0.422146
9858.000000;0.421495
9857.000000;0.420579
9856.000000;0.419446
9855.000000;0.418442
9854.000000;0.417817
9853.000000;0.417441
9852.000000;0.416954
9851.000000;0.416128
9850.000000;0.414996
9849.000000;0.413692
9848.000000;0.412334
9847.000000;0.411063
9846.000000;0.410017
9845.000000;0.409196
9844.000000;0.408430
9843.000000;0.407528
9842.000000;0.406430
9841.000000;0.405182
9840.000000;0.403864
9839.000000;0.402539
9838.000000;0.401208
9837.000000;0.399798
9836.000000;0.398245
9835.000000;0.396632
9834.000000;0.395167
9833.000000;0.393991
9832.000000;0.393078
9831.000000;0.392347
9830.000000;0.391741
9829.000000;0.391141
9828.000000;0.390325
9827.000000;0.389162
9826.000000;0.387788
9825.000000;0.386474
9824.000000;0.385363
9823.000000;0.384408
9822.000000;0.383513
9821.000000;0.382577
9820.000000;0.381418
9819.000000;0.379874
9818.000000;0.378072
9817.000000;0.376469
9816.000000;0.375486
9815.000000;0.375100
9814.000000;0.374831
9813.000000;0.374122
9812.000000;0.372738
9811.000000;0.370880
9810.000000;0.368973
9809.000000;0.367351
9808.000000;0.366076
9807.000000;0.365026
9806.000000;0.364062
9805.000000;0.363083
9804.000000;0.361959
9803.000000;0.360591
9802.000000;0.359064
9801.000000;0.357636
9800.000000;0.356474
9799.000000;0.355474
9798.000000;0.354411
9797.000000;0.353199
9796.000000;0.351932
9795.000000;0.350706
9794.000000;0.349533
9793.000000;0.348385
9792.000000;0.347249
9791.000000;0.346125
9790.000000;0.345065
9789.000000;0.344158
9788.000000;0.343391
9787.000000;0.342532
9786.000000;0.341305
9785.000000;0.339684
9784.000000;0.337915
9783.000000;0.336214
9782.000000;0.334606
9781.000000;0.333084
9780.000000;0.331761
9779.000000;0.330702
9778.000000;0.329757
9777.000000;0.328706
9776.000000;0.327521
9775.000000;0.326302
9774.000000;0.325026
9773.000000;0.323587
9772.000000;0.322075
9771.000000;0.320784
9770.000000;0.319836
9769.000000;0.318971
9768.000000;0.317865
9767.000000;0.316534
9766.000000;0.315247
9765.000000;0.314099
9764.000000;0.312883
9763.000000;0.311417
9762.000000;0.309820
9761.000000;0.308360
9760.000000;0.307103
9759.000000;0.305835
9758.000000;0.304335
9757.000000;0.302649
9756.000000;0.301042
9755.000000;0.299715
9754.000000;0.298613
9753.000000;0.297521
9752.000000;0.296291
9751.000000;0.294892
9750.000000;0.293286
9749.000000;0.291393
9748.000000;0.289290
9747.000000;0.287321
9746.000000;0.285827
9745.000000;0.284768
9744.000000;0.283764
9743.000000;0.282533
9742.000000;0.281152
9741.000000;0.279819
9740.000000;0.278499
9739.000000;0.276995
9738.000000;0.275273
9737.000000;0.273544
9736.000000;0.272014
9735.000000;0.270688
9734.000000;0.269457
9733.000000;0.268243
9732.000000;0.266994
9731.000000;0.265639
9730.000000;0.264148
9729.000000;0.262595
9728.000000;0.261077
9727.000000;0.259604
9726.000000;0.258114
9725.000000;0.256585
9724.000000;0.255054
9723.000000;0.253517
9722.000000;0.251877
9721.000000;0.250030
9720.000000;0.248040
9719.000000;0.246181
9718.000000;0.244746
9717.000000;0.243762
9716.000000;0.242925
9715.000000;0.241877
9714.000000;0.240538
9713.000000;0.239085
9712.000000;0.237642
9711.000000;0.236140
9710.000000;0.234505
9709.000000;0.232836
9708.000000;0.231284
9707.000000;0.229848
9706.000000;0.228413
9705.000000;0.226947
9704.000000;0.225518
9703.000000;0.224162
9702.000000;0.222797
9701.000000;0.221277
9700.000000;0.219474
9699.000000;0.217377
9698.000000;0.215215
9697.000000;0.213387
9696.000000;0.212102
9695.000000;0.211101
9694.000000;0.209898
9693.000000;0.208326
9692.000000;0.206669
9691.000000;0.205206
9690.000000;0.203804
9689.000000;0.202100
9688.000000;0.199987
9687.000000;0.197748
9686.000000;0.195737
9685.000000;0.194043
9684.000000;0.192510
9683.000000;0.190988
9682.000000;0.189478
9681.000000;0.188016
9680.000000;0.186502
9679.000000;0.184742
9678.000000;0.182703
9677.000000;0.180600
9676.000000;0.178654
9675.000000;0.176845
9674.000000;0.175027
9673.000000;0.173212
9672.000000;0.171548
9671.000000;0.170033
9670.000000;0.168459
9669.000000;0.166715
9668.000000;0.164968
9667.000000;0.163437
9666.000000;0.162096
9665.000000;0.160725
9664.000000;0.159162
9663.000000;0.157410
9662.000000;0.155568
9661.000000;0.153746
9660.000000;0.151997
9659.000000;0.150261
9658.000000;0.148432
9657.000000;0.146505
9656.000000;0.144592
9655.000000;0.142740
9654.000000;0.140878
9653.000000;0.139009
9652.000000;0.137286
9651.000000;0.135798
9650.000000;0.134391
9649.000000;0.132867
9648.000000;0.131247
9647.000000;0.129665
9646.000000;0.128070
9645.000000;0.126266
9644.000000;0.124210
9643.000000;0.122083
9642.000000;0.120021
9641.000000;0.117946
9640.000000;0.115735
9639.000000;0.113466
9638.000000;0.111418
9637.000000;0.109841
9636.000000;0.108695
9635.000000;0.107596
9634.000000;0.106090
9633.000000;0.104072
9632.000000;0.101857
9631.000000;0.099768
9630.000000;0.097793
9629.000000;0.095765
9628.000000;0.093750
9627.000000;0.091984
9626.000000;0.090488
9625.000000;0.088978
9624.000000;0.087220
9623.000000;0.085269
9622.000000;0.083319
9621.000000;0.081462
9620.000000;0.079656
9619.000000;0.077785
9618.000000;0.075705
9617.000000;0.073391
9616.000000;0.071068
9615.000000;0.069046
9614.000000;0.067352
9613.000000;0.065700
9612.000000;0.063883
9611.000000;0.062003
9610.000000;0.060214
9609.000000;0.058430
9608.000000;0.056462
9607.000000;0.054316
9606.000000;0.052161
9605.000000;0.050085
9604.000000;0.048050
9603.000000;0.046029
9602.000000;0.044035
9601.000000;0.042053
9600.000000;0.040077
9599.000000;0.038192
9598.000000;0.036473
9597.000000;0.034834
9596.000000;0.033093
9595.000000;0.031164
9594.000000;0.029066
9593.000000;0.026780
9592.000000;0.024266
9591.000000;0.021665
9590.000000;0.019310
9589.000000;0.017419
9588.000000;0.015855
9587.000000;0.014278
9586.000000;0.012496
9585.000000;0.010617
9584.000000;0.008843
9583.000000;0.007178
9582.000000;0.005363
9581.000000;0.003131
9580.000000;0.000535
9579.000000;-0.002019
9578.000000;-0.004119
9577.000000;-0.005750
9576.000000;-0.007301
9575.000000;-0.009164
9574.000000;-0.011348
9573.000000;-0.013509
9572.000000;-0.015328
9571.000000;-0.016825
9570.000000;-0.018344
9569.000000;-0.020253
9568.000000;-0.022655
9567.000000;-0.025316
9566.000000;-0.027854
9565.000000;-0.029988
9564.000000;-0.031706
9563.000000;-0.033257
9562.000000;-0.034976
9561.000000;-0.037017
9560.000000;-0.039209
9559.000000;-0.041224
9558.000000;-0.042938
9557.000000;-0.044585
9556.000000;-0.046494
9555.000000;-0.048705
9554.000000;-0.050944
9553.000000;-0.052972
9552.000000;-0.054863
9551.000000;-0.056875
9550.000000;-0.059120
9549.000000;-0.061430
9548.000000;-0.063529
9547.000000;-0.065287
9546.000000;-0.066795
9545.000000;-0.068246
9544.000000;-0.069765
9543.000000;-0.071334
9542.000000;-0.072889
9541.000000;-0.074482
9540.000000;-0.076303
9539.000000;-0.078502
9538.000000;-0.080956
9537.000000;-0.083326
9536.000000;-0.085389
9535.000000;-0.087268
9534.000000;-0.089237
9533.000000;-0.091318
9532.000000;-0.093206
9531.000000;-0.094636
9530.000000;-0.095750
9529.000000;-0.096964
9528.000000;-0.098521
9527.000000;-0.100293
9526.000000;-0.102049
9525.000000;-0.103784
9524.000000;-0.105670
9523.000000;-0.107772
9522.000000;-0.109940
9521.000000;-0.111986
9520.000000;-0.113850
9519.000000;-0.115571
9518.000000;-0.117187
9517.000000;-0.118726
9516.000000;-0.120219
9515.000000;-0.121648
9514.000000;-0.122951
9513.000000;-0.124156
9512.000000;-0.125460
9511.000000;-0.127046
9510.000000;-0.128835
9509.000000;-0.130556
9508.000000;-0.132064
9507.000000;-0.133453
9506.000000;-0.134855
9505.000000;-0.136298
9504.000000;-0.137814
9503.000000;-0.139505
9502.000000;-0.141327
9501.000000;-0.143011
9500.000000;-0.144412
9499.000000;-0.145801
9498.000000;-0.147541
9497.000000;-0.149496
9496.000000;-0.151118
9495.000000;-0.152146
9494.000000;-0.152933
9493.000000;-0.153931
9492.000000;-0.155108
9491.000000;-0.156096
9490.000000;-0.156725
9489.000000;-0.157166
9488.000000;-0.157680
9487.000000;-0.158462
9486.000000;-0.159649
9485.000000;-0.161210
9484.000000;-0.162815
9483.000000;-0.164042
9482.000000;-0.164793
9481.000000;-0.165391
9480.000000;-0.166200
9479.000000;-0.167255
9478.000000;-0.168301
9477.000000;-0.169085
9476.000000;-0.169550
9475.000000;-0.169809
9474.000000;-0.170009
9473.000000;-0.170244
9472.000000;-0.170600
9471.000000;-0.171260
9470.000000;-0.172417
9469.000000;-0.173985
9468.000000;-0.175483
9467.000000;-0.176406
9466.000000;-0.176713
9465.000000;-0.176833
9464.000000;-0.177162
9463.000000;-0.177637
9462.000000;-0.177872
9461.000000;-0.177629
9460.000000;-0.177123
9459.000000;-0.176890
9458.000000;-0.177327
9457.000000;-0.178306
9456.000000;-0.179281
9455.000000;-0.179808
9454.000000;-0.179893
9453.000000;-0.179785
9452.000000;-0.179589
9451.000000;-0.179281
9450.000000;-0.179013
9449.000000;-0.179055
9448.000000;-0.179345
9447.000000;-0.179370
9446.000000;-0.178690
9445.000000;-0.177457
9444.000000;-0.176270
9443.000000;-0.175626
9442.000000;-0.175626
9441.000000;-0.176075
9440.000000;-0.176640
9439.000000;-0.176957
9438.000000;-0.176810
9437.000000;-0.176268
9436.000000;-0.175590
9435.000000;-0.174971
9434.000000;-0.174434
9433.000000;-0.173943
9432.000000;-0.173510
9431.000000;-0.173169
9430.000000;-0.172929
9429.000000;-0.172757
9428.000000;-0.172553
9427.000000;-0.172162
9426.000000;-0.171474
9425.000000;-0.170529
9424.000000;-0.169465
9423.000000;-0.168389
9422.000000;-0.167359
9421.000000;-0.166468
9420.000000;-0.165832
9419.000000;-0.165430
9418.000000;-0.165042
9417.000000;-0.164445
9416.000000;-0.163635
9415.000000;-0.162789
9414.000000;-0.162028
9413.000000;-0.161318
9412.000000;-0.160598
9411.000000;-0.159892
9410.000000;-0.159197
9409.000000;-0.158342
9408.000000;-0.157135
9407.000000;-0.155647
9406.000000;-0.154213
9405.000000;-0.153081
9404.000000;-0.152149
9403.000000;-0.151142
9402.000000;-0.149928
9401.000000;-0.148559
9400.000000;-0.147094
9399.000000;-0.145596
9398.000000;-0.144252
9397.000000;-0.143286
9396.000000;-0.142678
9395.000000;-0.142097
9394.000000;-0.141190
9393.000000;-0.139900
9392.000000;-0.138452
9391.000000;-0.137127
9390.000000;-0.136042
9389.000000;-0.135064
9388.000000;-0.133922
9387.000000;-0.132465
9386.000000;-0.130825
9385.000000;-0.129258
9384.000000;-0.127854
9383.000000;-0.126503
9382.000000;-0.125120
9381.000000;-0.123720
9380.000000;-0.122303
9379.000000;-0.120862
9378.000000;-0.119530
9377.000000;-0.118482
9376.000000;-0.117587
9375.000000;-0.116430
9374.000000;-0.114817
9373.000000;-0.113074
9372.000000;-0.111623
9371.000000;-0.110452
9370.000000;-0.109236
9369.000000;-0.107848
9368.000000;-0.106453
9367.000000;-0.105142
9366.000000;-0.103803
9365.000000;-0.102386
9364.000000;-0.101047
9363.000000;-0.099889
9362.000000;-0.098756
9361.000000;-0.097427
9360.000000;-0.095891
9359.000000;-0.094342
9358.000000;-0.092963
9357.000000;-0.091788
9356.000000;-0.090684
9355.000000;-0.089388
9354.000000;-0.087680
9353.000000;-0.085641
9352.000000;-0.083681
9351.000000;-0.082203
9350.000000;-0.081241
9349.000000;-0.080488
9348.000000;-0.079617
9347.000000;-0.078478
9346.000000;-0.077031
9345.000000;-0.075261
9344.000000;-0.073258
9343.000000;-0.071277
9342.000000;-0.069591
9341.000000;-0.068231
9340.000000;-0.066934
9339.000000;-0.065388
9338.000000;-0.063519
9337.000000;-0.061556
9336.000000;-0.059844
9335.000000;-0.058597
9334.000000;-0.057776
9333.000000;-0.057140
9332.000000;-0.056401
9331.000000;-0.055409
9330.000000;-0.054199
9329.000000;-0.052873
9328.000000;-0.051450
9327.000000;-0.049864
9326.000000;-0.048060
9325.000000;-0.046054
9324.000000;-0.043934
9323.000000;-0.041876
9322.000000;-0.040147
9321.000000;-0.038939
9320.000000;-0.038139
9319.000000;-0.037332
9318.000000;-0.036108
9317.000000;-0.034365
9316.000000;-0.032301
9315.000000;-0.030209
9314.000000;-0.028327
9313.000000;-0.026813
9312.000000;-0.025727
9311.000000;-0.024974
9310.000000;-0.024303
9309.000000;-0.023425
9308.000000;-0.022172
9307.000000;-0.020575
9306.000000;-0.018801
9305.000000;-0.017016
9304.000000;-0.015319
9303.000000;-0.013791
9302.000000;-0.012501
9301.000000;-0.011402
9300.000000;-0.010299
9299.000000;-0.009035
9298.000000;-0.007682
9297.000000;-0.006445
9296.000000;-0.005383
9295.000000;-0.004363
9294.000000;-0.003268
9293.000000;-0.002102
9292.000000;-0.000880
9291.000000;0.000444
9290.000000;0.001877
9289.000000;0.003326
9288.000000;0.004691
9287.000000;0.005922
9286.000000;0.006971
9285.000000;0.007855
9284.000000;0.008805
9283.000000;0.010145
9282.000000;0.011886
9281.000000;0.013596
9280.000000;0.014872
9279.000000;0.015839
9278.000000;0.016997
9277.000000;0.018623
9276.000000;0.020482
9275.000000;0.022126
9274.000000;0.023330
9273.000000;0.024243
9272.000000;0.025223
9271.000000;0.026540
9270.000000;0.028140
9269.000000;0.029687
9268.000000;0.030891
9267.000000;0.031778
9266.000000;0.032590
9265.000000;0.033496
9264.000000;0.034515
9263.000000;0.035664
9262.000000;0.037049
9261.000000;0.038753
9260.000000;0.040694
9259.000000;0.042574
9258.000000;0.043985
9257.000000;0.044644
9256.000000;0.044683
9255.000000;0.044633
9254.000000;0.045043
9253.000000;0.046085
9252.000000;0.047572
9251.000000;0.049251
9250.000000;0.050960
9249.000000;0.052564
9248.000000;0.053936
9247.000000;0.055066
9246.000000;0.056068
9245.000000;0.057058
9244.000000;0.058060
9243.000000;0.059049
9242.000000;0.060005
9241.000000;0.060936
9240.000000;0.061922
9239.000000;0.063094
9238.000000;0.064481
9237.000000;0.065890
9236.000000;0.067069
9235.000000;0.067979
9234.000000;0.068783
9233.000000;0.069600
9232.000000;0.070422
9231.000000;0.071306
9230.000000;0.072451
9229.000000;0.073961
9228.000000;0.075637
9227.000000;0.077136
9226.000000;0.078291
9225.000000;0.079191
9224.000000;0.079992
9223.000000;0.080766
9222.000000;0.081513
9221.000000;0.082239
9220.000000;0.082959
9219.000000;0.083678
9218.000000;0.084396
9217.000000;0.085148
9216.000000;0.086018
9215.000000;0.087093
9214.000000;0.088372
9213.000000;0.089719
9212.000000;0.090946
9211.000000;0.091952
9210.000000;0.092764
9209.000000;0.093474
9208.000000;0.094181
9207.000000;0.094991
9206.000000;0.096013
9205.000000;0.097281
9204.000000;0.098695
9203.000000;0.100056
9202.000000;0.101193
9201.000000;0.102067
9200.000000;0.102793
9199.000000;0.103549
9198.000000;0.104463
9197.000000;0.105546
9196.000000;0.106711
9195.000000;0.107847
9194.000000;0.108873
9193.000000;0.109772
9192.000000;0.110570
9191.000000;0.111274
9190.000000;0.111861
9189.000000;0.112352
9188.000000;0.112888
9187.000000;0.113644
9186.000000;0.114642
9185.000000;0.115721
9184.000000;0.116719
9183.000000;0.117642
9182.000000;0.118595
9181.000000;0.119630
9180.000000;0.120703
9179.000000;0.121713
9178.000000;0.122535
9177.000000;0.123087
9176.000000;0.123468
9175.000000;0.123965
9174.000000;0.124774
9173.000000;0.125760
9172.000000;0.126623
9171.000000;0.127270
9170.000000;0.127878
9169.000000;0.128594
9168.000000;0.129337
9167.000000;0.129971
9166.000000;0.130531
9165.000000;0.131173
9164.000000;0.131974
9163.000000;0.132881
9162.000000;0.133812
9161.000000;0.134693
9160.000000;0.135450
9159.000000;0.136041
9158.000000;0.136523
9157.000000;0.137041
9156.000000;0.137740
9155.000000;0.138676
9154.000000;0.139772
9153.000000;0.140846
9152.000000;0.141758
9151.000000;0.142565
9150.000000;0.143472
9149.000000;0.144545
9148.000000;0.145567
9147.000000;0.146285
9146.000000;0.146760
9145.000000;0.147315
9144.000000;0.148144
9143.000000;0.149111
9142.000000;0.150002
9141.000000;0.150805
9140.000000;0.151633
9139.000000;0.152448
9138.000000;0.153056
9137.000000;0.153373
9136.000000;0.153548
9135.000000;0.153817
9134.000000;0.154307
9133.000000;0.155029
9132.000000;0.155943
9131.000000;0.156945
9130.000000;0.157889
9129.000000;0.158706
9128.000000;0.159475
9127.000000;0.160289
9126.000000;0.161083
9125.000000;0.161670
9124.000000;0.161959
9123.000000;0.162105
9122.000000;0.162418
9121.000000;0.163129
9120.000000;0.164189
9119.000000;0.165283
9118.000000;0.166061
9117.000000;0.166427
9116.000000;0.166612
9115.000000;0.166932
9114.000000;0.167508
9113.000000;0.168216
9112.000000;0.168836
9111.000000;0.169218
9110.000000;0.169398
9109.000000;0.169628
9108.000000;0.170211
9107.000000;0.171192
9106.000000;0.172261
9105.000000;0.173073
9104.000000;0.173632
9103.000000;0.174219
9102.000000;0.174984
9101.000000;0.175776
9100.000000;0.176400
9099.000000;0.176852
9098.000000;0.177253
9097.000000;0.177703
9096.000000;0.178273
9095.000000;0.179010
9094.000000;0.179814
9093.000000;0.180443
9092.000000;0.180759
9091.000000;0.180929
9090.000000;0.181228
9089.000000;0.181722
9088.000000;0.182259
9087.000000;0.182735
9086.000000;0.183198
9085.000000;0.183693
9084.000000;0.184176
9083.000000;0.184644
9082.000000;0.185226
9081.000000;0.186032
9080.000000;0.186950
9079.000000;0.187690
9078.000000;0.188060
9077.000000;0.188164
9076.000000;0.188315
9075.000000;0.188782
9074.000000;0.189598
9073.000000;0.190584
9072.000000;0.191521
9071.000000;0.192292
9070.000000;0.192883
9069.000000;0.193310
9068.000000;0.193586
9067.000000;0.193752
9066.000000;0.193900
9065.000000;0.194121
9064.000000;0.194446
9063.000000;0.194836
9062.000000;0.195254
9061.000000;0.195710
9060.000000;0.196241
9059.000000;0.196815
9058.000000;0.197310
9057.000000;0.197613
9056.000000;0.197741
9055.000000;0.197856
9054.000000;0.198182
9053.000000;0.198884
9052.000000;0.199965
9051.000000;0.201185
9050.000000;0.202133
9049.000000;0.202523
9048.000000;0.202455
9047.000000;0.202346
9046.000000;0.202541
9045.000000;0.203045
9044.000000;0.203644
9043.000000;0.204207
9042.000000;0.204797
9041.000000;0.205480
9040.000000;0.206119
9039.000000;0.206447
9038.000000;0.206350
9037.000000;0.206046
9036.000000;0.205906
9035.000000;0.206103
9034.000000;0.206476
9033.000000;0.206785
9032.000000;0.207005
9031.000000;0.207303
9030.000000;0.207771
9029.000000;0.208299
9028.000000;0.208712
9027.000000;0.208962
9026.000000;0.209121
9025.000000;0.209277
9024.000000;0.209493
9023.000000;0.209827
9022.000000;0.210330
9021.000000;0.210993
9020.000000;0.211708
9019.000000;0.212316
9018.000000;0.212738
9017.000000;0.213085
9016.000000;0.213579
9015.000000;0.214313
9014.000000;0.215098
9013.000000;0.215599
9012.000000;0.215615
9011.000000;0.215223
9010.000000;0.214712
9009.000000;0.214432
9008.000000;0.214609
9007.000000;0.215191
9006.000000;0.215867
9005.000000;0.216360
9004.000000;0.216688
9003.000000;0.217080
9002.000000;0.217644
9001.000000;0.218239
9000.000000;0.218664
8999.000000;0.218885
8998.000000;0.219027
8997.000000;0.219234
8996.000000;0.219571
8995.000000;0.219990
8994.000000;0.220342
8993.000000;0.220486
8992.000000;0.220416
8991.000000;0.220277
8990.000000;0.220243
8989.000000;0.220417
8988.000000;0.220811
8987.000000;0.221332
8986.000000;0.221818
8985.000000;0.222151
8984.000000;0.222380
8983.000000;0.222650
8982.000000;0.223017
8981.000000;0.223385
8980.000000;0.223620
8979.000000;0.223674
8978.000000;0.223624
8977.000000;0.223650
8976.000000;0.223929
8975.000000;0.224447
8974.000000;0.224952
8973.000000;0.225211
8972.000000;0.225291
8971.000000;0.225434
8970.000000;0.225702
8969.000000;0.225923
8968.000000;0.226005
8967.000000;0.226099
8966.000000;0.226358
8965.000000;0.226725
8964.000000;0.227065
8963.000000;0.227344
8962.000000;0.227577
8961.000000;0.227708
8960.000000;0.227708
8959.000000;0.227677
8958.000000;0.227741
8957.000000;0.227914
8956.000000;0.228165
8955.000000;0.228535
8954.000000;0.229047
8953.000000;0.229551
8952.000000;0.229815
8951.000000;0.229773
8950.000000;0.229603
8949.000000;0.229533
8948.000000;0.229661
8947.000000;0.229930
8946.000000;0.230210
8945.000000;0.230390
8944.000000;0.230449
8943.000000;0.230444
8942.000000;0.230439
8941.000000;0.230473
8940.000000;0.230604
8939.000000;0.230905
8938.000000;0.231359
8937.000000;0.231830
8936.000000;0.232194
8935.000000;0.232456
8934.000000;0.232661
8933.000000;0.232755
8932.000000;0.232633
8931.000000;0.232338
8930.000000;0.232120
8929.000000;0.232264
8928.000000;0.232824
8927.000000;0.233534
8926.000000;0.233976
8925.000000;0.233902
8924.000000;0.233426
8923.000000;0.232883
8922.000000;0.232519
8921.000000;0.232359
8920.000000;0.232341
8919.000000;0.232463
8918.000000;0.232758
8917.000000;0.233215
8916.000000;0.233788
8915.000000;0.234409
8914.000000;0.234946
8913.000000;0.235221
8912.000000;0.235150
8911.000000;0.234856
8910.000000;0.234592
8909.000000;0.234585
8908.000000;0.234909
8907.000000;0.235452
8906.000000;0.235955
8905.000000;0.236175
8904.000000;0.236089
8903.000000;0.235915
8902.000000;0.235922
8901.000000;0.236222
8900.000000;0.236700
8899.000000;0.237070
8898.000000;0.237046
8897.000000;0.236588
8896.000000;0.236002
8895.000000;0.235702
8894.000000;0.235844
8893.000000;0.236259
8892.000000;0.236727
8891.000000;0.237161
8890.000000;0.237522
8889.000000;0.237727
8888.000000;0.237752
8887.000000;0.237704
8886.000000;0.237681
8885.000000;0.237645
8884.000000;0.237519
8883.000000;0.237328
8882.000000;0.237169
8881.000000;0.237110
8880.000000;0.237168
8879.000000;0.237305
8878.000000;0.237417
8877.000000;0.237408
8876.000000;0.237346
8875.000000;0.237408
8874.000000;0.237637
8873.000000;0.237870
8872.000000;0.237953
8871.000000;0.237901
8870.000000;0.237775
8869.000000;0.237588
8868.000000;0.237427
8867.000000;0.237493
8866.000000;0.237836
8865.000000;0.238183
8864.000000;0.238229
8863.000000;0.237985
8862.000000;0.237694
8861.000000;0.237493
8860.000000;0.237343
8859.000000;0.237206
8858.000000;0.237079
8857.000000;0.236910
8856.000000;0.236679
8855.000000;0.236562
8854.000000;0.236825
8853.000000;0.237497
8852.000000;0.238259
8851.000000;0.238683
8850.000000;0.238551
8849.000000;0.237988
8848.000000;0.237401
8847.000000;0.237206
8846.000000;0.237482
8845.000000;0.237916
8844.000000;0.238177
8843.000000;0.238243
8842.000000;0.238260
8841.000000;0.238224
8840.000000;0.238033
8839.000000;0.237769
8838.000000;0.237651
8837.000000;0.237724
8836.000000;0.237812
8835.000000;0.237806
8834.000000;0.237762
8833.000000;0.237682
8832.000000;0.237449
8831.000000;0.237073
8830.000000;0.236791
8829.000000;0.236777
8828.000000;0.236908
8827.000000;0.236938
8826.000000;0.236792
8825.000000;0.236570
8824.000000;0.236371
8823.000000;0.236232
8822.000000;0.236167
8821.000000;0.236152
8820.000000;0.236124
8819.000000;0.236097
8818.000000;0.236200
8817.000000;0.236529
8816.000000;0.237007
8815.000000;0.237444
8814.000000;0.237684
8813.000000;0.237637
8812.000000;0.237281
8811.000000;0.236723
8810.000000;0.236204
8809.000000;0.235907
8808.000000;0.235793
8807.000000;0.235687
8806.000000;0.235503
8805.000000;0.235304
8804.000000;0.235168
8803.000000;0.235090
8802.000000;0.235015
8801.000000;0.234900
8800.000000;0.234758
8799.000000;0.234659
8798.000000;0.234640
8797.000000;0.234633
8796.000000;0.234520
8795.000000;0.234328
8794.000000;0.234259
8793.000000;0.234451
8792.000000;0.234766
8791.000000;0.234925
8790.000000;0.234836
8789.000000;0.234659
8788.000000;0.234553
8787.000000;0.234475
8786.000000;0.234282
8785.000000;0.233949
8784.000000;0.233605
8783.000000;0.233388
8782.000000;0.233316
8781.000000;0.233288
8780.000000;0.233179
8779.000000;0.232932
8778.000000;0.232605
8777.000000;0.232319
8776.000000;0.232160
8775.000000;0.232116
8774.000000;0.232092
8773.000000;0.231995
8772.000000;0.231793
8771.000000;0.231538
8770.000000;0.231342
8769.000000;0.231316
8768.000000;0.231508
8767.000000;0.231851
8766.000000;0.232192
8765.000000;0.232369
8764.000000;0.232313
8763.000000;0.232069
8762.000000;0.231714
8761.000000;0.231276
8760.000000;0.230766
8759.000000;0.230283
8758.000000;0.230022
8757.000000;0.230104
8756.000000;0.230400
8755.000000;0.230605
8754.000000;0.230500
8753.000000;0.230126
8752.000000;0.229695
8751.000000;0.229371
8750.000000;0.229164
8749.000000;0.228989
8748.000000;0.228764
8747.000000;0.228480
8746.000000;0.228223
8745.000000;0.228133
8744.000000;0.228273
8743.000000;0.228534
8742.000000;0.228728
8741.000000;0.228781
8740.000000;0.228773
8739.000000;0.228770
8738.000000;0.228713
8737.000000;0.228545
8736.000000;0.228340
8735.000000;0.228209
8734.000000;0.228090
8733.000000;0.227778
8732.000000;0.227182
8731.000000;0.226469
8730.000000;0.225905
8729.000000;0.225636
8728.000000;0.225633
8727.000000;0.225759
8726.000000;0.225863
8725.000000;0.225856
8724.000000;0.225779
8723.000000;0.225744
8722.000000;0.225774
8721.000000;0.225728
8720.000000;0.225452
8719.000000;0.224950
8718.000000;0.224391
8717.000000;0.223964
8716.000000;0.223791
8715.000000;0.223902
8714.000000;0.224191
8713.000000;0.224417
8712.000000;0.224345
8711.000000;0.223950
8710.000000;0.223420
8709.000000;0.222939
8708.000000;0.222517
8707.000000;0.222092
8706.000000;0.221715
8705.000000;0.221551
8704.000000;0.221662
8703.000000;0.221880
8702.000000;0.221950
8701.000000;0.221789
8700.000000;0.221540
8699.000000;0.221356
8698.000000;0.221205
8697.000000;0.220942
8696.000000;0.220517
8695.000000;0.220029
8694.000000;0.219606
8693.000000;0.219291
8692.000000;0.219088
8691.000000;0.218999
8690.000000;0.218989
8689.000000;0.218956
8688.000000;0.218817
8687.000000;0.218580
8686.000000;0.218309
8685.000000;0.218044
8684.000000;0.217824
8683.000000;0.217721
8682.000000;0.217761
8681.000000;0.217812
8680.000000;0.217665
8679.000000;0.217280
8678.000000;0.216853
8677.000000;0.216585
8676.000000;0.216434
8675.000000;0.216176
8674.000000;0.215692
8673.000000;0.215120
8672.000000;0.214722
8671.000000;0.214642
8670.000000;0.214817
8669.000000;0.215033
8668.000000;0.215037
8667.000000;0.214686
8666.000000;0.214067
8665.000000;0.213453
8664.000000;0.213066
8663.000000;0.212887
8662.000000;0.212743
8661.000000;0.212550
8660.000000;0.212376
8659.000000;0.212270
8658.000000;0.212160
8657.000000;0.211969
8656.000000;0.211726
8655.000000;0.211478
8654.000000;0.211181
8653.000000;0.210786
8652.000000;0.210382
8651.000000;0.210127
8650.000000;0.210045
8649.000000;0.209985
8648.000000;0.209796
8647.000000;0.209453
8646.000000;0.209025
8645.000000;0.208596
8644.000000;0.208257
8643.000000;0.208069
8642.000000;0.207999
8641.000000;0.207929
8640.000000;0.207761
8639.000000;0.207480
8638.000000;0.207109
8637.000000;0.206691
8636.000000;0.206320
8635.000000;0.206115
8634.000000;0.206081
8633.000000;0.206062
8632.000000;0.205889
8631.000000;0.205549
8630.000000;0.205168
8629.000000;0.204836
8628.000000;0.204537
8627.000000;0.204227
8626.000000;0.203940
8625.000000;0.203757
8624.000000;0.203713
8623.000000;0.203747
8622.000000;0.203752
8621.000000;0.203636
8620.000000;0.203344
8619.000000;0.202857
8618.000000;0.202237
8617.000000;0.201646
8616.000000;0.201239
8615.000000;0.201009
8614.000000;0.200791
8613.000000;0.200471
8612.000000;0.200108
8611.000000;0.199818
8610.000000;0.199592
8609.000000;0.199342
8608.000000;0.199054
8607.000000;0.198793
8606.000000;0.198558
8605.000000;0.198272
8604.000000;0.197915
8603.000000;0.197578
8602.000000;0.197332
8601.000000;0.197132
8600.000000;0.196904
8599.000000;0.196664
8598.000000;0.196483
8597.000000;0.196397
8596.000000;0.196365
8595.000000;0.196311
8594.000000;0.196176
8593.000000;0.195955
8592.000000;0.195714
8591.000000;0.195514
8590.000000;0.195335
8589.000000;0.195102
8588.000000;0.194793
8587.000000;0.194455
8586.000000;0.194105
8585.000000;0.193714
8584.000000;0.193304
8583.000000;0.192972
8582.000000;0.192765
8581.000000;0.192577
8580.000000;0.192237
8579.000000;0.191685
8578.000000;0.191047
8577.000000;0.190535
8576.000000;0.190283
8575.000000;0.190246
8574.000000;0.190231
8573.000000;0.190064
8572.000000;0.189740
8571.000000;0.189387
8570.000000;0.189096
8569.000000;0.188834
8568.000000;0.188518
8567.000000;0.188118
8566.000000;0.187671
8565.000000;0.187248
8564.000000;0.186917
8563.000000;0.186713
8562.000000;0.186617
8561.000000;0.186578
8560.000000;0.186540
8559.000000;0.186411
8558.000000;0.186083
8557.000000;0.185561
8556.000000;0.185023
8555.000000;0.184649
8554.000000;0.184420
8553.000000;0.184183
8552.000000;0.183921
8551.000000;0.183785
8550.000000;0.183849
8549.000000;0.183929
8548.000000;0.183762
8547.000000;0.183264
8546.000000;0.182578
8545.000000;0.181942
8544.000000;0.181542
8543.000000;0.181406
8542.000000;0.181373
8541.000000;0.181216
8540.000000;0.180861
8539.000000;0.180413
8538.000000;0.179965
8537.000000;0.179487
8536.000000;0.178969
8535.000000;0.178523
8534.000000;0.178249
8533.000000;0.178084
8532.000000;0.177899
8531.000000;0.177654
8530.000000;0.177378
8529.000000;0.177057
8528.000000;0.176668
8527.000000;0.176281
8526.000000;0.175998
8525.000000;0.175808
8524.000000;0.175603
8523.000000;0.175324
8522.000000;0.175014
8521.000000;0.174740
8520.000000;0.174550
8519.000000;0.174466
8518.000000;0.174412
8517.000000;0.174188
8516.000000;0.173651
8515.000000;0.172929
8514.000000;0.172331
8513.000000;0.172023
8512.000000;0.171875
8511.000000;0.171688
8510.000000;0.171420
8509.000000;0.171134
8508.000000;0.170823
8507.000000;0.170441
8506.000000;0.170065
8505.000000;0.169877
8504.000000;0.169926
8503.000000;0.170002
8502.000000;0.169846
8501.000000;0.169447
8500.000000;0.169039
8499.000000;0.168787
8498.000000;0.168580
8497.000000;0.168189
8496.000000;0.167565
8495.000000;0.166890
8494.000000;0.166360
8493.000000;0.166021
8492.000000;0.165817
8491.000000;0.165668
8490.000000;0.165463
8489.000000;0.165095
8488.000000;0.164582
8487.000000;0.164121
8486.000000;0.163920
8485.000000;0.163991
8484.000000;0.164161
8483.000000;0.164247
8482.000000;0.164158
8481.000000;0.163865
8480.000000;0.163371
8479.000000;0.162745
8478.000000;0.162123
8477.000000;0.161641
8476.000000;0.161348
8475.000000;0.161187
8474.000000;0.161040
8473.000000;0.160838
8472.000000;0.160634
8471.000000;0.160543
8470.000000;0.160584
8469.000000;0.160607
8468.000000;0.160426
8467.000000;0.160005
8466.000000;0.159453
8465.000000;0.158887
8464.000000;0.158345
8463.000000;0.157852
8462.000000;0.157489
8461.000000;0.157341
8460.000000;0.157409
8459.000000;0.157592
8458.000000;0.157732
8457.000000;0.157673
8456.000000;0.157313
8455.000000;0.156683
8454.000000;0.155975
8453.000000;0.155427
8452.000000;0.155117
8451.000000;0.154902
8450.000000;0.154566
8449.000000;0.154050
8448.000000;0.153475
8447.000000;0.152985
8446.000000;0.152614
8445.000000;0.152323
8444.000000;0.152071
8443.000000;0.151819
8442.000000;0.151520
8441.000000;0.151188
8440.000000;0.150913
8439.000000;0.150744
8438.000000;0.150602
8437.000000;0.150380
8436.000000;0.150113
8435.000000;0.149935
8434.000000;0.149872
8433.000000;0.149796
8432.000000;0.149576
8431.000000;0.149223
8430.000000;0.148841
8429.000000;0.148526
8428.000000;0.148327
8427.000000;0.148222
8426.000000;0.148098
8425.000000;0.147827
8424.000000;0.147418
8423.000000;0.147021
8422.000000;0.146756
8421.000000;0.146582
8420.000000;0.146368
8419.000000;0.146021
8418.000000;0.145532
8417.000000;0.144978
8416.000000;0.144511
8415.000000;0.144255
8414.000000;0.144137
8413.000000;0.143919
8412.000000;0.143476
8411.000000;0.142976
8410.000000;0.142678
8409.000000;0.142612
8408.000000;0.142560
8407.000000;0.142338
8406.000000;0.141980
8405.000000;0.141635
8404.000000;0.141379
8403.000000;0.141174
8402.000000;0.140952
8401.000000;0.140692
8400.000000;0.140440
8399.000000;0.140268
8398.000000;0.140199
8397.000000;0.140182
8396.000000;0.140128
8395.000000;0.139976
8394.000000;0.139699
8393.000000;0.139298
8392.000000;0.138831
8391.000000;0.138415
8390.000000;0.138139
8389.000000;0.137969
8388.000000;0.137782
8387.000000;0.137504
8386.000000;0.137178
8385.000000;0.136910
8384.000000;0.136751
8383.000000;0.136645
8382.000000;0.136464
8381.000000;0.136111
8380.000000;0.135617
8379.000000;0.135121
8378.000000;0.134735
8377.000000;0.134462
8376.000000;0.134234
8375.000000;0.134001
8374.000000;0.133740
8373.000000;0.133409
8372.000000;0.132970
8371.000000;0.132467
8370.000000;0.132025
8369.000000;0.131761
8368.000000;0.131700
8367.000000;0.131779
8366.000000;0.131892
8365.000000;0.131918
8364.000000;0.131775
8363.000000;0.131473
8362.000000;0.131116
8361.000000;0.130830
8360.000000;0.130673
8359.000000;0.130587
8358.000000;0.130441
8357.000000;0.130111
8356.000000;0.129587
8355.000000;0.129002
8354.000000;0.128535
8353.000000;0.128251
8352.000000;0.128038
8351.000000;0.127738
8350.000000;0.127333
8349.000000;0.126950
8348.000000;0.126674
8347.000000;0.126441
8346.000000;0.126157
8345.000000;0.125863
8344.000000;0.125676
8343.000000;0.125585
8342.000000;0.125440
8341.000000;0.125168
8340.000000;0.124904
8339.000000;0.124807
8338.000000;0.124845
8337.000000;0.124846
8336.000000;0.124718
8335.000000;0.124500
8334.000000;0.124236
8333.000000;0.123918
8332.000000;0.123577
8331.000000;0.123326
8330.000000;0.123262
8329.000000;0.123362
8328.000000;0.123471
8327.000000;0.123378
8326.000000;0.122944
8325.000000;0.122258
8324.000000;0.121629
8323.000000;0.121319
8322.000000;0.121253
8321.000000;0.121090
8320.000000;0.120609
8319.000000;0.119946
8318.000000;0.119417
8317.000000;0.119205
8316.000000;0.119248
8315.000000;0.119356
8314.000000;0.119363
8313.000000;0.119229
8312.000000;0.119035
8311.000000;0.118872
8310.000000;0.118730
8309.000000;0.118527
8308.000000;0.118254
8307.000000;0.118002
8306.000000;0.117827
8305.000000;0.117671
8304.000000;0.117459
8303.000000;0.117212
8302.000000;0.117010
8301.000000;0.116903
8300.000000;0.116887
8299.000000;0.116906
8298.000000;0.116835
8297.000000;0.116543
8296.000000;0.116027
8295.000000;0.115451
8294.000000;0.115003
8293.000000;0.114755
8292.000000;0.114692
8291.000000;0.114773
8290.000000;0.114920
8289.000000;0.115011
8288.000000;0.114956
8287.000000;0.114756
8286.000000;0.114431
8285.000000;0.113984
8284.000000;0.113483
8283.000000;0.113095
8282.000000;0.112930
8281.000000;0.112909
8280.000000;0.112859
8279.000000;0.112723
8278.000000;0.112576
8277.000000;0.112472
8276.000000;0.112361
8275.000000;0.112160
8274.000000;0.111836
8273.000000;0.111432
8272.000000;0.111057
8271.000000;0.110825
8270.000000;0.110743
8269.000000;0.110688
8268.000000;0.110538
8267.000000;0.110298
8266.000000;0.110057
8265.000000;0.109863
8264.000000;0.109718
8263.000000;0.109639
8262.000000;0.109634
8261.000000;0.109633
8260.000000;0.109539
8259.000000;0.109350
8258.000000;0.109153
8257.000000;0.108994
8256.000000;0.108848
8255.000000;0.108691
8254.000000;0.108529
8253.000000;0.108336
8252.000000;0.108061
8251.000000;0.107730
8250.000000;0.107472
8249.000000;0.107410
8248.000000;0.107546
8247.000000;0.107764
8246.000000;0.107888
8245.000000;0.107775
8244.000000;0.107391
8243.000000;0.106840
8242.000000;0.106287
8241.000000;0.105840
8240.000000;0.105548
8239.000000;0.105442
8238.000000;0.105502
8237.000000;0.105590
8236.000000;0.105528
8235.000000;0.105280
8234.000000;0.104982
8233.000000;0.104766
8232.000000;0.104620
8231.000000;0.104463
8230.000000;0.104275
8229.000000;0.104104
8228.000000;0.103992
8227.000000;0.103953
8226.000000;0.103981
8225.000000;0.104030
8224.000000;0.104001
8223.000000;0.103806
8222.000000;0.103458
8221.000000;0.103080
8220.000000;0.102826
8219.000000;0.102773
8218.000000;0.102874
8217.000000;0.102986
8216.000000;0.102976
8215.000000;0.102824
8214.000000;0.102622
8213.000000;0.102472
8212.000000;0.102404
8211.000000;0.102372
8210.000000;0.102294
8209.000000;0.102102
8208.000000;0.101789
8207.000000;0.101420
8206.000000;0.101068
8205.000000;0.100749
8204.000000;0.100449
8203.000000;0.100204
8202.000000;0.100084
8201.000000;0.100096
8200.000000;0.100151
8199.000000;0.100159
8198.000000;0.100087
8197.000000;0.099922
8196.000000;0.099648
8195.000000;0.099313
8194.000000;0.099025
8193.000000;0.098846
8192.000000;0.098717
8191.000000;0.098566
8190.000000;0.098428
8189.000000;0.098392
8188.000000;0.098459
8187.000000;0.098529
8186.000000;0.098521
8185.000000;0.098453
8184.000000;0.098397
8183.000000;0.098397
8182.000000;0.098432
8181.000000;0.098416
8180.000000;0.098268
8179.000000;0.098029
8178.000000;0.097853
8177.000000;0.097827
8176.000000;0.097829
8175.000000;0.097660
8174.000000;0.097306
8173.000000;0.096966
8172.000000;0.096804
8171.000000;0.096787
8170.000000;0.096784
8169.000000;0.096737
8168.000000;0.096641
8167.000000;0.096484
8166.000000;0.096274
8165.000000;0.096097
8164.000000;0.096016
8163.000000;0.095973
8162.000000;0.095869
8161.000000;0.095721
8160.000000;0.095640
8159.000000;0.095646
8158.000000;0.095623
8157.000000;0.095465
8156.000000;0.095197
8155.000000;0.094916
8154.000000;0.094687
8153.000000;0.094541
8152.000000;0.094509
8151.000000;0.094564
8150.000000;0.094596
8149.000000;0.094517
8148.000000;0.094378
8147.000000;0.094323
8146.000000;0.094394
8145.000000;0.094459
8144.000000;0.094348
8143.000000;0.094039
8142.000000;0.093667
8141.000000;0.093375
8140.000000;0.093199
8139.000000;0.093098
8138.000000;0.093055
8137.000000;0.093083
8136.000000;0.093165
8135.000000;0.093238
8134.000000;0.093254
8133.000000;0.093229
8132.000000;0.093199
8131.000000;0.093167
8130.000000;0.093122
8129.000000;0.093092
8128.000000;0.093102
8127.000000;0.093103
8126.000000;0.093016
8125.000000;0.092820
8124.000000;0.092582
8123.000000;0.092366
8122.000000;0.092195
8121.000000;0.092062
8120.000000;0.091936
8119.000000;0.091733
8118.000000;0.091404
8117.000000;0.091058
8116.000000;0.090930
8115.000000;0.091135
8114.000000;0.091500
8113.000000;0.091720
8112.000000;0.091635
8111.000000;0.091328
8110.000000;0.090977
8109.000000;0.090706
8108.000000;0.090553
8107.000000;0.090497
8106.000000;0.090474
8105.000000;0.090425
8104.000000;0.090335
8103.000000;0.090226
8102.000000;0.090119
8101.000000;0.090019
8100.000000;0.089933
8099.000000;0.089869
8098.000000;0.089833
8097.000000;0.089849
8096.000000;0.089953
8095.000000;0.090109
8094.000000;0.090168
8093.000000;0.089994
8092.000000;0.089652
8091.000000;0.089377
8090.000000;0.089336
8089.000000;0.089462
8088.000000;0.089563
8087.000000;0.089546
8086.000000;0.089470
8085.000000;0.089414
8084.000000;0.089372
8083.000000;0.089291
8082.000000;0.089174
8081.000000;0.089087
8080.000000;0.089072
8079.000000;0.089086
8078.000000;0.089043
8077.000000;0.088927
8076.000000;0.088816
8075.000000;0.088803
8074.000000;0.088882
8073.000000;0.088947
8072.000000;0.088900
8071.000000;0.088745
8070.000000;0.088576
8069.000000;0.088485
8068.000000;0.088480
8067.000000;0.088499
8066.000000;0.088490
8065.000000;0.088474
8064.000000;0.088495
8063.000000;0.088545
8062.000000;0.088553
8061.000000;0.088461
8060.000000;0.088296
8059.000000;0.088158
8058.000000;0.088133
8057.000000;0.088219
8056.000000;0.088304
8055.000000;0.088238
8054.000000;0.087963
8053.000000;0.087600
8052.000000;0.087353
8051.000000;0.087328
8050.000000;0.087451
8049.000000;0.087575
8048.000000;0.087627
8047.000000;0.087621
8046.000000;0.087590
8045.000000;0.087527
8044.000000;0.087408
8043.000000;0.087237
8042.000000;0.087079
8041.000000;0.087038
8040.000000;0.087161
8039.000000;0.087374
8038.000000;0.087528
8037.000000;0.087543
8036.000000;0.087437
8035.000000;0.087247
8034.000000;0.086972
8033.000000;0.086643
8032.000000;0.086357
8031.000000;0.086197
8030.000000;0.086155
8029.000000;0.086178
8028.000000;0.086262
8027.000000;0.086406
8026.000000;0.086541
8025.000000;0.086564
8024.000000;0.086448
8023.000000;0.086278
8022.000000;0.086178
8021.000000;0.086226
8020.000000;0.086398
8019.000000;0.086566
8018.000000;0.086593
8017.000000;0.086465
8016.000000;0.086309
8015.000000;0.086247
8014.000000;0.086283
8013.000000;0.086361
8012.000000;0.086465
8011.000000;0.086576
8010.000000;0.086617
8009.000000;0.086530
8008.000000;0.086384
8007.000000;0.086304
8006.000000;0.086300
8005.000000;0.086262
8004.000000;0.086113
8003.000000;0.085888
8002.000000;0.085658
8001.000000;0.085456
8000.000000;0.085292
7999.000000;0.085173
7998.000000;0.085084
7997.000000;0.085010
7996.000000;0.084965
7995.000000;0.084978
7994.000000;0.085042
7993.000000;0.085146
7992.000000;0.085304
7991.000000;0.085507
7990.000000;0.085653
7989.000000;0.085630
7988.000000;0.085464
7987.000000;0.085298
7986.000000;0.085216
7985.000000;0.085183
7984.000000;0.085144
7983.000000;0.085097
7982.000000;0.085038
7981.000000;0.084946
7980.000000;0.084859
7979.000000;0.084886
7978.000000;0.085070
7977.000000;0.085302
7976.000000;0.085431
7975.000000;0.085390
7974.000000;0.085189
7973.000000;0.084860
7972.000000;0.084478
7971.000000;0.084184
7970.000000;0.084074
7969.000000;0.084103
7968.000000;0.084148
7967.000000;0.084157
7966.000000;0.084180
7965.000000;0.084258
7964.000000;0.084360
7963.000000;0.084429
7962.000000;0.084450
7961.000000;0.084444
7960.000000;0.084419
7959.000000;0.084361
7958.000000;0.084277
7957.000000;0.084223
7956.000000;0.084254
7955.000000;0.084333
7954.000000;0.084322
7953.000000;0.084116
7952.000000;0.083783
7951.000000;0.083532
7950.000000;0.083502
7949.000000;0.083640
7948.000000;0.083774
7947.000000;0.083797
7946.000000;0.083727
7945.000000;0.083625
7944.000000;0.083521
7943.000000;0.083422
7942.000000;0.083353
7941.000000;0.083334
7940.000000;0.083317
7939.000000;0.083212
7938.000000;0.083011
7937.000000;0.082867
7936.000000;0.082951
7935.000000;0.083247
7934.000000;0.083547
7933.000000;0.083671
7932.000000;0.083622
7931.000000;0.083493
7930.000000;0.083312
7929.000000;0.083076
7928.000000;0.082868
7927.000000;0.082814
7926.000000;0.082940
7925.000000;0.083139
7924.000000;0.083298
7923.000000;0.083365
7922.000000;0.083333
7921.000000;0.083232
7920.000000;0.083150
7919.000000;0.083173
7918.000000;0.083280
7917.000000;0.083377
7916.000000;0.083416
7915.000000;0.083420
7914.000000;0.083391
7913.000000;0.083261
7912.000000;0.083008
7911.000000;0.082718
7910.000000;0.082521
7909.000000;0.082480
7908.000000;0.082572
7907.000000;0.082735
7906.000000;0.082892
7905.000000;0.082984
7904.000000;0.082988
7903.000000;0.082908
7902.000000;0.082762
7901.000000;0.082600
7900.000000;0.082515
7899.000000;0.082553
7898.000000;0.082638
7897.000000;0.082647
7896.000000;0.082562
7895.000000;0.082474
7894.000000;0.082463
7893.000000;0.082540
7892.000000;0.082686
7891.000000;0.082860
7890.000000;0.082965
7889.000000;0.082915
7888.000000;0.082751
7887.000000;0.082585
7886.000000;0.082441
7885.000000;0.082258
7884.000000;0.082052
7883.000000;0.081955
7882.000000;0.082026
7881.000000;0.082149
7880.000000;0.082199
7879.000000;0.082195
7878.000000;0.082210
7877.000000;0.082220
7876.000000;0.082144
7875.000000;0.081970
7874.000000;0.081760
7873.000000;0.081575
7872.000000;0.081477
7871.000000;0.081531
7870.000000;0.081726
7869.000000;0.081923
7868.000000;0.081989
7867.000000;0.081932
7866.000000;0.081845
7865.000000;0.081765
7864.000000;0.081661
7863.000000;0.081536
7862.000000;0.081430
7861.000000;0.081357
7860.000000;0.081298
7859.000000;0.081264
7858.000000;0.081277
7857.000000;0.081324
7856.000000;0.081378
7855.000000;0.081458
7854.000000;0.081586
7853.000000;0.081701
7852.000000;0.081695
7851.000000;0.081541
7850.000000;0.081325
7849.000000;0.081153
7848.000000;0.081059
7847.000000;0.081013
7846.000000;0.080953
7845.000000;0.080834
7844.000000;0.080678
7843.000000;0.080582
7842.000000;0.080636
7841.000000;0.080811
7840.000000;0.080980
7839.000000;0.081046
7838.000000;0.081025
7837.000000;0.080999
7836.000000;0.081025
7835.000000;0.081071
7834.000000;0.081038
7833.000000;0.080862
7832.000000;0.080605
7831.000000;0.080428
7830.000000;0.080427
7829.000000;0.080538
7828.000000;0.080626
7827.000000;0.080642
7826.000000;0.080643
7825.000000;0.080688
7824.000000;0.080767
7823.000000;0.080834
7822.000000;0.080846
7821.000000;0.080780
7820.000000;0.080661
7819.000000;0.080564
7818.000000;0.080552
7817.000000;0.080587
7816.000000;0.080559
7815.000000;0.080419
7814.000000;0.080255
7813.000000;0.080214
7812.000000;0.080356
7811.000000;0.080584
7810.000000;0.080720
7809.000000;0.080666
7808.000000;0.080497
7807.000000;0.080360
7806.000000;0.080293
7805.000000;0.080195
7804.000000;0.080001
7803.000000;0.079819
7802.000000;0.079816
7801.000000;0.080009
7800.000000;0.080238
7799.000000;0.080335
7798.000000;0.080257
7797.000000;0.080065
7796.000000;0.079848
7795.000000;0.079683
7794.000000;0.079632
7793.000000;0.079704
7792.000000;0.079852
7791.000000;0.079996
7790.000000;0.080069
7789.000000;0.080046
7788.000000;0.079978
7787.000000;0.079956
7786.000000;0.080023
7785.000000;0.080102
7784.000000;0.080066
7783.000000;0.079875
7782.000000;0.079624
7781.000000;0.079435
7780.000000;0.079349
7779.000000;0.079320
7778.000000;0.079284
7777.000000;0.079222
7776.000000;0.079157
7775.000000;0.079113
7774.000000;0.079100
7773.000000;0.079114
7772.000000;0.079155
7771.000000;0.079210
7770.000000;0.079237
7769.000000;0.079208
7768.000000;0.079161
7767.000000;0.079169
7766.000000;0.079239
7765.000000;0.079304
7764.000000;0.079328
7763.000000;0.079374
7762.000000;0.079509
7761.000000;0.079685
7760.000000;0.079784
7759.000000;0.079749
7758.000000;0.079618
7757.000000;0.079459
7756.000000;0.079326
7755.000000;0.079269
7754.000000;0.079294
7753.000000;0.079329
7752.000000;0.079281
7751.000000;0.079143
7750.000000;0.079005
7749.000000;0.078941
7748.000000;0.078936
7747.000000;0.078931
7746.000000;0.078888
7745.000000;0.078795
7744.000000;0.078658
7743.000000;0.078503
7742.000000;0.078370
7741.000000;0.078287
7740.000000;0.078271
7739.000000;0.078328
7738.000000;0.078437
7737.000000;0.078532
7736.000000;0.078553
7735.000000;0.078522
7734.000000;0.078506
7733.000000;0.078516
7732.000000;0.078508
7731.000000;0.078480
7730.000000;0.078510
7729.000000;0.078643
7728.000000;0.078805
7727.000000;0.078875
7726.000000;0.078821
7725.000000;0.078712
7724.000000;0.078610
7723.000000;0.078508
7722.000000;0.078381
7721.000000;0.078246
7720.000000;0.078146
7719.000000;0.078102
7718.000000;0.078105
7717.000000;0.078152
7716.000000;0.078248
7715.000000;0.078367
7714.000000;0.078438
7713.000000;0.078400
7712.000000;0.078275
7711.000000;0.078161
7710.000000;0.078128
7709.000000;0.078150
7708.000000;0.078157
7707.000000;0.078125
7706.000000;0.078074
7705.000000;0.078004
7704.000000;0.077877
7703.000000;0.077694
7702.000000;0.077543
7701.000000;0.077541
7700.000000;0.077731
7699.000000;0.078039
7698.000000;0.078321
7697.000000;0.078447
7696.000000;0.078379
7695.000000;0.078187
7694.000000;0.077994
7693.000000;0.077884
7692.000000;0.077851
7691.000000;0.077835
7690.000000;0.077798
7689.000000;0.077748
7688.000000;0.077711
7687.000000;0.077691
7686.000000;0.077664
7685.000000;0.077604
7684.000000;0.077502
7683.000000;0.077394
7682.000000;0.077346
7681.000000;0.077401
7680.000000;0.077517
7679.000000;0.077573
7678.000000;0.077489
7677.000000;0.077323
7676.000000;0.077217
7675.000000;0.077233
7674.000000;0.077291
7673.000000;0.077290
7672.000000;0.077235
7671.000000;0.077193
7670.000000;0.077163
7669.000000;0.077086
7668.000000;0.076965
7667.000000;0.076907
7666.000000;0.076990
7665.000000;0.077155
7664.000000;0.077276
7663.000000;0.077298
7662.000000;0.077246
7661.000000;0.077157
7660.000000;0.077042
7659.000000;0.076913
7658.000000;0.076816
7657.000000;0.076797
7656.000000;0.076864
7655.000000;0.076969
7654.000000;0.077041
7653.000000;0.077051
7652.000000;0.077050
7651.000000;0.077105
7650.000000;0.077196
7649.000000;0.077221
7648.000000;0.077125
7647.000000;0.076964
7646.000000;0.076813
7645.000000;0.076671
7644.000000;0.076516
7643.000000;0.076398
7642.000000;0.076387
7641.000000;0.076461
7640.000000;0.076514
7639.000000;0.076498
7638.000000;0.076465
7637.000000;0.076469
7636.000000;0.076480
7635.000000;0.076438
7634.000000;0.076341
7633.000000;0.076251
7632.000000;0.076232
7631.000000;0.076306
7630.000000;0.076441
7629.000000;0.076557
7628.000000;0.076568
7627.000000;0.076455
7626.000000;0.076269
7625.000000;0.076071
7624.000000;0.075884
7623.000000;0.075727
7622.000000;0.075648
7621.000000;0.075678
7620.000000;0.075766
7619.000000;0.075823
7618.000000;0.075825
7617.000000;0.075836
7616.000000;0.075898
7615.000000;0.075955
7614.000000;0.075915
7613.000000;0.075772
7612.000000;0.075610
7611.000000;0.075506
7610.000000;0.075470
7609.000000;0.075495
7608.000000;0.075598
7607.000000;0.075761
7606.000000;0.075896
7605.000000;0.075916
7604.000000;0.075844
7603.000000;0.075773
7602.000000;0.075739
7601.000000;0.075696
7600.000000;0.075623
7599.000000;0.075570
7598.000000;0.075571
7597.000000;0.075587
7596.000000;0.075569
7595.000000;0.075534
7594.000000;0.075509
7593.000000;0.075464
7592.000000;0.075357
7591.000000;0.075221
7590.000000;0.075134
7589.000000;0.075120
7588.000000;0.075136
7587.000000;0.075152
7586.000000;0.075180
7585.000000;0.075212
7584.000000;0.075208
7583.000000;0.075138
7582.000000;0.075029
7581.000000;0.074927
7580.000000;0.074847
7579.000000;0.074783
7578.000000;0.074733
7577.000000;0.074717
7576.000000;0.074764
7575.000000;0.074889
7574.000000;0.075059
7573.000000;0.075193
7572.000000;0.075220
7571.000000;0.075140
7570.000000;0.075022
7569.000000;0.074923
7568.000000;0.074843
7567.000000;0.074745
7566.000000;0.074607
7565.000000;0.074454
7564.000000;0.074353
7563.000000;0.074358
7562.000000;0.074458
7561.000000;0.074571
7560.000000;0.074618
7559.000000;0.074580
7558.000000;0.074502
7557.000000;0.074433
7556.000000;0.074401
7555.000000;0.074409
7554.000000;0.074441
7553.000000;0.074475
7552.000000;0.074511
7551.000000;0.074552
7550.000000;0.074566
7549.000000;0.074496
7548.000000;0.074335
7547.000000;0.074159
7546.000000;0.074051
7545.000000;0.074011
7544.000000;0.073990
7543.000000;0.073968
7542.000000;0.073963
7541.000000;0.073972
7540.000000;0.073968
7539.000000;0.073951
7538.000000;0.073954
7537.000000;0.074001
7536.000000;0.074074
7535.000000;0.074144
7534.000000;0.074187
7533.000000;0.074186
7532.000000;0.074131
7531.000000;0.074044
7530.000000;0.073963
7529.000000;0.073922
7528.000000;0.073931
7527.000000;0.073973
7526.000000;0.073999
7525.000000;0.073959
7524.000000;0.073856
7523.000000;0.073758
7522.000000;0.073708
7521.000000;0.073668
7520.000000;0.073588
7519.000000;0.073478
7518.000000;0.073389
7517.000000;0.073338
7516.000000;0.073319
7515.000000;0.073352
7514.000000;0.073448
7513.000000;0.073538
7512.000000;0.073523
7511.000000;0.073390
7510.000000;0.073225
7509.000000;0.073112
7508.000000;0.073076
7507.000000;0.073103
7506.000000;0.073171
7505.000000;0.073233
7504.000000;0.073239
7503.000000;0.073191
7502.000000;0.073130
7501.000000;0.073080
7500.000000;0.073039
7499.000000;0.073028
7498.000000;0.073061
7497.000000;0.073112
7496.000000;0.073071
7495.000000;0.072914
7494.000000;0.072803
7493.000000;0.072757
7492.000000;0.072792
7491.000000;0.072846
7490.000000;0.072875
7489.000000;0.072862
7488.000000;0.072820
7487.000000;0.072771
7486.000000;0.072725
7485.000000;0.072668
7484.000000;0.072600
7483.000000;0.072556
7482.000000;0.072553
7481.000000;0.072538
7480.000000;0.072447
7479.000000;0.072312
7478.000000;0.072227
7477.000000;0.072223
7476.000000;0.072250
7475.000000;0.072286
7474.000000;0.072376
7473.000000;0.072532
7472.000000;0.072660
7471.000000;0.072660
7470.000000;0.072528
7469.000000;0.072343
7468.000000;0.072181
7467.000000;0.072086
7466.000000;0.072068
7465.000000;0.072120
7464.000000;0.072222
7463.000000;0.072350
7462.000000;0.072449
7461.000000;0.072440
7460.000000;0.072287
7459.000000;0.072069
7458.000000;0.071910
7457.000000;0.071851
7456.000000;0.071820
7455.000000;0.071745
7454.000000;0.071621
7453.000000;0.071477
7452.000000;0.071341
7451.000000;0.071257
7450.000000;0.071273
7449.000000;0.071377
7448.000000;0.071498
7447.000000;0.071594
7446.000000;0.071675
7445.000000;0.071740
7444.000000;0.071748
7443.000000;0.071682
7442.000000;0.071568
7441.000000;0.071434
7440.000000;0.071291
7439.000000;0.071188
7438.000000;0.071192
7437.000000;0.071290
7436.000000;0.071378
7435.000000;0.071380
7434.000000;0.071317
7433.000000;0.071242
7432.000000;0.071174
7431.000000;0.071117
7430.000000;0.071099
7429.000000;0.071125
7428.000000;0.071157
7427.000000;0.071163
7426.000000;0.071148
7425.000000;0.071115
7424.000000;0.071050
7423.000000;0.070994
7422.000000;0.071028
7421.000000;0.071149
7420.000000;0.071218
7419.000000;0.071125
7418.000000;0.070930
7417.000000;0.070773
7416.000000;0.070705
7415.000000;0.070680
7414.000000;0.070656
7413.000000;0.070647
7412.000000;0.070675
7411.000000;0.070715
7410.000000;0.070694
7409.000000;0.070558
7408.000000;0.070356
7407.000000;0.070223
7406.000000;0.070236
7405.000000;0.070309
7404.000000;0.070315
7403.000000;0.070260
7402.000000;0.070248
7401.000000;0.070323
7400.000000;0.070437
7399.000000;0.070508
7398.000000;0.070454
7397.000000;0.070281
7396.000000;0.070135
7395.000000;0.070144
7394.000000;0.070166
7393.000000;0.069907
7392.000000;0.069360
7391.000000;0.068907
7390.000000;0.068853
7389.000000;0.069069
7388.000000;0.069277
7387.000000;0.069465
7386.000000;0.069737
7385.000000;0.069952
7384.000000;0.069928
7383.000000;0.069890
7382.000000;0.070226
7381.000000;0.070764
7380.000000;0.070827
7379.000000;0.070249
7378.000000;0.069776
7377.000000;0.070079
7376.000000;0.070819
7375.000000;0.071125
7374.000000;0.070704
7373.000000;0.070015
7372.000000;0.069572
7371.000000;0.069504
7370.000000;0.069663
7369.000000;0.069772
7368.000000;0.069578
7367.000000;0.069145
7366.000000;0.068881
7365.000000;0.069023
7364.000000;0.069315
7363.000000;0.069435
7362.000000;0.069462
7361.000000;0.069542
7360.000000;0.069424
7359.000000;0.068916
7358.000000;0.068488
7357.000000;0.068710
7356.000000;0.069335
7355.000000;0.069602
7354.000000;0.069328
7353.000000;0.069004
7352.000000;0.068944
7351.000000;0.069057
7350.000000;0.069313
7349.000000;0.069688
7348.000000;0.069762
7347.000000;0.069211
7346.000000;0.068532
7345.000000;0.068468
7344.000000;0.068872
7343.000000;0.069100
7342.000000;0.069329
7341.000000;0.070294
7340.000000;0.071656
7339.000000;0.071944
7338.000000;0.070678
7337.000000;0.069191
7336.000000;0.068767
7335.000000;0.069154
7334.000000;0.069444
7333.000000;0.069336
7332.000000;0.068932
7331.000000;0.068335
7330.000000;0.068028
7329.000000;0.068638
7328.000000;0.069731
7327.000000;0.069912
7326.000000;0.068797
7325.000000;0.067752
7324.000000;0.067911
7323.000000;0.068613
7322.000000;0.068640
7321.000000;0.068067
7320.000000;0.067904
7319.000000;0.068432
7318.000000;0.069039
7317.000000;0.069296
7316.000000;0.069188
7315.000000;0.068678
7314.000000;0.067980
7313.000000;0.067887
7312.000000;0.068777
7311.000000;0.069693
7310.000000;0.069526
7309.000000;0.068702
7308.000000;0.068487
7307.000000;0.068990
7306.000000;0.069108
7305.000000;0.068389
7304.000000;0.067652
7303.000000;0.067515
7302.000000;0.067614
7301.000000;0.067562
7300.000000;0.067555
7299.000000;0.067610
7298.000000;0.067245
7297.000000;0.066547
7296.000000;0.066488
7295.000000;0.067483
7294.000000;0.068521
7293.000000;0.068487
7292.000000;0.067766
7291.000000;0.067594
7290.000000;0.068356
7289.000000;0.069347
7288.000000;0.069821
7287.000000;0.069634
7286.000000;0.069018
7285.000000;0.068297
7284.000000;0.067833
7283.000000;0.067806
7282.000000;0.068004
7281.000000;0.068078
7280.000000;0.067994
7279.000000;0.067979
7278.000000;0.068107
7277.000000;0.068264
7276.000000;0.068414
7275.000000;0.068617
7274.000000;0.068843
7273.000000;0.068943
7272.000000;0.068845
7271.000000;0.068655
7270.000000;0.068553
7269.000000;0.068639
7268.000000;0.068844
7267.000000;0.068950
7266.000000;0.068833
7265.000000;0.068720
7264.000000;0.069011
7263.000000;0.069729
7262.000000;0.070337
7261.000000;0.070330
7260.000000;0.069850
7259.000000;0.069444
7258.000000;0.069347
7257.000000;0.069351
7256.000000;0.069344
7255.000000;0.069533
7254.000000;0.070018
7253.000000;0.070482
7252.000000;0.070504
7251.000000;0.070075
7250.000000;0.069675
7249.000000;0.069766
7248.000000;0.070233
7247.000000;0.070481
7246.000000;0.070277
7245.000000;0.070212
7244.000000;0.070943
7243.000000;0.072138
7242.000000;0.072698
7241.000000;0.072170
7240.000000;0.071369
7239.000000;0.071263
7238.000000;0.071723
7237.000000;0.071832
7236.000000;0.071223
7235.000000;0.070635
7234.000000;0.070994
7233.000000;0.072234
7232.000000;0.073201
7231.000000;0.072832
7230.000000;0.071410
7229.000000;0.070321
7228.000000;0.070522
7227.000000;0.071565
7226.000000;0.072258
7225.000000;0.071959
7224.000000;0.071004
7223.000000;0.070140
7222.000000;0.069845
7221.000000;0.070075
7220.000000;0.070390
7219.000000;0.070337
7218.000000;0.069885
7217.000000;0.069445
7216.000000;0.069365
7215.000000;0.069503
7214.000000;0.069442
7213.000000;0.069090
7212.000000;0.068819
7211.000000;0.068916
7210.000000;0.069186
7209.000000;0.069291
7208.000000;0.069271
7207.000000;0.069456
7206.000000;0.069992
7205.000000;0.070622
7204.000000;0.070916
7203.000000;0.070686
7202.000000;0.070147
7201.000000;0.069687
7200.000000;0.069474
7199.000000;0.069333
7198.000000;0.069052
7197.000000;0.068723
7196.000000;0.068613
7195.000000;0.068705
7194.000000;0.068644
7193.000000;0.068274
7192.000000;0.067925
7191.000000;0.067942
7190.000000;0.068179
7189.000000;0.068296
7188.000000;0.068322
7187.000000;0.068433
7186.000000;0.068424
7185.000000;0.067949
7184.000000;0.067244
7183.000000;0.066986
7182.000000;0.067315
7181.000000;0.067590
7180.000000;0.067353
7179.000000;0.067000
7178.000000;0.067125
7177.000000;0.067643
7176.000000;0.068018
7175.000000;0.067990
7174.000000;0.067684
7173.000000;0.067279
7172.000000;0.066960
7171.000000;0.067043
7170.000000;0.067626
7169.000000;0.068304
7168.000000;0.068602
7167.000000;0.068492
7166.000000;0.068151
7165.000000;0.067531
7164.000000;0.066680
7163.000000;0.066083
7162.000000;0.066124
7161.000000;0.066432
7160.000000;0.066336
7159.000000;0.065896
7158.000000;0.065822
7157.000000;0.066322
7156.000000;0.066758
7155.000000;0.066586
7154.000000;0.066055
7153.000000;0.065740
7152.000000;0.065802
7151.000000;0.065977
7150.000000;0.065986
7149.000000;0.065764
7148.000000;0.065444
7147.000000;0.065259
7146.000000;0.065378
7145.000000;0.065702
7144.000000;0.065905
7143.000000;0.065838
7142.000000;0.065803
7141.000000;0.066163
7140.000000;0.066711
7139.000000;0.066780
7138.000000;0.066147
7137.000000;0.065444
7136.000000;0.065372
7135.000000;0.065813
7134.000000;0.066068
7133.000000;0.065823
7132.000000;0.065451
7131.000000;0.065346
7130.000000;0.065402
7129.000000;0.065330
7128.000000;0.065143
7127.000000;0.065002
7126.000000;0.064873
7125.000000;0.064715
7124.000000;0.064720
7123.000000;0.064986
7122.000000;0.065140
7121.000000;0.064770
7120.000000;0.064146
7119.000000;0.063958
7118.000000;0.064316
7117.000000;0.064539
7116.000000;0.064180
7115.000000;0.063726
7114.000000;0.063841
7113.000000;0.064401
7112.000000;0.064774
7111.000000;0.064736
7110.000000;0.064625
7109.000000;0.064686
7108.000000;0.064789
7107.000000;0.064782
7106.000000;0.064674
7105.000000;0.064468
7104.000000;0.064143
7103.000000;0.063846
7102.000000;0.063814
7101.000000;0.064041
7100.000000;0.064200
7099.000000;0.063987
7098.000000;0.063481
7097.000000;0.063045
7096.000000;0.062904
7095.000000;0.062950
7094.000000;0.062979
7093.000000;0.062971
7092.000000;0.063053
7091.000000;0.063258
7090.000000;0.063433
7089.000000;0.063414
7088.000000;0.063224
7087.000000;0.063033
7086.000000;0.062929
7085.000000;0.062824
7084.000000;0.062621
7083.000000;0.062379
7082.000000;0.062229
7081.000000;0.062187
7080.000000;0.062125
7079.000000;0.061981
7078.000000;0.061893
7077.000000;0.061997
7076.000000;0.062168
7075.000000;0.062150
7074.000000;0.061911
7073.000000;0.061682
7072.000000;0.061635
7071.000000;0.061691
7070.000000;0.061704
7069.000000;0.061687
7068.000000;0.061737
7067.000000;0.061846
7066.000000;0.061907
7065.000000;0.061853
7064.000000;0.061713
7063.000000;0.061541
7062.000000;0.061377
7061.000000;0.061275
7060.000000;0.061260
7059.000000;0.061256
7058.000000;0.061154
7057.000000;0.060965
7056.000000;0.060799
7055.000000;0.060721
7054.000000;0.060706
7053.000000;0.060689
7052.000000;0.060629
7051.000000;0.060535
7050.000000;0.060446
7049.000000;0.060396
7048.000000;0.060370
7047.000000;0.060315
7046.000000;0.060236
7045.000000;0.060213
7044.000000;0.060290
7043.000000;0.060361
7042.000000;0.060289
7041.000000;0.060096
7040.000000;0.059941
7039.000000;0.059896
7038.000000;0.059877
7037.000000;0.059797
7036.000000;0.059674
7035.000000;0.059554
7034.000000;0.059434
7033.000000;0.059303
7032.000000;0.059188
7031.000000;0.059117
7030.000000;0.059088
7029.000000;0.059090
7028.000000;0.059113
7027.000000;0.059108
7026.000000;0.059027
7025.000000;0.058907
7024.000000;0.058840
7023.000000;0.058823
7022.000000;0.058751
7021.000000;0.058589
7020.000000;0.058435
7019.000000;0.058372
7018.000000;0.058339
7017.000000;0.058238
7016.000000;0.058086
7015.000000;0.057966
7014.000000;0.057903
7013.000000;0.057876
7012.000000;0.057892
7011.000000;0.057953
7010.000000;0.057989
7009.000000;0.057938
7008.000000;0.057831
7007.000000;0.057734
7006.000000;0.057637
7005.000000;0.057510
7004.000000;0.057396
7003.000000;0.057356
7002.000000;0.057351
7001.000000;0.057292
7000.000000;0.057181
6999.000000;0.057095
6998.000000;0.057042
6997.000000;0.056957
6996.000000;0.056840
6995.000000;0.056777
6994.000000;0.056793
6993.000000;0.056806
6992.000000;0.056737
6991.000000;0.056614
6990.000000;0.056499
6989.000000;0.056404
6988.000000;0.056333
6987.000000;0.056319
6986.000000;0.056367
6985.000000;0.056412
6984.000000;0.056407
6983.000000;0.056375
6982.000000;0.056346
6981.000000;0.056275
6980.000000;0.056113
6979.000000;0.055906
6978.000000;0.055762
6977.000000;0.055710
6976.000000;0.055667
6975.000000;0.055562
6974.000000;0.055438
6973.000000;0.055371
6972.000000;0.055341
6971.000000;0.055260
6970.000000;0.055112
6969.000000;0.054974
6968.000000;0.054898
6967.000000;0.054831
6966.000000;0.054705
6965.000000;0.054548
6964.000000;0.054445
6963.000000;0.054409
6962.000000;0.054366
6961.000000;0.054272
6960.000000;0.054156
6959.000000;0.054060
6958.000000;0.054004
6957.000000;0.054008
6956.000000;0.054062
6955.000000;0.054083
6954.000000;0.053978
6953.000000;0.053766
6952.000000;0.053568
6951.000000;0.053455
6950.000000;0.053397
6949.000000;0.053362
6948.000000;0.053367
6947.000000;0.053390
6946.000000;0.053338
6945.000000;0.053175
6944.000000;0.053006
6943.000000;0.052937
6942.000000;0.052923
6941.000000;0.052852
6940.000000;0.052739
6939.000000;0.052692
6938.000000;0.052728
6937.000000;0.052742
6936.000000;0.052659
6935.000000;0.052529
6934.000000;0.052442
6933.000000;0.052435
6932.000000;0.052481
6931.000000;0.052523
6930.000000;0.052492
6929.000000;0.052352
6928.000000;0.052142
6927.000000;0.051936
6926.000000;0.051780
6925.000000;0.051672
6924.000000;0.051623
6923.000000;0.051647
6922.000000;0.051692
6921.000000;0.051684
6920.000000;0.051639
6919.000000;0.051658
6918.000000;0.051761
6917.000000;0.051828
6916.000000;0.051745
6915.000000;0.051546
6914.000000;0.051354
6913.000000;0.051235
6912.000000;0.051156
6911.000000;0.051073
6910.000000;0.050992
6909.000000;0.050947
6908.000000;0.050938
6907.000000;0.050925
6906.000000;0.050858
6905.000000;0.050724
6904.000000;0.050566
6903.000000;0.050440
6902.000000;0.050362
6901.000000;0.050306
6900.000000;0.050259
6899.000000;0.050228
6898.000000;0.050213
6897.000000;0.050208
6896.000000;0.050218
6895.000000;0.050238
6894.000000;0.050216
6893.000000;0.050107
6892.000000;0.049938
6891.000000;0.049781
6890.000000;0.049668
6889.000000;0.049577
6888.000000;0.049493
6887.000000;0.049425
6886.000000;0.049358
6885.000000;0.049261
6884.000000;0.049136
6883.000000;0.049028
6882.000000;0.048968
6881.000000;0.048948
6880.000000;0.048951
6879.000000;0.048965
6878.000000;0.048958
6877.000000;0.048891
6876.000000;0.048760
6875.000000;0.048612
6874.000000;0.048504
6873.000000;0.048465
6872.000000;0.048483
6871.000000;0.048513
6870.000000;0.048502
6869.000000;0.048433
6868.000000;0.048345
6867.000000;0.048275
6866.000000;0.048205
6865.000000;0.048092
6864.000000;0.047931
6863.000000;0.047778
6862.000000;0.047696
6861.000000;0.047703
6860.000000;0.047763
6859.000000;0.047807
6858.000000;0.047770
6857.000000;0.047643
6856.000000;0.047465
6855.000000;0.047278
6854.000000;0.047100
6853.000000;0.046951
6852.000000;0.046874
6851.000000;0.046894
6850.000000;0.046974
6849.000000;0.047038
6848.000000;0.047045
6847.000000;0.047001
6846.000000;0.046932
6845.000000;0.046863
6844.000000;0.046811
6843.000000;0.046768
6842.000000;0.046694
6841.000000;0.046568
6840.000000;0.046431
6839.000000;0.046338
6838.000000;0.046290
6837.000000;0.046249
6836.000000;0.046212
6835.000000;0.046199
6834.000000;0.046200
6833.000000;0.046180
6832.000000;0.046139
6831.000000;0.046105
6830.000000;0.046067
6829.000000;0.045976
6828.000000;0.045837
6827.000000;0.045730
6826.000000;0.045697
6825.000000;0.045675
6824.000000;0.045588
6823.000000;0.045449
6822.000000;0.045325
6821.000000;0.045243
6820.000000;0.045176
6819.000000;0.045101
6818.000000;0.045008
6817.000000;0.044887
6816.000000;0.044739
6815.000000;0.044609
6814.000000;0.044551
6813.000000;0.044563
6812.000000;0.044590
6811.000000;0.044587
6810.000000;0.044540
6809.000000;0.044447
6808.000000;0.044323
6807.000000;0.044228
6806.000000;0.044222
6805.000000;0.044298
6804.000000;0.044370
6803.000000;0.044372
6802.000000;0.044336
6801.000000;0.044321
6800.000000;0.044316
6799.000000;0.044250
6798.000000;0.044095
6797.000000;0.043911
6796.000000;0.043770
6795.000000;0.043683
6794.000000;0.043628
6793.000000;0.043599
6792.000000;0.043602
6791.000000;0.043621
6790.000000;0.043612
6789.000000;0.043562
6788.000000;0.043508
6787.000000;0.043488
6786.000000;0.043489
6785.000000;0.043468
6784.000000;0.043397
6783.000000;0.043276
6782.000000;0.043112
6781.000000;0.042921
6780.000000;0.042746
6779.000000;0.042645
6778.000000;0.042642
6777.000000;0.042688
6776.000000;0.042688
6775.000000;0.042586
6774.000000;0.042414
6773.000000;0.042265
6772.000000;0.042196
6771.000000;0.042177
6770.000000;0.042146
6769.000000;0.042093
6768.000000;0.042054
6767.000000;0.042040
6766.000000;0.042017
6765.000000;0.041962
6764.000000;0.041892
6763.000000;0.041823
6762.000000;0.041745
6761.000000;0.041659
6760.000000;0.041591
6759.000000;0.041554
6758.000000;0.041536
6757.000000;0.041539
6756.000000;0.041588
6755.000000;0.041653
6754.000000;0.041636
6753.000000;0.041484
6752.000000;0.041277
6751.000000;0.041123
6750.000000;0.041031
6749.000000;0.040945
6748.000000;0.040860
6747.000000;0.040828
6746.000000;0.040847
6745.000000;0.040851
6744.000000;0.040800
6743.000000;0.040730
6742.000000;0.040690
6741.000000;0.040674
6740.000000;0.040650
6739.000000;0.040597
6738.000000;0.040516
6737.000000;0.040410
6736.000000;0.040298
6735.000000;0.040209
6734.000000;0.040158
6733.000000;0.040135
6732.000000;0.040127
6731.000000;0.040124
6730.000000;0.040112
6729.000000;0.040084
6728.000000;0.040052
6727.000000;0.040023
6726.000000;0.039957
6725.000000;0.039820
6724.000000;0.039652
6723.000000;0.039544
6722.000000;0.039526
6721.000000;0.039536
6720.000000;0.039507
6719.000000;0.039450
6718.000000;0.039410
6717.000000;0.039391
6716.000000;0.039359
6715.000000;0.039300
6714.000000;0.039226
6713.000000;0.039164
6712.000000;0.039112
6711.000000;0.039083
6710.000000;0.039095
6709.000000;0.039127
6708.000000;0.039153
6707.000000;0.039160
6706.000000;0.039127
6705.000000;0.039003
6704.000000;0.038840
6703.000000;0.038676
6702.000000;0.038650
6701.000000;0.038676
6700.000000;0.038596
6699.000000;0.038494
6698.000000;0.038381
6697.000000;0.038347
6696.000000;0.038384
6695.000000;0.038432
6694.000000;0.038430
6693.000000;0.038386
6692.000000;0.038334
6691.000000;0.038279
6690.000000;0.038196
6689.000000;0.038088
6688.000000;0.037994
6687.000000;0.037937
6686.000000;0.037883
6685.000000;0.037792
6684.000000;0.037681
6683.000000;0.037595
6682.000000;0.037555
6681.000000;0.037542
6680.000000;0.037547
6679.000000;0.037574
6678.000000;0.037611
6677.000000;0.037622
6676.000000;0.037580
6675.000000;0.037500
6674.000000;0.037420
6673.000000;0.037360
6672.000000;0.037310
6671.000000;0.037244
6670.000000;0.037149
6669.000000;0.037045
6668.000000;0.036970
6667.000000;0.036938
6666.000000;0.036928
6665.000000;0.036919
6664.000000;0.036904
6663.000000;0.036883
6662.000000;0.036855
6661.000000;0.036835
6660.000000;0.036840
6659.000000;0.036854
6658.000000;0.036821
6657.000000;0.036714
6656.000000;0.036573
6655.000000;0.036448
6654.000000;0.036347
6653.000000;0.036254
6652.000000;0.036189
6651.000000;0.036175
6650.000000;0.036177
6649.000000;0.036133
6648.000000;0.036038
6647.000000;0.035954
6646.000000;0.035924
6645.000000;0.035924
6644.000000;0.035907
6643.000000;0.035860
6642.000000;0.035810
6641.000000;0.035782
6640.000000;0.035780
6639.000000;0.035783
6638.000000;0.035757
6637.000000;0.035687
6636.000000;0.035590
6635.000000;0.035497
6634.000000;0.035417
6633.000000;0.035348
6632.000000;0.035306
6631.000000;0.035309
6630.000000;0.035339
6629.000000;0.035347
6628.000000;0.035314
6627.000000;0.035272
6626.000000;0.035263
6625.000000;0.035290
6624.000000;0.035330
6623.000000;0.035355
6622.000000;0.035339
6621.000000;0.035266
6620.000000;0.035151
6619.000000;0.035032
6618.000000;0.034944
6617.000000;0.034894
6616.000000;0.034855
6615.000000;0.034793
6614.000000;0.034700
6613.000000;0.034605
6612.000000;0.034539
6611.000000;0.034498
6610.000000;0.034445
6609.000000;0.034371
6608.000000;0.034319
6607.000000;0.034319
6606.000000;0.034334
6605.000000;0.034304
6604.000000;0.034221
6603.000000;0.034121
6602.000000;0.034025
6601.000000;0.033922
6600.000000;0.033817
6599.000000;0.033742
6598.000000;0.033715
6597.000000;0.033726
6596.000000;0.033771
6595.000000;0.033851
6594.000000;0.033946
6593.000000;0.034008
6592.000000;0.034007
6591.000000;0.033965
6590.000000;0.033919
6589.000000;0.033889
6588.000000;0.033878
6587.000000;0.033882
6586.000000;0.033879
6585.000000;0.033838
6584.000000;0.033755
6583.000000;0.033662
6582.000000;0.033587
6581.000000;0.033513
6580.000000;0.033400
6579.000000;0.033239
6578.000000;0.033069
6577.000000;0.032948
6576.000000;0.032907
6575.000000;0.032918
6574.000000;0.032921
6573.000000;0.032876
6572.000000;0.032805
6571.000000;0.032758
6570.000000;0.032759
6569.000000;0.032792
6568.000000;0.032833
6567.000000;0.032870
6566.000000;0.032896
6565.000000;0.032902
6564.000000;0.032885
6563.000000;0.032853
6562.000000;0.032818
6561.000000;0.032780
6560.000000;0.032727
6559.000000;0.032650
6558.000000;0.032563
6557.000000;0.032500
6556.000000;0.032482
6555.000000;0.032487
6554.000000;0.032462
6553.000000;0.032386
6552.000000;0.032297
6551.000000;0.032243
6550.000000;0.032227
6549.000000;0.032222
6548.000000;0.032208
6547.000000;0.032181
6546.000000;0.032134
6545.000000;0.032064
6544.000000;0.031985
6543.000000;0.031926
6542.000000;0.031900
6541.000000;0.031902
6540.000000;0.031926
6539.000000;0.031960
6538.000000;0.031983
6537.000000;0.031978
6536.000000;0.031956
6535.000000;0.031934
6534.000000;0.031909
6533.000000;0.031864
6532.000000;0.031794
6531.000000;0.031711
6530.000000;0.031624
6529.000000;0.031538
6528.000000;0.031466
6527.000000;0.031418
6526.000000;0.031383
6525.000000;0.031336
6524.000000;0.031272
6523.000000;0.031204
6522.000000;0.031145
6521.000000;0.031109
6520.000000;0.031096
6519.000000;0.031088
6518.000000;0.031055
6517.000000;0.030991
6516.000000;0.030929
6515.000000;0.030890
6514.000000;0.030855
6513.000000;0.030800
6512.000000;0.030742
6511.000000;0.030706
6510.000000;0.030677
6509.000000;0.030629
6508.000000;0.030572
6507.000000;0.030542
6506.000000;0.030552
6505.000000;0.030575
6504.000000;0.030594
6503.000000;0.030612
6502.000000;0.030625
6501.000000;0.030625
6500.000000;0.030619
6499.000000;0.030618
6498.000000;0.030599
6497.000000;0.030531
6496.000000;0.030428
6495.000000;0.030351
6494.000000;0.030337
6493.000000;0.030358
6492.000000;0.030363
6491.000000;0.030331
6490.000000;0.030271
6489.000000;0.030205
6488.000000;0.030160
6487.000000;0.030148
6486.000000;0.030145
6485.000000;0.030108
6484.000000;0.030033
6483.000000;0.029962
6482.000000;0.029936
6481.000000;0.029936
6480.000000;0.029913
6479.000000;0.029839
6478.000000;0.029739
6477.000000;0.029662
6476.000000;0.029639
6475.000000;0.029659
6474.000000;0.029686
6473.000000;0.029687
6472.000000;0.029658
6471.000000;0.029615
6470.000000;0.029572
6469.000000;0.029541
6468.000000;0.029535
6467.000000;0.029556
6466.000000;0.029591
6465.000000;0.029625
6464.000000;0.029655
6463.000000;0.029676
6462.000000;0.029673
6461.000000;0.029634
6460.000000;0.029572
6459.000000;0.029504
6458.000000;0.029422
6457.000000;0.029313
6456.000000;0.029204
6455.000000;0.029146
6454.000000;0.029159
6453.000000;0.029202
6452.000000;0.029213
6451.000000;0.029169
6450.000000;0.029089
6449.000000;0.029008
6448.000000;0.028949
6447.000000;0.028910
6446.000000;0.028874
6445.000000;0.028833
6444.000000;0.028798
6443.000000;0.028790
6442.000000;0.028810
6441.000000;0.028844
6440.000000;0.028871
6439.000000;0.028869
6438.000000;0.028827
6437.000000;0.028762
6436.000000;0.028710
6435.000000;0.028690
6434.000000;0.028683
6433.000000;0.028664
6432.000000;0.028642
6431.000000;0.028640
6430.000000;0.028656
6429.000000;0.028667
6428.000000;0.028667
6427.000000;0.028665
6426.000000;0.028663
6425.000000;0.028660
6424.000000;0.028662
6423.000000;0.028681
6422.000000;0.028704
6421.000000;0.028700
6420.000000;0.028654
6419.000000;0.028581
6418.000000;0.028504
6417.000000;0.028446
6416.000000;0.028425
6415.000000;0.028438
6414.000000;0.028457
6413.000000;0.028449
6412.000000;0.028406
6411.000000;0.028347
6410.000000;0.028293
6409.000000;0.028248
6408.000000;0.028209
6407.000000;0.028174
6406.000000;0.028143
6405.000000;0.028129
6404.000000;0.028154
6403.000000;0.028206
6402.000000;0.028243
6401.000000;0.028233
6400.000000;0.028195
6399.000000;0.028164
6398.000000;0.028143
6397.000000;0.028111
6396.000000;0.028068
6395.000000;0.028037
6394.000000;0.028033
6393.000000;0.028050
6392.000000;0.028079
6391.000000;0.028116
6390.000000;0.028139
6389.000000;0.028131
6388.000000;0.028095
6387.000000;0.028045
6386.000000;0.027975
6385.000000;0.027876
6384.000000;0.027768
6383.000000;0.027691
6382.000000;0.027659
6381.000000;0.027658
6380.000000;0.027674
6379.000000;0.027709
6378.000000;0.027763
6377.000000;0.027813
6376.000000;0.027824
6375.000000;0.027775
6374.000000;0.027674
6373.000000;0.027562
6372.000000;0.027492
6371.000000;0.027480
6370.000000;0.027488
6369.000000;0.027472
6368.000000;0.027431
6367.000000;0.027396
6366.000000;0.027385
6365.000000;0.027396
6364.000000;0.027422
6363.000000;0.027446
6362.000000;0.027443
6361.000000;0.027394
6360.000000;0.027323
6359.000000;0.027260
6358.000000;0.027210
6357.000000;0.027164
6356.000000;0.027141
6355.000000;0.027174
6354.000000;0.027247
6353.000000;0.027298
6352.000000;0.027279
6351.000000;0.027205
6350.000000;0.027120
6349.000000;0.027060
6348.000000;0.027044
6347.000000;0.027073
6346.000000;0.027124
6345.000000;0.027166
6344.000000;0.027182
6343.000000;0.027178
6342.000000;0.027169
6341.000000;0.027167
6340.000000;0.027177
6339.000000;0.027198
6338.000000;0.027207
6337.000000;0.027178
6336.000000;0.027107
6335.000000;0.027016
6334.000000;0.026935
6333.000000;0.026878
6332.000000;0.026838
6331.000000;0.026802
6330.000000;0.026766
6329.000000;0.026748
6328.000000;0.026762
6327.000000;0.026784
6326.000000;0.026773
6325.000000;0.026719
6324.000000;0.026665
6323.000000;0.026650
6322.000000;0.026661
6321.000000;0.026666
6320.000000;0.026659
6319.000000;0.026652
6318.000000;0.026640
6317.000000;0.026610
6316.000000;0.026560
6315.000000;0.026498
6314.000000;0.026432
6313.000000;0.026385
6312.000000;0.026393
6311.000000;0.026458
6310.000000;0.026519
6309.000000;0.026511
6308.000000;0.026441
6307.000000;0.026373
6306.000000;0.026345
6305.000000;0.026346
6304.000000;0.026340
6303.000000;0.026306
6302.000000;0.026241
6301.000000;0.026171
6300.000000;0.026147
6299.000000;0.026191
6298.000000;0.026262
6297.000000;0.026294
6296.000000;0.026276
6295.000000;0.026246
6294.000000;0.026232
6293.000000;0.026221
6292.000000;0.026199
6291.000000;0.026171
6290.000000;0.026148
6289.000000;0.026131
6288.000000;0.026121
6287.000000;0.026111
6286.000000;0.026080
6285.000000;0.026015
6284.000000;0.025950
6283.000000;0.025930
6282.000000;0.025956
6281.000000;0.025987
6280.000000;0.025993
6279.000000;0.025981
6278.000000;0.025965
6277.000000;0.025949
6276.000000;0.025939
6275.000000;0.025938
6274.000000;0.025942
6273.000000;0.025944
6272.000000;0.025951
6271.000000;0.025967
6270.000000;0.025971
6269.000000;0.025939
6268.000000;0.025880
6267.000000;0.025819
6266.000000;0.025760
6265.000000;0.025695
6264.000000;0.025636
6263.000000;0.025608
6262.000000;0.025608
6261.000000;0.025610
6260.000000;0.025607
6259.000000;0.025611
6258.000000;0.025610
6257.000000;0.025574
6256.000000;0.025502
6255.000000;0.025437
6254.000000;0.025413
6253.000000;0.025427
6252.000000;0.025451
6251.000000;0.025468
6250.000000;0.025471
6249.000000;0.025474
6248.000000;0.025499
6247.000000;0.025550
6246.000000;0.025585
6245.000000;0.025563
6244.000000;0.025493
6243.000000;0.025423
6242.000000;0.025374
6241.000000;0.025327
6240.000000;0.025274
6239.000000;0.025236
6238.000000;0.025223
6237.000000;0.025221
6236.000000;0.025216
6235.000000;0.025215
6234.000000;0.025212
6233.000000;0.025189
6232.000000;0.025145
6231.000000;0.025106
6230.000000;0.025095
6229.000000;0.025114
6228.000000;0.025162
6227.000000;0.025233
6226.000000;0.025292
6225.000000;0.025290
6224.000000;0.025221
6223.000000;0.025133
6222.000000;0.025076
6221.000000;0.025052
6220.000000;0.025043
6219.000000;0.025041
6218.000000;0.025042
6217.000000;0.025035
6216.000000;0.025015
6215.000000;0.024989
6214.000000;0.024967
6213.000000;0.024947
6212.000000;0.024927
6211.000000;0.024909
6210.000000;0.024890
6209.000000;0.024855
6208.000000;0.024804
6207.000000;0.024749
6206.000000;0.024702
6205.000000;0.024665
6204.000000;0.024647
6203.000000;0.024654
6202.000000;0.024678
6201.000000;0.024694
6200.000000;0.024692
6199.000000;0.024676
6198.000000;0.024644
6197.000000;0.024593
6196.000000;0.024541
6195.000000;0.024523
6194.000000;0.024547
6193.000000;0.024581
6192.000000;0.024594
6191.000000;0.024580
6190.000000;0.024542
6189.000000;0.024481
6188.000000;0.024407
6187.000000;0.024352
6186.000000;0.024334
6185.000000;0.024339
6184.000000;0.024348
6183.000000;0.024364
6182.000000;0.024392
6181.000000;0.024421
6180.000000;0.024434
6179.000000;0.024430
6178.000000;0.024419
6177.000000;0.024403
6176.000000;0.024376
6175.000000;0.024334
6174.000000;0.024279
6173.000000;0.024215
6172.000000;0.024156
6171.000000;0.024122
6170.000000;0.024118
6169.000000;0.024132
6168.000000;0.024148
6167.000000;0.024159
6166.000000;0.024159
6165.000000;0.024139
6164.000000;0.024092
6163.000000;0.024023
6162.000000;0.023951
6161.000000;0.023902
6160.000000;0.023899
6159.000000;0.023940
6158.000000;0.023997
6157.000000;0.024035
6156.000000;0.024036
6155.000000;0.024005
6154.000000;0.023945
6153.000000;0.023865
6152.000000;0.023787
6151.000000;0.023735
6150.000000;0.023718
6149.000000;0.023724
6148.000000;0.023740
6147.000000;0.023751
6146.000000;0.023738
6145.000000;0.023685
6144.000000;0.023608
6143.000000;0.023552
6142.000000;0.023546
6141.000000;0.023582
6140.000000;0.023623
6139.000000;0.023632
6138.000000;0.023600
6137.000000;0.023547
6136.000000;0.023510
6135.000000;0.023503
6134.000000;0.023504
6133.000000;0.023477
6132.000000;0.023421
6131.000000;0.023364
6130.000000;0.023324
6129.000000;0.023297
6128.000000;0.023271
6127.000000;0.023248
6126.000000;0.023233
6125.000000;0.023218
6124.000000;0.023187
6123.000000;0.023133
6122.000000;0.023065
6121.000000;0.023010
6120.000000;0.022995
6119.000000;0.023025
6118.000000;0.023081
6117.000000;0.023132
6116.000000;0.023155
6115.000000;0.023133
6114.000000;0.023058
6113.000000;0.022944
6112.000000;0.022825
6111.000000;0.022740
6110.000000;0.022709
6109.000000;0.022736
6108.000000;0.022798
6107.000000;0.022850
6106.000000;0.022851
6105.000000;0.022802
6104.000000;0.022747
6103.000000;0.022719
6102.000000;0.022719
6101.000000;0.022736
6100.000000;0.022770
6099.000000;0.022813
6098.000000;0.022839
6097.000000;0.022823
6096.000000;0.022770
6095.000000;0.022691
6094.000000;0.022590
6093.000000;0.022480
6092.000000;0.022392
6091.000000;0.022350
6090.000000;0.022344
6089.000000;0.022352
6088.000000;0.022353
6087.000000;0.022334
6086.000000;0.022278
6085.000000;0.022195
6084.000000;0.022122
6083.000000;0.022086
6082.000000;0.022073
6081.000000;0.022062
6080.000000;0.022064
6079.000000;0.022094
6078.000000;0.022128
6077.000000;0.022129
6076.000000;0.022093
6075.000000;0.022044
6074.000000;0.021992
6073.000000;0.021940
6072.000000;0.021896
6071.000000;0.021870
6070.000000;0.021848
6069.000000;0.021814
6068.000000;0.021778
6067.000000;0.021758
6066.000000;0.021751
6065.000000;0.021733
6064.000000;0.021696
6063.000000;0.021650
6062.000000;0.021606
6061.000000;0.021570
6060.000000;0.021552
6059.000000;0.021554
6058.000000;0.021553
6057.000000;0.021526
6056.000000;0.021477
6055.000000;0.021426
6054.000000;0.021370
6053.000000;0.021298
6052.000000;0.021215
6051.000000;0.021142
6050.000000;0.021086
6049.000000;0.021046
6048.000000;0.021025
6047.000000;0.021020
6046.000000;0.021011
6045.000000;0.020983
6044.000000;0.020943
6043.000000;0.020908
6042.000000;0.020878
6041.000000;0.020851
6040.000000;0.020847
6039.000000;0.020875
6038.000000;0.020914
6037.000000;0.020928
6036.000000;0.020905
6035.000000;0.020856
6034.000000;0.020780
6033.000000;0.020681
6032.000000;0.020591
6031.000000;0.020549
6030.000000;0.020555
6029.000000;0.020582
6028.000000;0.020608
6027.000000;0.020618
6026.000000;0.020595
6025.000000;0.020531
6024.000000;0.020445
6023.000000;0.020361
6022.000000;0.020281
6021.000000;0.020201
6020.000000;0.020139
6019.000000;0.020117
6018.000000;0.020131
6017.000000;0.020163
6016.000000;0.020215
6015.000000;0.020280
6014.000000;0.020318
6013.000000;0.020289
6012.000000;0.020204
6011.000000;0.020109
6010.000000;0.020038
6009.000000;0.019994
6008.000000;0.019984
6007.000000;0.019997
6006.000000;0.019995
6005.000000;0.019947
6004.000000;0.019875
6003.000000;0.019819
6002.000000;0.019778
6001.000000;0.019713
6000.000000;0.019619
5999.000000;0.019527
5998.000000;0.019463
5997.000000;0.019423
5996.000000;0.019402
5995.000000;0.019396
5994.000000;0.019380
5993.000000;0.019328
5992.000000;0.019249
5991.000000;0.019185
5990.000000;0.019158
5989.000000;0.019154
5988.000000;0.019153
5987.000000;0.019142
5986.000000;0.019107
5985.000000;0.019046
5984.000000;0.018985
5983.000000;0.018956
5982.000000;0.018955
5981.000000;0.018946
5980.000000;0.018916
5979.000000;0.018877
5978.000000;0.018835
5977.000000;0.018791
5976.000000;0.018762
5975.000000;0.018761
5974.000000;0.018757
5973.000000;0.018698
5972.000000;0.018579
5971.000000;0.018453
5970.000000;0.018367
5969.000000;0.018324
5968.000000;0.018302
5967.000000;0.018283
5966.000000;0.018253
5965.000000;0.018201
5964.000000;0.018134
5963.000000;0.018069
5962.000000;0.018007
5961.000000;0.017942
5960.000000;0.017880
5959.000000;0.017843
5958.000000;0.017831
5957.000000;0.017826
5956.000000;0.017821
5955.000000;0.017823
5954.000000;0.017828
5953.000000;0.017821
5952.000000;0.017798
5951.000000;0.017761
5950.000000;0.017701
5949.000000;0.017604
5948.000000;0.017481
5947.000000;0.017369
5946.000000;0.017290
5945.000000;0.017247
5944.000000;0.017233
5943.000000;0.017237
5942.000000;0.017243
5941.000000;0.017238
5940.000000;0.017228
5939.000000;0.017223
5938.000000;0.017208
5937.000000;0.017157
5936.000000;0.017071
5935.000000;0.016970
5934.000000;0.016868
5933.000000;0.016773
5932.000000;0.016706
5931.000000;0.016675
5930.000000;0.016657
5929.000000;0.016622
5928.000000;0.016577
5927.000000;0.016545
5926.000000;0.016515
5925.000000;0.016453
5924.000000;0.016360
5923.000000;0.016276
5922.000000;0.016224
5921.000000;0.016195
5920.000000;0.016167
5919.000000;0.016130
5918.000000;0.016076
5917.000000;0.016007
5916.000000;0.015948
5915.000000;0.015923
5914.000000;0.015917
5913.000000;0.015892
5912.000000;0.015844
5911.000000;0.015792
5910.000000;0.015738
5909.000000;0.015665
5908.000000;0.015582
5907.000000;0.015522
5906.000000;0.015496
5905.000000;0.015474
5904.000000;0.015421
5903.000000;0.015338
5902.000000;0.015240
5901.000000;0.015140
5900.000000;0.015049
5899.000000;0.014971
5898.000000;0.014896
5897.000000;0.014815
5896.000000;0.014742
5895.000000;0.014692
5894.000000;0.014655
5893.000000;0.014611
5892.000000;0.014570
5891.000000;0.014553
5890.000000;0.014553
5889.000000;0.014536
5888.000000;0.014487
5887.000000;0.014421
5886.000000;0.014354
5885.000000;0.014288
5884.000000;0.014226
5883.000000;0.014176
5882.000000;0.014129
5881.000000;0.014073
5880.000000;0.014018
5879.000000;0.013975
5878.000000;0.013936
5877.000000;0.013878
5876.000000;0.013807
5875.000000;0.013743
5874.000000;0.013678
5873.000000;0.013588
5872.000000;0.013480
5871.000000;0.013385
5870.000000;0.013318
5869.000000;0.013259
5868.000000;0.013201
5867.000000;0.013158
5866.000000;0.013127
5865.000000;0.013078
5864.000000;0.012991
5863.000000;0.012882
5862.000000;0.012792
5861.000000;0.012754
5860.000000;0.012772
5859.000000;0.012816
5858.000000;0.012832
5857.000000;0.012791
5856.000000;0.012718
5855.000000;0.012660
5854.000000;0.012625
5853.000000;0.012589
5852.000000;0.012540
5851.000000;0.012490
5850.000000;0.012442
5849.000000;0.012383
5848.000000;0.012314
5847.000000;0.012242
5846.000000;0.012165
5845.000000;0.012073
5844.000000;0.011976
5843.000000;0.011892
5842.000000;0.011812
5841.000000;0.011706
5840.000000;0.011569
5839.000000;0.011432
5838.000000;0.011321
5837.000000;0.011235
5836.000000;0.011156
5835.000000;0.011072
5834.000000;0.010972
5833.000000;0.010857
5832.000000;0.010744
5831.000000;0.010644
5830.000000;0.010553
5829.000000;0.010461
5828.000000;0.010375
5827.000000;0.010301
5826.000000;0.010226
5825.000000;0.010148
5824.000000;0.010093
5823.000000;0.010088
5822.000000;0.010111
5821.000000;0.010111
5820.000000;0.010063
5819.000000;0.009976
5818.000000;0.009862
5817.000000;0.009737
5816.000000;0.009641
5815.000000;0.009610
5814.000000;0.009629
5813.000000;0.009641
5812.000000;0.009615
5811.000000;0.009560
5810.000000;0.009495
5809.000000;0.009424
5808.000000;0.009349
5807.000000;0.009273
5806.000000;0.009184
5805.000000;0.009071
5804.000000;0.008947
5803.000000;0.008829
5802.000000;0.008720
5801.000000;0.008614
5800.000000;0.008523
5799.000000;0.008460
5798.000000;0.008409
5797.000000;0.008350
5796.000000;0.008288
5795.000000;0.008237
5794.000000;0.008181
5793.000000;0.008094
5792.000000;0.007982
5791.000000;0.007871
5790.000000;0.007760
5789.000000;0.007647
5788.000000;0.007556
5787.000000;0.007507
5786.000000;0.007472
5785.000000;0.007405
5784.000000;0.007304
5783.000000;0.007206
5782.000000;0.007120
5781.000000;0.007020
5780.000000;0.006897
5779.000000;0.006774
5778.000000;0.006660
5777.000000;0.006549
5776.000000;0.006447
5775.000000;0.006373
5774.000000;0.006323
5773.000000;0.006268
5772.000000;0.006197
5771.000000;0.006118
5770.000000;0.006031
5769.000000;0.005928
5768.000000;0.005824
5767.000000;0.005740
5766.000000;0.005658
5765.000000;0.005541
5764.000000;0.005389
5763.000000;0.005240
5762.000000;0.005110
5761.000000;0.004981
5760.000000;0.004840
5759.000000;0.004698
5758.000000;0.004570
5757.000000;0.004461
5756.000000;0.004387
5755.000000;0.004360
5754.000000;0.004348
5753.000000;0.004301
5752.000000;0.004204
5751.000000;0.004081
5750.000000;0.003962
5749.000000;0.003860
5748.000000;0.003793
5747.000000;0.003766
5746.000000;0.003751
5745.000000;0.003701
5744.000000;0.003610
5743.000000;0.003504
5742.000000;0.003404
5741.000000;0.003301
5740.000000;0.003185
5739.000000;0.003053
5738.000000;0.002904
5737.000000;0.002749
5736.000000;0.002624
5735.000000;0.002542
5734.000000;0.002465
5733.000000;0.002351
5732.000000;0.002217
5731.000000;0.002105
5730.000000;0.002010
5729.000000;0.001886
5728.000000;0.001725
5727.000000;0.001573
5726.000000;0.001469
5725.000000;0.001397
5724.000000;0.001333
5723.000000;0.001266
5722.000000;0.001191
5721.000000;0.001106
5720.000000;0.001027
5719.000000;0.000973
5718.000000;0.000931
5717.000000;0.000867
5716.000000;0.000770
5715.000000;0.000653
5714.000000;0.000517
5713.000000;0.000358
5712.000000;0.000197
5711.000000;0.000071
5710.000000;-0.000006
5709.000000;-0.000062
5708.000000;-0.000123
5707.000000;-0.000207
5706.000000;-0.000332
5705.000000;-0.000503
5704.000000;-0.000685
5703.000000;-0.000840
5702.000000;-0.000967
5701.000000;-0.001084
5700.000000;-0.001174
5699.000000;-0.001225
5698.000000;-0.001249
5697.000000;-0.001351
5696.000000;-0.001500
5695.000000;-0.001660
5694.000000;-0.001839
5693.000000;-0.002014
5692.000000;-0.002172
5691.000000;-0.002290
5690.000000;-0.002379
5689.000000;-0.002461
5688.000000;-0.002534
5687.000000;-0.002588
5686.000000;-0.002644
5685.000000;-0.002737
5684.000000;-0.002859
5683.000000;-0.002973
5682.000000;-0.003071
5681.000000;-0.003180
5680.000000;-0.003318
5679.000000;-0.003480
5678.000000;-0.003666
5677.000000;-0.003868
5676.000000;-0.004050
5675.000000;-0.004173
5674.000000;-0.004254
5673.000000;-0.004336
5672.000000;-0.004428
5671.000000;-0.004509
5670.000000;-0.004587
5669.000000;-0.004691
5668.000000;-0.004821
5667.000000;-0.004954
5666.000000;-0.005090
5665.000000;-0.005248
5664.000000;-0.005423
5663.000000;-0.005584
5662.000000;-0.005726
5661.000000;-0.005863
5660.000000;-0.005983
5659.000000;-0.006068
5658.000000;-0.006138
5657.000000;-0.006231
5656.000000;-0.006341
5655.000000;-0.006434
5654.000000;-0.006510
5653.000000;-0.006606
5652.000000;-0.006728
5651.000000;-0.006842
5650.000000;-0.006939
5649.000000;-0.007039
5648.000000;-0.007149
5647.000000;-0.007255
5646.000000;-0.007362
5645.000000;-0.007490
5644.000000;-0.007627
5643.000000;-0.007741
5642.000000;-0.007837
5641.000000;-0.007950
5640.000000;-0.008077
5639.000000;-0.008185
5638.000000;-0.008274
5637.000000;-0.008392
5636.000000;-0.008559
5635.000000;-0.008741
5634.000000;-0.008906
5633.000000;-0.009055
5632.000000;-0.009201
5631.000000;-0.009349
5630.000000;-0.009513
5629.000000;-0.009701
5628.000000;-0.009878
5627.000000;-0.009993
5626.000000;-0.010048
5625.000000;-0.010097
5624.000000;-0.010176
5623.000000;-0.010276
5622.000000;-0.010386
5621.000000;-0.010510
5620.000000;-0.010642
5619.000000;-0.010768
5618.000000;-0.010900
5617.000000;-0.011062
5616.000000;-0.011244
5615.000000;-0.011409
5614.000000;-0.011554
5613.000000;-0.011699
5612.000000;-0.011835
5611.000000;-0.011925
5610.000000;-0.011972
5609.000000;-0.012034
5608.000000;-0.012153
5607.000000;-0.012319
5606.000000;-0.012490
5605.000000;-0.012631
5604.000000;-0.012722
5603.000000;-0.012774
5602.000000;-0.012848
5601.000000;-0.012996
5600.000000;-0.013207
5599.000000;-0.013419
5598.000000;-0.013588
5597.000000;-0.013710
5596.000000;-0.013789
5595.000000;-0.013838
5594.000000;-0.013898
5593.000000;-0.014000
5592.000000;-0.014119
5591.000000;-0.014217
5590.000000;-0.014312
5589.000000;-0.014453
5588.000000;-0.014647
5587.000000;-0.014853
5586.000000;-0.015038
5585.000000;-0.015191
5584.000000;-0.015293
5583.000000;-0.015340
5582.000000;-0.015382
5581.000000;-0.015473
5580.000000;-0.015605
5579.000000;-0.015737
5578.000000;-0.015874
5577.000000;-0.016049
5576.000000;-0.016245
5575.000000;-0.016415
5574.000000;-0.016559
5573.000000;-0.016714
5572.000000;-0.016875
5571.000000;-0.017004
5570.000000;-0.017115
5569.000000;-0.017262
5568.000000;-0.017436
5567.000000;-0.017566
5566.000000;-0.017640
5565.000000;-0.017725
5564.000000;-0.017860
5563.000000;-0.018014
5562.000000;-0.018161
5561.000000;-0.018318
5560.000000;-0.018489
5559.000000;-0.018637
5558.000000;-0.018760
5557.000000;-0.018913
5556.000000;-0.019130
5555.000000;-0.019363
5554.000000;-0.019550
5553.000000;-0.019677
5552.000000;-0.019775
5551.000000;-0.019871
5550.000000;-0.019983
5549.000000;-0.020123
5548.000000;-0.020271
5547.000000;-0.020405
5546.000000;-0.020538
5545.000000;-0.020694
5544.000000;-0.020852
5543.000000;-0.020963
5542.000000;-0.021028
5541.000000;-0.021093
5540.000000;-0.021172
5539.000000;-0.021239
5538.000000;-0.021316
5537.000000;-0.021476
5536.000000;-0.021731
5535.000000;-0.021988
5534.000000;-0.022166
5533.000000;-0.022281
5532.000000;-0.022401
5531.000000;-0.022549
5530.000000;-0.022701
5529.000000;-0.022835
5528.000000;-0.022947
5527.000000;-0.023060
5526.000000;-0.023223
5525.000000;-0.023446
5524.000000;-0.023667
5523.000000;-0.023822
5522.000000;-0.023931
5521.000000;-0.024074
5520.000000;-0.024255
5519.000000;-0.024399
5518.000000;-0.024493
5517.000000;-0.024625
5516.000000;-0.024850
5515.000000;-0.025107
5514.000000;-0.025287
5513.000000;-0.025375
5512.000000;-0.025451
5511.000000;-0.025575
5510.000000;-0.025731
5509.000000;-0.025886
5508.000000;-0.026044
5507.000000;-0.026244
5506.000000;-0.026477
5505.000000;-0.026648
5504.000000;-0.026717
5503.000000;-0.026804
5502.000000;-0.027044
5501.000000;-0.027400
5500.000000;-0.027652
5499.000000;-0.027680
5498.000000;-0.027669
5497.000000;-0.027832
5496.000000;-0.028064
5495.000000;-0.028105
5494.000000;-0.027965
5493.000000;-0.027957
5492.000000;-0.028247
5491.000000;-0.028583
5490.000000;-0.028676
5489.000000;-0.028627
5488.000000;-0.028746
5487.000000;-0.029109
5486.000000;-0.029509
5485.000000;-0.029750
5484.000000;-0.029881
5483.000000;-0.030041
5482.000000;-0.030186
5481.000000;-0.030241
5480.000000;-0.030316
5479.000000;-0.030544
5478.000000;-0.030822
5477.000000;-0.030898
5476.000000;-0.030739
5475.000000;-0.030693
5474.000000;-0.031014
5473.000000;-0.031452
5472.000000;-0.031637
5471.000000;-0.031620
5470.000000;-0.031737
5469.000000;-0.032098
5468.000000;-0.032436
5467.000000;-0.032520
5466.000000;-0.032517
5465.000000;-0.032675
5464.000000;-0.032937
5463.000000;-0.033122
5462.000000;-0.033195
5461.000000;-0.033269
5460.000000;-0.033435
5459.000000;-0.033674
5458.000000;-0.033912
5457.000000;-0.034092
5456.000000;-0.034190
5455.000000;-0.034300
5454.000000;-0.034582
5453.000000;-0.034946
5452.000000;-0.035089
5451.000000;-0.034950
5450.000000;-0.034868
5449.000000;-0.035110
5448.000000;-0.035411
5447.000000;-0.035342
5446.000000;-0.035089
5445.000000;-0.035219
5444.000000;-0.035772
5443.000000;-0.036202
5442.000000;-0.036179
5441.000000;-0.035990
5440.000000;-0.036142
5439.000000;-0.036666
5438.000000;-0.037110
5437.000000;-0.037165
5436.000000;-0.036966
5435.000000;-0.036881
5434.000000;-0.037199
5433.000000;-0.037794
5432.000000;-0.038219
5431.000000;-0.038236
5430.000000;-0.038076
5429.000000;-0.038160
5428.000000;-0.038624
5427.000000;-0.039189
5426.000000;-0.039562
5425.000000;-0.039741
5424.000000;-0.039907
5423.000000;-0.040206
5422.000000;-0.040634
5421.000000;-0.040946
5420.000000;-0.040926
5419.000000;-0.040747
5418.000000;-0.040757
5417.000000;-0.040942
5416.000000;-0.040920
5415.000000;-0.040559
5414.000000;-0.040307
5413.000000;-0.040561
5412.000000;-0.041033
5411.000000;-0.041235
5410.000000;-0.041261
5409.000000;-0.041579
5408.000000;-0.042223
5407.000000;-0.042776
5406.000000;-0.043033
5405.000000;-0.043254
5404.000000;-0.043641
5403.000000;-0.043979
5402.000000;-0.044124
5401.000000;-0.044236
5400.000000;-0.044326
5399.000000;-0.044277
5398.000000;-0.044187
5397.000000;-0.044298
5396.000000;-0.044575
5395.000000;-0.044681
5394.000000;-0.044584
5393.000000;-0.044662
5392.000000;-0.045039
5391.000000;-0.045379
5390.000000;-0.045499
5389.000000;-0.045639
5388.000000;-0.045993
5387.000000;-0.046341
5386.000000;-0.046465
5385.000000;-0.046603
5384.000000;-0.046941
5383.000000;-0.047132
5382.000000;-0.046982
5381.000000;-0.046908
5380.000000;-0.047224
5379.000000;-0.047603
5378.000000;-0.047618
5377.000000;-0.047496
5376.000000;-0.047736
5375.000000;-0.048211
5374.000000;-0.048425
5373.000000;-0.048409
5372.000000;-0.048616
5371.000000;-0.049130
5370.000000;-0.049572
5369.000000;-0.049774
5368.000000;-0.049999
5367.000000;-0.050348
5366.000000;-0.050555
5365.000000;-0.050554
5364.000000;-0.050642
5363.000000;-0.050937
5362.000000;-0.051235
5361.000000;-0.051370
5360.000000;-0.051407
5359.000000;-0.051454
5358.000000;-0.051533
5357.000000;-0.051670
5356.000000;-0.051866
5355.000000;-0.051945
5354.000000;-0.051799
5353.000000;-0.051723
5352.000000;-0.052010
5351.000000;-0.052295
5350.000000;-0.052106
5349.000000;-0.051760
5348.000000;-0.051919
5347.000000;-0.052495
5346.000000;-0.052693
5345.000000;-0.052250
5344.000000;-0.051940
5343.000000;-0.052331
5342.000000;-0.052844
5341.000000;-0.052788
5340.000000;-0.052446
5339.000000;-0.052511
5338.000000;-0.053073
5337.000000;-0.053648
5336.000000;-0.053990
5335.000000;-0.054231
5334.000000;-0.054386
5333.000000;-0.054431
5332.000000;-0.054637
5331.000000;-0.055159
5330.000000;-0.055639
5329.000000;-0.055679
5328.000000;-0.055458
5327.000000;-0.055528
5326.000000;-0.056005
5325.000000;-0.056429
5324.000000;-0.056538
5323.000000;-0.056580
5322.000000;-0.056792
5321.000000;-0.057107
5320.000000;-0.057393
5319.000000;-0.057644
5318.000000;-0.057868
5317.000000;-0.058010
5316.000000;-0.058074
5315.000000;-0.058162
5314.000000;-0.058260
5313.000000;-0.058281
5312.000000;-0.058313
5311.000000;-0.058498
5310.000000;-0.058748
5309.000000;-0.058839
5308.000000;-0.058784
5307.000000;-0.058846
5306.000000;-0.059116
5305.000000;-0.059383
5304.000000;-0.059503
5303.000000;-0.059614
5302.000000;-0.059849
5301.000000;-0.060107
5300.000000;-0.060226
5299.000000;-0.060262
5298.000000;-0.060383
5297.000000;-0.060541
5296.000000;-0.060578
5295.000000;-0.060567
5294.000000;-0.060689
5293.000000;-0.060911
5292.000000;-0.061003
5291.000000;-0.060890
5290.000000;-0.060823
5289.000000;-0.061018
5288.000000;-0.061319
5287.000000;-0.061430
5286.000000;-0.061355
5285.000000;-0.061394
5284.000000;-0.061695
5283.000000;-0.062050
5282.000000;-0.062223
5281.000000;-0.062285
5280.000000;-0.062440
5279.000000;-0.062695
5278.000000;-0.062904
5277.000000;-0.063026
5276.000000;-0.063117
5275.000000;-0.063211
5274.000000;-0.063280
5273.000000;-0.063329
5272.000000;-0.063413
5271.000000;-0.063461
5270.000000;-0.063349
5269.000000;-0.063184
5268.000000;-0.063185
5267.000000;-0.063293
5266.000000;-0.063239
5265.000000;-0.062997
5264.000000;-0.062883
5263.000000;-0.063126
5262.000000;-0.063509
5261.000000;-0.063691
5260.000000;-0.063723
5259.000000;-0.063902
5258.000000;-0.064243
5257.000000;-0.064484
5256.000000;-0.064499
5255.000000;-0.064463
5254.000000;-0.064565
5253.000000;-0.064761
5252.000000;-0.064911
5251.000000;-0.064924
5250.000000;-0.064777
5249.000000;-0.064622
5248.000000;-0.064703
5247.000000;-0.065038
5246.000000;-0.065331
5245.000000;-0.065336
5244.000000;-0.065248
5243.000000;-0.065501
5242.000000;-0.066130
5241.000000;-0.066652
5240.000000;-0.066761
5239.000000;-0.066732
5238.000000;-0.066898
5237.000000;-0.067130
5236.000000;-0.067172
5235.000000;-0.067109
5234.000000;-0.067183
5233.000000;-0.067350
5232.000000;-0.067351
5231.000000;-0.067208
5230.000000;-0.067234
5229.000000;-0.067487
5228.000000;-0.067629
5227.000000;-0.067473
5226.000000;-0.067281
5225.000000;-0.067353
5224.000000;-0.067614
5223.000000;-0.067820
5222.000000;-0.067951
5221.000000;-0.068138
5220.000000;-0.068401
5219.000000;-0.068673
5218.000000;-0.068923
5217.000000;-0.069153
5216.000000;-0.069316
5215.000000;-0.069358
5214.000000;-0.069364
5213.000000;-0.069433
5212.000000;-0.069490
5211.000000;-0.069437
5210.000000;-0.069322
5209.000000;-0.069221
5208.000000;-0.069096
5207.000000;-0.068932
5206.000000;-0.068902
5205.000000;-0.069175
5204.000000;-0.069604
5203.000000;-0.069874
5202.000000;-0.069957
5201.000000;-0.070102
5200.000000;-0.070399
5199.000000;-0.070620
5198.000000;-0.070608
5197.000000;-0.070569
5196.000000;-0.070739
5195.000000;-0.070994
5194.000000;-0.071108
5193.000000;-0.071117
5192.000000;-0.071188
5191.000000;-0.071325
5190.000000;-0.071415
5189.000000;-0.071485
5188.000000;-0.071632
5187.000000;-0.071760
5186.000000;-0.071698
5185.000000;-0.071553
5184.000000;-0.071629
5183.000000;-0.071952
5182.000000;-0.072222
5181.000000;-0.072273
5180.000000;-0.072279
5179.000000;-0.072417
5178.000000;-0.072595
5177.000000;-0.072672
5176.000000;-0.072718
5175.000000;-0.072863
5174.000000;-0.073048
5173.000000;-0.073140
5172.000000;-0.073161
5171.000000;-0.073214
5170.000000;-0.073312
5169.000000;-0.073414
5168.000000;-0.073551
5167.000000;-0.073743
5166.000000;-0.073900
5165.000000;-0.073934
5164.000000;-0.073912
5163.000000;-0.073943
5162.000000;-0.073995
5161.000000;-0.073977
5160.000000;-0.073925
5159.000000;-0.073946
5158.000000;-0.074036
5157.000000;-0.074099
5156.000000;-0.074126
5155.000000;-0.074207
5154.000000;-0.074353
5153.000000;-0.074476
5152.000000;-0.074556
5151.000000;-0.074677
5150.000000;-0.074869
5149.000000;-0.075036
5148.000000;-0.075095
5147.000000;-0.075090
5146.000000;-0.075123
5145.000000;-0.075232
5144.000000;-0.075364
5143.000000;-0.075455
5142.000000;-0.075496
5141.000000;-0.075530
5140.000000;-0.075612
5139.000000;-0.075752
5138.000000;-0.075912
5137.000000;-0.076072
5136.000000;-0.076239
5135.000000;-0.076408
5134.000000;-0.076529
5133.000000;-0.076576
5132.000000;-0.076583
5131.000000;-0.076585
5130.000000;-0.076573
5129.000000;-0.076548
5128.000000;-0.076565
5127.000000;-0.076657
5126.000000;-0.076759
5125.000000;-0.076793
5124.000000;-0.076778
5123.000000;-0.076797
5122.000000;-0.076881
5121.000000;-0.076994
5120.000000;-0.077112
5119.000000;-0.077237
5118.000000;-0.077360
5117.000000;-0.077469
5116.000000;-0.077579
5115.000000;-0.077712
5114.000000;-0.077844
5113.000000;-0.077951
5112.000000;-0.078053
5111.000000;-0.078183
5110.000000;-0.078317
5109.000000;-0.078403
5108.000000;-0.078446
5107.000000;-0.078499
5106.000000;-0.078581
5105.000000;-0.078670
5104.000000;-0.078760
5103.000000;-0.078862
5102.000000;-0.078967
5101.000000;-0.079051
5100.000000;-0.079122
5099.000000;-0.079215
5098.000000;-0.079332
5097.000000;-0.079434
5096.000000;-0.079492
5095.000000;-0.079505
5094.000000;-0.079483
5093.000000;-0.079449
5092.000000;-0.079446
5091.000000;-0.079498
5090.000000;-0.079581
5089.000000;-0.079654
5088.000000;-0.079706
5087.000000;-0.079744
5086.000000;-0.079760
5085.000000;-0.079753
5084.000000;-0.079770
5083.000000;-0.079864
5082.000000;-0.080021
5081.000000;-0.080175
5080.000000;-0.080284
5079.000000;-0.080356
5078.000000;-0.080424
5077.000000;-0.080523
5076.000000;-0.080672
5075.000000;-0.080850
5074.000000;-0.080989
5073.000000;-0.081047
5072.000000;-0.081056
5071.000000;-0.081083
5070.000000;-0.081144
5069.000000;-0.081215
5068.000000;-0.081289
5067.000000;-0.081384
5066.000000;-0.081494
5065.000000;-0.081587
5064.000000;-0.081649
5063.000000;-0.081681
5062.000000;-0.081689
5061.000000;-0.081689
5060.000000;-0.081720
5059.000000;-0.081804
5058.000000;-0.081909
5057.000000;-0.081984
5056.000000;-0.082018
5055.000000;-0.082028
5054.000000;-0.082026
5053.000000;-0.082027
5052.000000;-0.082072
5051.000000;-0.082190
5050.000000;-0.082350
5049.000000;-0.082486
5048.000000;-0.082577
5047.000000;-0.082640
5046.000000;-0.082694
5045.000000;-0.082751
5044.000000;-0.082840
5043.000000;-0.082971
5042.000000;-0.083098
5041.000000;-0.083166
5040.000000;-0.083189
5039.000000;-0.083229
5038.000000;-0.083313
5037.000000;-0.083414
5036.000000;-0.083504
5035.000000;-0.083582
5034.000000;-0.083643
5033.000000;-0.083676
5032.000000;-0.083699
5031.000000;-0.083752
5030.000000;-0.083848
5029.000000;-0.083965
5028.000000;-0.084078
5027.000000;-0.084179
5026.000000;-0.084254
5025.000000;-0.084292
5024.000000;-0.084298
5023.000000;-0.084303
5022.000000;-0.084328
5021.000000;-0.084381
5020.000000;-0.084470
5019.000000;-0.084590
5018.000000;-0.084713
5017.000000;-0.084811
5016.000000;-0.084892
5015.000000;-0.084984
5014.000000;-0.085093
5013.000000;-0.085205
5012.000000;-0.085307
5011.000000;-0.085391
5010.000000;-0.085446
5009.000000;-0.085462
5008.000000;-0.085455
5007.000000;-0.085453
5006.000000;-0.085479
5005.000000;-0.085540
5004.000000;-0.085636
5003.000000;-0.085739
5002.000000;-0.085809
5001.000000;-0.085818
5000.000000;-0.085831
4999.000000;-0.085881
4998.000000;-0.085964
4997.000000;-0.086059
4996.000000;-0.086151
4995.000000;-0.086231
4994.000000;-0.086278
4993.000000;-0.086289
4992.000000;-0.086299
4991.000000;-0.086354
4990.000000;-0.086453
4989.000000;-0.086563
4988.000000;-0.086670
4987.000000;-0.086784
4986.000000;-0.086905
4985.000000;-0.087030
4984.000000;-0.087169
4983.000000;-0.087320
4982.000000;-0.087450
4981.000000;-0.087525
4980.000000;-0.087560
4979.000000;-0.087603
4978.000000;-0.087679
4977.000000;-0.087778
4976.000000;-0.087882
4975.000000;-0.087979
4974.000000;-0.088057
4973.000000;-0.088112
4972.000000;-0.088160
4971.000000;-0.088215
4970.000000;-0.088263
4969.000000;-0.088299
4968.000000;-0.088346
4967.000000;-0.088429
4966.000000;-0.088527
4965.000000;-0.088604
4964.000000;-0.088656
4963.000000;-0.088707
4962.000000;-0.088771
4961.000000;-0.088852
4960.000000;-0.088966
4959.000000;-0.089117
4958.000000;-0.089265
4957.000000;-0.089365
4956.000000;-0.089426
4955.000000;-0.089495
4954.000000;-0.089596
4953.000000;-0.089710
4952.000000;-0.089816
4951.000000;-0.089907
4950.000000;-0.089968
4949.000000;-0.089990
4948.000000;-0.089989
4947.000000;-0.090001
4946.000000;-0.090041
4945.000000;-0.090113
4944.000000;-0.090222
4943.000000;-0.090370
4942.000000;-0.090532
4941.000000;-0.090672
4940.000000;-0.090788
4939.000000;-0.090897
4938.000000;-0.090998
4937.000000;-0.091077
4936.000000;-0.091136
4935.000000;-0.091195
4934.000000;-0.091267
4933.000000;-0.091348
4932.000000;-0.091439
4931.000000;-0.091548
4930.000000;-0.091666
4929.000000;-0.091784
4928.000000;-0.091906
4927.000000;-0.092031
4926.000000;-0.092133
4925.000000;-0.092196
4924.000000;-0.092253
4923.000000;-0.092361
4922.000000;-0.092527
4921.000000;-0.092702
4920.000000;-0.092835
4919.000000;-0.092917
4918.000000;-0.092964
4917.000000;-0.093001
4916.000000;-0.093061
4915.000000;-0.093163
4914.000000;-0.093298
4913.000000;-0.093437
4912.000000;-0.093569
4911.000000;-0.093684
4910.000000;-0.093764
4909.000000;-0.093802
4908.000000;-0.093839
4907.000000;-0.093928
4906.000000;-0.094074
4905.000000;-0.094234
4904.000000;-0.094373
4903.000000;-0.094492
4902.000000;-0.094611
4901.000000;-0.094740
4900.000000;-0.094884
4899.000000;-0.095036
4898.000000;-0.095165
4897.000000;-0.095250
4896.000000;-0.095307
4895.000000;-0.095371
4894.000000;-0.095452
4893.000000;-0.095533
4892.000000;-0.095611
4891.000000;-0.095713
4890.000000;-0.095852
4889.000000;-0.096018
4888.000000;-0.096193
4887.000000;-0.096363
4886.000000;-0.096514
4885.000000;-0.096634
4884.000000;-0.096732
4883.000000;-0.096830
4882.000000;-0.096931
4881.000000;-0.097025
4880.000000;-0.097106
4879.000000;-0.097180
4878.000000;-0.097248
4877.000000;-0.097312
4876.000000;-0.097389
4875.000000;-0.097488
4874.000000;-0.097591
4873.000000;-0.097669
4872.000000;-0.097721
4871.000000;-0.097773
4870.000000;-0.097848
4869.000000;-0.097949
4868.000000;-0.098079
4867.000000;-0.098236
4866.000000;-0.098394
4865.000000;-0.098514
4864.000000;-0.098590
4863.000000;-0.098654
4862.000000;-0.098742
4861.000000;-0.098864
4860.000000;-0.099011
4859.000000;-0.099158
4858.000000;-0.099280
4857.000000;-0.099365
4856.000000;-0.099440
4855.000000;-0.099537
4854.000000;-0.099668
4853.000000;-0.099822
4852.000000;-0.099984
4851.000000;-0.100135
4850.000000;-0.100237
4849.000000;-0.100263
4848.000000;-0.100246
4847.000000;-0.100253
4846.000000;-0.100325
4845.000000;-0.100442
4844.000000;-0.100563
4843.000000;-0.100661
4842.000000;-0.100731
4841.000000;-0.100787
4840.000000;-0.100860
4839.000000;-0.100971
4838.000000;-0.101116
4837.000000;-0.101270
4836.000000;-0.101418
4835.000000;-0.101556
4834.000000;-0.101671
4833.000000;-0.101750
4832.000000;-0.101804
4831.000000;-0.101869
4830.000000;-0.101972
4829.000000;-0.102113
4828.000000;-0.102264
4827.000000;-0.102392
4826.000000;-0.102478
4825.000000;-0.102543
4824.000000;-0.102639
4823.000000;-0.102794
4822.000000;-0.102975
4821.000000;-0.103125
4820.000000;-0.103228
4819.000000;-0.103308
4818.000000;-0.103380
4817.000000;-0.103433
4816.000000;-0.103473
4815.000000;-0.103533
4814.000000;-0.103639
4813.000000;-0.103783
4812.000000;-0.103929
4811.000000;-0.104041
4810.000000;-0.104099
4809.000000;-0.104110
4808.000000;-0.104120
4807.000000;-0.104177
4806.000000;-0.104291
4805.000000;-0.104427
4804.000000;-0.104544
4803.000000;-0.104627
4802.000000;-0.104680
4801.000000;-0.104719
4800.000000;-0.104777
4799.000000;-0.104882
4798.000000;-0.105035
4797.000000;-0.105195
4796.000000;-0.105318
4795.000000;-0.105385
4794.000000;-0.105425
4793.000000;-0.105489
4792.000000;-0.105619
4791.000000;-0.105802
4790.000000;-0.105977
4789.000000;-0.106089
4788.000000;-0.106140
4787.000000;-0.106186
4786.000000;-0.106289
4785.000000;-0.106469
4784.000000;-0.106678
4783.000000;-0.106832
4782.000000;-0.106869
4781.000000;-0.106812
4780.000000;-0.106746
4779.000000;-0.106744
4778.000000;-0.106807
4777.000000;-0.106906
4776.000000;-0.107031
4775.000000;-0.107177
4774.000000;-0.107305
4773.000000;-0.107367
4772.000000;-0.107364
4771.000000;-0.107349
4770.000000;-0.107376
4769.000000;-0.107465
4768.000000;-0.107605
4767.000000;-0.107762
4766.000000;-0.107886
4765.000000;-0.107946
4764.000000;-0.107956
4763.000000;-0.107956
4762.000000;-0.107975
4761.000000;-0.108016
4760.000000;-0.108083
4759.000000;-0.108178
4758.000000;-0.108286
4757.000000;-0.108390
4756.000000;-0.108490
4755.000000;-0.108599
4754.000000;-0.108706
4753.000000;-0.108791
4752.000000;-0.108864
4751.000000;-0.108954
4750.000000;-0.109062
4749.000000;-0.109149
4748.000000;-0.109186
4747.000000;-0.109200
4746.000000;-0.109252
4745.000000;-0.109381
4744.000000;-0.109575
4743.000000;-0.109773
4742.000000;-0.109910
4741.000000;-0.109960
4740.000000;-0.109955
4739.000000;-0.109951
4738.000000;-0.109984
4737.000000;-0.110056
4736.000000;-0.110156
4735.000000;-0.110267
4734.000000;-0.110366
4733.000000;-0.110438
4732.000000;-0.110497
4731.000000;-0.110562
4730.000000;-0.110640
4729.000000;-0.110721
4728.000000;-0.110801
4727.000000;-0.110886
4726.000000;-0.110977
4725.000000;-0.111069
4724.000000;-0.111173
4723.000000;-0.111302
4722.000000;-0.111449
4721.000000;-0.111576
4720.000000;-0.111654
4719.000000;-0.111682
4718.000000;-0.111689
4717.000000;-0.111713
4716.000000;-0.111780
4715.000000;-0.111890
4714.000000;-0.112013
4713.000000;-0.112115
4712.000000;-0.112175
4711.000000;-0.112187
4710.000000;-0.112162
4709.000000;-0.112130
4708.000000;-0.112134
4707.000000;-0.112188
4706.000000;-0.112270
4705.000000;-0.112339
4704.000000;-0.112372
4703.000000;-0.112365
4702.000000;-0.112336
4701.000000;-0.112339
4700.000000;-0.112433
4699.000000;-0.112622
4698.000000;-0.112826
4697.000000;-0.112948
4696.000000;-0.112972
4695.000000;-0.112957
4694.000000;-0.112968
4693.000000;-0.113024
4692.000000;-0.113111
4691.000000;-0.113215
4690.000000;-0.113332
4689.000000;-0.113459
4688.000000;-0.113581
4687.000000;-0.113663
4686.000000;-0.113679
4685.000000;-0.113657
4684.000000;-0.113665
4683.000000;-0.113736
4682.000000;-0.113812
4681.000000;-0.113808
4680.000000;-0.113709
4679.000000;-0.113585
4678.000000;-0.113510
4677.000000;-0.113512
4676.000000;-0.113578
4675.000000;-0.113680
4674.000000;-0.113782
4673.000000;-0.113858
4672.000000;-0.113909
4671.000000;-0.113949
4670.000000;-0.113986
4669.000000;-0.114028
4668.000000;-0.114094
4667.000000;-0.114191
4666.000000;-0.114287
4665.000000;-0.114337
4664.000000;-0.114335
4663.000000;-0.114315
4662.000000;-0.114302
4661.000000;-0.114292
4660.000000;-0.114281
4659.000000;-0.114276
4658.000000;-0.114267
4657.000000;-0.114240
4656.000000;-0.114201
4655.000000;-0.114186
4654.000000;-0.114217
4653.000000;-0.114275
4652.000000;-0.114333
4651.000000;-0.114374
4650.000000;-0.114382
4649.000000;-0.114339
4648.000000;-0.114259
4647.000000;-0.114193
4646.000000;-0.114186
4645.000000;-0.114240
4644.000000;-0.114312
4643.000000;-0.114355
4642.000000;-0.114332
4641.000000;-0.114234
4640.000000;-0.114089
4639.000000;-0.113951
4638.000000;-0.113865
4637.000000;-0.113839
4636.000000;-0.113861
4635.000000;-0.113912
4634.000000;-0.113977
4633.000000;-0.114035
4632.000000;-0.114071
4631.000000;-0.114079
4630.000000;-0.114066
4629.000000;-0.114043
4628.000000;-0.114011
4627.000000;-0.113962
4626.000000;-0.113886
4625.000000;-0.113794
4624.000000;-0.113718
4623.000000;-0.113682
4622.000000;-0.113682
4621.000000;-0.113692
4620.000000;-0.113696
4619.000000;-0.113682
4618.000000;-0.113635
4617.000000;-0.113547
4616.000000;-0.113434
4615.000000;-0.113326
4614.000000;-0.113241
4613.000000;-0.113179
4612.000000;-0.113134
4611.000000;-0.113086
4610.000000;-0.113000
4609.000000;-0.112854
4608.000000;-0.112670
4607.000000;-0.112496
4606.000000;-0.112358
4605.000000;-0.112247
4604.000000;-0.112147
4603.000000;-0.112058
4602.000000;-0.111982
4601.000000;-0.111905
4600.000000;-0.111812
4599.000000;-0.111697
4598.000000;-0.111568
4597.000000;-0.111428
4596.000000;-0.111278
4595.000000;-0.111114
4594.000000;-0.110943
4593.000000;-0.110780
4592.000000;-0.110641
4591.000000;-0.110530
4590.000000;-0.110436
4589.000000;-0.110359
4588.000000;-0.110308
4587.000000;-0.110272
4586.000000;-0.110214
4585.000000;-0.110099
4584.000000;-0.109938
4583.000000;-0.109761
4582.000000;-0.109573
4581.000000;-0.109343
4580.000000;-0.109046
4579.000000;-0.108690
4578.000000;-0.108306
4577.000000;-0.107934
4576.000000;-0.107608
4575.000000;-0.107348
4574.000000;-0.107139
4573.000000;-0.106944
4572.000000;-0.106715
4571.000000;-0.106415
4570.000000;-0.106038
4569.000000;-0.105620
4568.000000;-0.105217
4567.000000;-0.104851
4566.000000;-0.104502
4565.000000;-0.104149
4564.000000;-0.103798
4563.000000;-0.103456
4562.000000;-0.103100
4561.000000;-0.102716
4560.000000;-0.102317
4559.000000;-0.101916
4558.000000;-0.101483
4557.000000;-0.100985
4556.000000;-0.100456
4555.000000;-0.099973
4554.000000;-0.099568
4553.000000;-0.099198
4552.000000;-0.098807
4551.000000;-0.098366
4550.000000;-0.097869
4549.000000;-0.097307
4548.000000;-0.096683
4547.000000;-0.096034
4546.000000;-0.095407
4545.000000;-0.094829
4544.000000;-0.094292
4543.000000;-0.093764
4542.000000;-0.093202
4541.000000;-0.092586
4540.000000;-0.091951
4539.000000;-0.091362
4538.000000;-0.090854
4537.000000;-0.090409
4536.000000;-0.089976
4535.000000;-0.089519
4534.000000;-0.089038
4533.000000;-0.088569
4532.000000;-0.088153
4531.000000;-0.087795
4530.000000;-0.087462
4529.000000;-0.087113
4528.000000;-0.086746
4527.000000;-0.086382
4526.000000;-0.086031
4525.000000;-0.085690
4524.000000;-0.085372
4523.000000;-0.085099
4522.000000;-0.084869
4521.000000;-0.084659
4520.000000;-0.084448
4519.000000;-0.084229
4518.000000;-0.083987
4517.000000;-0.083708
4516.000000;-0.083412
4515.000000;-0.083152
4514.000000;-0.082962
4513.000000;-0.082819
4512.000000;-0.082648
4511.000000;-0.082371
4510.000000;-0.081975
4509.000000;-0.081538
4508.000000;-0.081188
4507.000000;-0.080995
4506.000000;-0.080914
4505.000000;-0.080843
4504.000000;-0.080719
4503.000000;-0.080540
4502.000000;-0.080328
4501.000000;-0.080100
4500.000000;-0.079883
4499.000000;-0.079695
4498.000000;-0.079514
4497.000000;-0.079291
4496.000000;-0.079004
4495.000000;-0.078678
4494.000000;-0.078339
4493.000000;-0.077997
4492.000000;-0.077666
4491.000000;-0.077382
4490.000000;-0.077166
4489.000000;-0.076989
4488.000000;-0.076792
4487.000000;-0.076530
4486.000000;-0.076197
4485.000000;-0.075825
4484.000000;-0.075465
4483.000000;-0.075148
4482.000000;-0.074858
4481.000000;-0.074553
4480.000000;-0.074215
4479.000000;-0.073862
4478.000000;-0.073513
4477.000000;-0.073164
4476.000000;-0.072796
4475.000000;-0.072406
4474.000000;-0.071997
4473.000000;-0.071580
4472.000000;-0.071169
4471.000000;-0.070774
4470.000000;-0.070389
4469.000000;-0.070004
4468.000000;-0.069620
4467.000000;-0.069236
4466.000000;-0.068829
4465.000000;-0.068382
4464.000000;-0.067919
4463.000000;-0.067484
4462.000000;-0.067074
4461.000000;-0.066633
4460.000000;-0.066131
4459.000000;-0.065609
4458.000000;-0.065130
4457.000000;-0.064694
4456.000000;-0.064247
4455.000000;-0.063751
4454.000000;-0.063239
4453.000000;-0.062787
4452.000000;-0.062439
4451.000000;-0.062162
4450.000000;-0.061854
4449.000000;-0.061422
4448.000000;-0.060846
4447.000000;-0.060191
4446.000000;-0.059540
4445.000000;-0.058941
4444.000000;-0.058397
4443.000000;-0.057893
4442.000000;-0.057412
4441.000000;-0.056930
4440.000000;-0.056424
4439.000000;-0.055878
4438.000000;-0.055305
4437.000000;-0.054742
4436.000000;-0.054229
4435.000000;-0.053767
4434.000000;-0.053307
4433.000000;-0.052796
4432.000000;-0.052221
4431.000000;-0.051612
4430.000000;-0.051013
4429.000000;-0.050455
4428.000000;-0.049946
4427.000000;-0.049460
4426.000000;-0.048942
4425.000000;-0.048349
4424.000000;-0.047687
4423.000000;-0.047013
4422.000000;-0.046384
4421.000000;-0.045820
4420.000000;-0.045289
4419.000000;-0.044732
4418.000000;-0.044107
4417.000000;-0.043434
4416.000000;-0.042765
4415.000000;-0.042126
4414.000000;-0.041481
4413.000000;-0.040787
4412.000000;-0.040055
4411.000000;-0.039329
4410.000000;-0.038627
4409.000000;-0.037926
4408.000000;-0.037204
4407.000000;-0.036463
4406.000000;-0.035713
4405.000000;-0.034967
4404.000000;-0.034249
4403.000000;-0.033575
4402.000000;-0.032926
4401.000000;-0.032261
4400.000000;-0.031555
4399.000000;-0.030816
4398.000000;-0.030071
4397.000000;-0.029337
4396.000000;-0.028608
4395.000000;-0.027843
4394.000000;-0.026998
4393.000000;-0.026074
4392.000000;-0.025142
4391.000000;-0.024291
4390.000000;-0.023542
4389.000000;-0.022840
4388.000000;-0.022113
4387.000000;-0.021320
4386.000000;-0.020444
4385.000000;-0.019487
4384.000000;-0.018471
4383.000000;-0.017442
4382.000000;-0.016444
4381.000000;-0.015498
4380.000000;-0.014589
4379.000000;-0.013672
4378.000000;-0.012694
4377.000000;-0.011637
4376.000000;-0.010540
4375.000000;-0.009467
4374.000000;-0.008455
4373.000000;-0.007508
4372.000000;-0.006606
4371.000000;-0.005700
4370.000000;-0.004720
4369.000000;-0.003628
4368.000000;-0.002466
4367.000000;-0.001322
4366.000000;-0.000248
4365.000000;0.000770
4364.000000;0.001774
4363.000000;0.002808
4362.000000;0.003908
4361.000000;0.005083
4360.000000;0.006288
4359.000000;0.007448
4358.000000;0.008533
4357.000000;0.009584
4356.000000;0.010682
4355.000000;0.011890
4354.000000;0.013224
4353.000000;0.014638
4352.000000;0.016045
4351.000000;0.017369
4350.000000;0.018609
4349.000000;0.019832
4348.000000;0.021119
4347.000000;0.022504
4346.000000;0.023961
4345.000000;0.025416
4344.000000;0.026774
4343.000000;0.027986
4342.000000;0.029097
4341.000000;0.030215
4340.000000;0.031443
4339.000000;0.032826
4338.000000;0.034335
4337.000000;0.035884
4336.000000;0.037383
4335.000000;0.038813
4334.000000;0.040225
4333.000000;0.041668
4332.000000;0.043129
4331.000000;0.044582
4330.000000;0.046044
4329.000000;0.047544
4328.000000;0.049041
4327.000000;0.050462
4326.000000;0.051798
4325.000000;0.053117
4324.000000;0.054482
4323.000000;0.055911
4322.000000;0.057407
4321.000000;0.058978
4320.000000;0.060603
4319.000000;0.062225
4318.000000;0.063798
4317.000000;0.065310
4316.000000;0.066779
4315.000000;0.068247
4314.000000;0.069766
4313.000000;0.071344
4312.000000;0.072900
4311.000000;0.074357
4310.000000;0.075769
4309.000000;0.077297
4308.000000;0.079046
4307.000000;0.080955
4306.000000;0.082873
4305.000000;0.084683
4304.000000;0.086332
4303.000000;0.087814
4302.000000;0.089198
4301.000000;0.090619
4300.000000;0.092200
4299.000000;0.093964
4298.000000;0.095838
4297.000000;0.097719
4296.000000;0.099535
4295.000000;0.101271
4294.000000;0.102978
4293.000000;0.104735
4292.000000;0.106596
4291.000000;0.108552
4290.000000;0.110559
4289.000000;0.112567
4288.000000;0.114524
4287.000000;0.116393
4286.000000;0.118184
4285.000000;0.119944
4284.000000;0.121728
4283.000000;0.123573
4282.000000;0.125486
4281.000000;0.127427
4280.000000;0.129307
4279.000000;0.131071
4278.000000;0.132782
4277.000000;0.134585
4276.000000;0.136570
4275.000000;0.138704
4274.000000;0.140887
4273.000000;0.143019
4272.000000;0.145020
4271.000000;0.146866
4270.000000;0.148635
4269.000000;0.150479
4268.000000;0.152510
4267.000000;0.154716
4266.000000;0.157002
4265.000000;0.159261
4264.000000;0.161405
4263.000000;0.163393
4262.000000;0.165279
4261.000000;0.167196
4260.000000;0.169240
4259.000000;0.171395
4258.000000;0.173585
4257.000000;0.175760
4256.000000;0.177912
4255.000000;0.180051
4254.000000;0.182209
4253.000000;0.184427
4252.000000;0.186711
4251.000000;0.189007
4250.000000;0.191275
4249.000000;0.193514
4248.000000;0.195726
4247.000000;0.197881
4246.000000;0.199994
4245.000000;0.202175
4244.000000;0.204536
4243.000000;0.207040
4242.000000;0.209516
4241.000000;0.211829
4240.000000;0.213989
4239.000000;0.216100
4238.000000;0.218269
4237.000000;0.220570
4236.000000;0.223032
4235.000000;0.225607
4234.000000;0.228196
4233.000000;0.230732
4232.000000;0.233239
4231.000000;0.235768
4230.000000;0.238308
4229.000000;0.240801
4228.000000;0.243238
4227.000000;0.245692
4226.000000;0.248235
4225.000000;0.250850
4224.000000;0.253468
4223.000000;0.256067
4222.000000;0.258711
4221.000000;0.261477
4220.000000;0.264362
4219.000000;0.267274
4218.000000;0.270090
4217.000000;0.272719
4216.000000;0.275177
4215.000000;0.277611
4214.000000;0.280225
4213.000000;0.283125
4212.000000;0.286225
4211.000000;0.289336
4210.000000;0.292322
4209.000000;0.295159
4208.000000;0.297904
4207.000000;0.300660
4206.000000;0.303541
4205.000000;0.306583
4204.000000;0.309690
4203.000000;0.312723
4202.000000;0.315661
4201.000000;0.318598
4200.000000;0.321595
4199.000000;0.324631
4198.000000;0.327708
4197.000000;0.330930
4196.000000;0.334376
4195.000000;0.337937
4194.000000;0.341373
4193.000000;0.344528
4192.000000;0.347456
4191.000000;0.350360
4190.000000;0.353442
4189.000000;0.356792
4188.000000;0.360344
4187.000000;0.363921
4186.000000;0.367353
4185.000000;0.370622
4184.000000;0.373874
4183.000000;0.377285
4182.000000;0.380923
4181.000000;0.384710
4180.000000;0.388501
4179.000000;0.392170
4178.000000;0.395632
4177.000000;0.398857
4176.000000;0.401908
4175.000000;0.404977
4174.000000;0.408296
4173.000000;0.411971
4172.000000;0.415888
4171.000000;0.419822
4170.000000;0.423625
4169.000000;0.427290
4168.000000;0.430862
4167.000000;0.434367
4166.000000;0.437862
4165.000000;0.441487
4164.000000;0.445374
4163.000000;0.449473
4162.000000;0.453537
4161.000000;0.457316
4160.000000;0.460795
4159.000000;0.464206
4158.000000;0.467811
4157.000000;0.471697
4156.000000;0.475759
4155.000000;0.479826
4154.000000;0.483775
4153.000000;0.487581
4152.000000;0.491319
4151.000000;0.495134
4150.000000;0.499136
4149.000000;0.503281
4148.000000;0.507380
4147.000000;0.511255
4146.000000;0.514916
4145.000000;0.518570
4144.000000;0.522452
4143.000000;0.526629
4142.000000;0.530972
4141.000000;0.535288
4140.000000;0.539469
4139.000000;0.543499
4138.000000;0.547383
4137.000000;0.551148
4136.000000;0.554907
4135.000000;0.558818
4134.000000;0.562912
4133.000000;0.567003
4132.000000;0.570834
4131.000000;0.574295
4130.000000;0.577522
4129.000000;0.580820
4128.000000;0.584524
4127.000000;0.588792
4126.000000;0.593435
4125.000000;0.598034
4124.000000;0.602318
4123.000000;0.606405
4122.000000;0.610560
4121.000000;0.614801
4120.000000;0.618888
4119.000000;0.622656
4118.000000;0.626227
4117.000000;0.629882
4116.000000;0.633839
4115.000000;0.638111
4114.000000;0.642471
4113.000000;0.646598
4112.000000;0.650439
4111.000000;0.654374
4110.000000;0.658806
4109.000000;0.663581
4108.000000;0.668023
4107.000000;0.671603
4106.000000;0.674428
4105.000000;0.677041
4104.000000;0.679975
4103.000000;0.683514
4102.000000;0.687598
4101.000000;0.691782
4100.000000;0.695491
4099.000000;0.698555
4098.000000;0.701440
4097.000000;0.704821
4096.000000;0.709001
4095.000000;0.713738
4094.000000;0.718509
4093.000000;0.722845
4092.000000;0.726590
4091.000000;0.729970
4090.000000;0.733367
4089.000000;0.736973
4088.000000;0.740709
4087.000000;0.744449
4086.000000;0.748121
4085.000000;0.751586
4084.000000;0.754691
4083.000000;0.757552
4082.000000;0.760590
4081.000000;0.764122
4080.000000;0.768077
4079.000000;0.772171
4078.000000;0.776155
4077.000000;0.779777
4076.000000;0.782785
4075.000000;0.785245
4074.000000;0.787671
4073.000000;0.790567
4072.000000;0.793909
4071.000000;0.797281
4070.000000;0.800414
4069.000000;0.803363
4068.000000;0.806251
4067.000000;0.809100
4066.000000;0.811951
4065.000000;0.814927
4064.000000;0.818132
4063.000000;0.821584
4062.000000;0.825243
4061.000000;0.828952
4060.000000;0.832390
4059.000000;0.835272
4058.000000;0.837687
4057.000000;0.840105
4056.000000;0.842919
4055.000000;0.846044
4054.000000;0.849053
4053.000000;0.851702
4052.000000;0.854208
4051.000000;0.856904
4050.000000;0.859710
4049.000000;0.862182
4048.000000;0.864126
4047.000000;0.865926
4046.000000;0.868054
4045.000000;0.870372
4044.000000;0.872187
4043.000000;0.873063
4042.000000;0.873372
4041.000000;0.873940
4040.000000;0.875231
4039.000000;0.876940
4038.000000;0.878339
4037.000000;0.878997
4036.000000;0.879211
4035.000000;0.879695
4034.000000;0.880888
4033.000000;0.882645
4032.000000;0.884554
4031.000000;0.886343
4030.000000;0.887810
4029.000000;0.888582
4028.000000;0.888329
4027.000000;0.887231
4026.000000;0.886024
4025.000000;0.885481
4024.000000;0.885872
4023.000000;0.886851
4022.000000;0.887774
4021.000000;0.888138
4020.000000;0.887857
4019.000000;0.887159
4018.000000;0.886273
4017.000000;0.885340
4016.000000;0.884543
4015.000000;0.883996
4014.000000;0.883415
4013.000000;0.882270
4012.000000;0.880542
4011.000000;0.878998
4010.000000;0.878303
4009.000000;0.878053
4008.000000;0.877146
4007.000000;0.875090
4006.000000;0.872525
4005.000000;0.870377
4004.000000;0.868873
4003.000000;0.867513
4002.000000;0.865688
4001.000000;0.863179
4000.000000;0.860269
3999.000000;0.857573
3998.000000;0.855590
3997.000000;0.854240
3996.000000;0.852911
3995.000000;0.851050
3994.000000;0.848614
3993.000000;0.845884
3992.000000;0.843106
3991.000000;0.840435
3990.000000;0.837990
3989.000000;0.835670
3988.000000;0.833043
3987.000000;0.829808
3986.000000;0.826382
3985.000000;0.823623
3984.000000;0.821830
3983.000000;0.820254
3982.000000;0.817822
3981.000000;0.814164
3980.000000;0.809773
3979.000000;0.805392
3978.000000;0.801504
3977.000000;0.798227
3976.000000;0.795299
3975.000000;0.792216
3974.000000;0.788670
3973.000000;0.784876
3972.000000;0.781323
3971.000000;0.778245
3970.000000;0.775541
3969.000000;0.773108
3968.000000;0.770892
3967.000000;0.768617
3966.000000;0.765829
3965.000000;0.762347
3964.000000;0.758445
3963.000000;0.754510
3962.000000;0.750691
3961.000000;0.746911
3960.000000;0.743001
3959.000000;0.738785
3958.000000;0.734308
3957.000000;0.730011
3956.000000;0.726368
3955.000000;0.723264
3954.000000;0.720008
3953.000000;0.716148
3952.000000;0.711958
3951.000000;0.707978
3950.000000;0.704382
3949.000000;0.701056
3948.000000;0.697896
3947.000000;0.694689
3946.000000;0.691032
3945.000000;0.686775
3944.000000;0.682317
3943.000000;0.678148
3942.000000;0.674231
3941.000000;0.670154
3940.000000;0.665835
3939.000000;0.661715
3938.000000;0.658115
3937.000000;0.654682
3936.000000;0.650659
3935.000000;0.645679
3934.000000;0.640203
3933.000000;0.635142
3932.000000;0.631046
3931.000000;0.627685
3930.000000;0.624407
3929.000000;0.620769
3928.000000;0.616629
3927.000000;0.611930
3926.000000;0.606833
3925.000000;0.602005
3924.000000;0.598186
3923.000000;0.595294
3922.000000;0.592379
3921.000000;0.588649
3920.000000;0.584197
3919.000000;0.579594
3918.000000;0.575223
3917.000000;0.571302
3916.000000;0.568019
3915.000000;0.565166
3914.000000;0.561998
3913.000000;0.557991
3912.000000;0.553564
3911.000000;0.549571
3910.000000;0.546248
3909.000000;0.543031
3908.000000;0.539229
3907.000000;0.534473
3906.000000;0.528752
3905.000000;0.522564
3904.000000;0.516953
3903.000000;0.512785
3902.000000;0.509921
3901.000000;0.507536
3900.000000;0.505255
3899.000000;0.503459
3898.000000;0.502356
3897.000000;0.501292
3896.000000;0.499250
3895.000000;0.495739
3894.000000;0.491008
3893.000000;0.485796
3892.000000;0.481135
3891.000000;0.477909
3890.000000;0.476049
3889.000000;0.474332
3888.000000;0.471509
3887.000000;0.467680
3886.000000;0.464082
3885.000000;0.461550
3884.000000;0.459611
3883.000000;0.457215
3882.000000;0.454101
3881.000000;0.451055
3880.000000;0.448848
3879.000000;0.447310
3878.000000;0.445568
3877.000000;0.442988
3876.000000;0.439692
3875.000000;0.436235
3874.000000;0.433044
3873.000000;0.430236
3872.000000;0.427786
3871.000000;0.425693
3870.000000;0.423939
3869.000000;0.422319
3868.000000;0.420362
3867.000000;0.417572
3866.000000;0.413938
3865.000000;0.410160
3864.000000;0.407116
3863.000000;0.405047
3862.000000;0.403424
3861.000000;0.401615
3860.000000;0.399415
3859.000000;0.396877
3858.000000;0.393995
3857.000000;0.390894
3856.000000;0.388045
3855.000000;0.385872
3854.000000;0.384261
3853.000000;0.382893
3852.000000;0.381700
3851.000000;0.380464
3850.000000;0.378675
3849.000000;0.376096
3848.000000;0.373003
3847.000000;0.369873
3846.000000;0.366926
3845.000000;0.364052
3844.000000;0.361152
3843.000000;0.358382
3842.000000;0.355991
3841.000000;0.354075
3840.000000;0.352549
3839.000000;0.351240
3838.000000;0.349893
3837.000000;0.348180
3836.000000;0.345914
3835.000000;0.343231
3834.000000;0.340480
3833.000000;0.337905
3832.000000;0.335484
3831.000000;0.333097
3830.000000;0.330774
3829.000000;0.328671
3828.000000;0.326800
3827.000000;0.324847
3826.000000;0.322375
3825.000000;0.319276
3824.000000;0.315979
3823.000000;0.313126
3822.000000;0.311044
3821.000000;0.309621
3820.000000;0.308548
3819.000000;0.307446
3818.000000;0.305989
3817.000000;0.304103
3816.000000;0.301883
3815.000000;0.299385
3814.000000;0.296604
3813.000000;0.293619
3812.000000;0.290716
3811.000000;0.288202
3810.000000;0.286009
3809.000000;0.283717
3808.000000;0.281025
3807.000000;0.278109
3806.000000;0.275436
3805.000000;0.273224
3804.000000;0.271229
3803.000000;0.269106
3802.000000;0.266769
3801.000000;0.264367
3800.000000;0.262060
3799.000000;0.259799
3798.000000;0.257461
3797.000000;0.255113
3796.000000;0.252868
3795.000000;0.250643
3794.000000;0.248281
3793.000000;0.245825
3792.000000;0.243522
3791.000000;0.241535
3790.000000;0.239739
3789.000000;0.237855
3788.000000;0.235723
3787.000000;0.233442
3786.000000;0.231332
3785.000000;0.229705
3784.000000;0.228459
3783.000000;0.226917
3782.000000;0.224294
3781.000000;0.220502
3780.000000;0.216339
3779.000000;0.212784
3778.000000;0.210141
3777.000000;0.207931
3776.000000;0.205517
3775.000000;0.202668
3774.000000;0.199595
3773.000000;0.196632
3772.000000;0.193980
3771.000000;0.191647
3770.000000;0.189531
3769.000000;0.187513
3768.000000;0.185483
3767.000000;0.183356
3766.000000;0.181183
3765.000000;0.179102
3764.000000;0.177051
3763.000000;0.174664
3762.000000;0.171663
3761.000000;0.168275
3760.000000;0.165040
3759.000000;0.162220
3758.000000;0.159597
3757.000000;0.156895
3756.000000;0.154168
3755.000000;0.151627
3754.000000;0.149250
3753.000000;0.146795
3752.000000;0.144113
3751.000000;0.141296
3750.000000;0.138534
3749.000000;0.135926
3748.000000;0.133432
3747.000000;0.130971
3746.000000;0.128525
3745.000000;0.126101
3744.000000;0.123752
3743.000000;0.121588
3742.000000;0.119481
3741.000000;0.117078
3740.000000;0.114256
3739.000000;0.111128
3738.000000;0.107792
3737.000000;0.104370
3736.000000;0.101030
3735.000000;0.097781
3734.000000;0.094418
3733.000000;0.090921
3732.000000;0.087722
3731.000000;0.085264
3730.000000;0.083440
3729.000000;0.081734
3728.000000;0.079790
3727.000000;0.077594
3726.000000;0.075131
3725.000000;0.072211
3724.000000;0.068737
3723.000000;0.065005
3722.000000;0.061585
3721.000000;0.058867
3720.000000;0.056728
3719.000000;0.054636
3718.000000;0.052115
3717.000000;0.049059
3716.000000;0.045621
3715.000000;0.041910
3714.000000;0.037949
3713.000000;0.033927
3712.000000;0.030267
3711.000000;0.027279
3710.000000;0.024736
3709.000000;0.021946
3708.000000;0.018381
3707.000000;0.014185
3706.000000;0.010077
3705.000000;0.006787
3704.000000;0.004494
3703.000000;0.002681
3702.000000;0.000607
3701.000000;-0.002037
3700.000000;-0.005018
3699.000000;-0.008054
3698.000000;-0.011161
3697.000000;-0.014430
3696.000000;-0.017731
3695.000000;-0.020863
3694.000000;-0.023936
3693.000000;-0.027284
3692.000000;-0.031007
3691.000000;-0.034780
3690.000000;-0.038230
3689.000000;-0.041312
3688.000000;-0.044196
3687.000000;-0.046964
3686.000000;-0.049624
3685.000000;-0.052303
3684.000000;-0.055269
3683.000000;-0.058720
3682.000000;-0.062533
3681.000000;-0.066322
3680.000000;-0.069814
3679.000000;-0.073066
3678.000000;-0.076239
3677.000000;-0.079327
3676.000000;-0.082299
3675.000000;-0.085356
3674.000000;-0.088881
3673.000000;-0.093067
3672.000000;-0.097546
3671.000000;-0.101673
3670.000000;-0.105241
3669.000000;-0.108575
3668.000000;-0.111971
3667.000000;-0.115377
3666.000000;-0.118669
3665.000000;-0.122000
3664.000000;-0.125691
3663.000000;-0.129750
3662.000000;-0.133718
3661.000000;-0.137119
3660.000000;-0.139954
3659.000000;-0.142656
3658.000000;-0.145632
3657.000000;-0.149011
3656.000000;-0.152721
3655.000000;-0.156612
3654.000000;-0.160507
3653.000000;-0.164268
3652.000000;-0.167934
3651.000000;-0.171697
3650.000000;-0.175538
3649.000000;-0.179103
3648.000000;-0.182242
3647.000000;-0.185380
3646.000000;-0.188957
3645.000000;-0.192743
3644.000000;-0.196069
3643.000000;-0.198717
3642.000000;-0.201258
3641.000000;-0.204408
3640.000000;-0.208286
3639.000000;-0.212465
3638.000000;-0.216557
3637.000000;-0.220523
3636.000000;-0.224494
3635.000000;-0.228484
3634.000000;-0.232286
3633.000000;-0.235634
3632.000000;-0.238483
3631.000000;-0.241139
3630.000000;-0.244052
3629.000000;-0.247408
3628.000000;-0.251001
3627.000000;-0.254599
3626.000000;-0.258164
3625.000000;-0.261669
3624.000000;-0.265086
3623.000000;-0.268620
3622.000000;-0.272549
3621.000000;-0.276751
3620.000000;-0.280709
3619.000000;-0.284130
3618.000000;-0.287301
3617.000000;-0.290652
3616.000000;-0.294168
3615.000000;-0.297462
3614.000000;-0.300303
3613.000000;-0.302796
3612.000000;-0.305138
3611.000000;-0.307437
3610.000000;-0.309772
3609.000000;-0.312195
3608.000000;-0.314635
3607.000000;-0.316966
3606.000000;-0.319194
3605.000000;-0.321489
3604.000000;-0.324074
3603.000000;-0.327112
3602.000000;-0.330599
3601.000000;-0.334280
3600.000000;-0.337744
3599.000000;-0.340727
3598.000000;-0.343303
3597.000000;-0.345736
3596.000000;-0.348196
3595.000000;-0.350677
3594.000000;-0.353083
3593.000000;-0.355269
3592.000000;-0.357054
3591.000000;-0.358334
3590.000000;-0.359215
3589.000000;-0.359947
3588.000000;-0.360797
3587.000000;-0.362032
3586.000000;-0.363847
3585.000000;-0.366098
3584.000000;-0.368240
3583.000000;-0.369758
3582.000000;-0.370621
3581.000000;-0.371220
3580.000000;-0.371969
3579.000000;-0.373068
3578.000000;-0.374530
3577.000000;-0.376187
3576.000000;-0.377645
3575.000000;-0.378482
3574.000000;-0.378651
3573.000000;-0.378579
3572.000000;-0.378716
3571.000000;-0.379068
3570.000000;-0.379335
3569.000000;-0.379427
3568.000000;-0.379618
3567.000000;-0.380108
3566.000000;-0.380616
3565.000000;-0.380572
3564.000000;-0.379731
3563.000000;-0.378538
3562.000000;-0.377745
3561.000000;-0.377669
3560.000000;-0.377947
3559.000000;-0.377975
3558.000000;-0.377501
3557.000000;-0.376790
3556.000000;-0.376289
3555.000000;-0.376157
3554.000000;-0.376110
3553.000000;-0.375704
3552.000000;-0.374742
3551.000000;-0.373340
3550.000000;-0.371704
3549.000000;-0.370016
3548.000000;-0.368493
3547.000000;-0.367279
3546.000000;-0.366195
3545.000000;-0.364832
3544.000000;-0.363049
3543.000000;-0.361186
3542.000000;-0.359592
3541.000000;-0.358118
3540.000000;-0.356372
3539.000000;-0.354346
3538.000000;-0.352458
3537.000000;-0.351004
3536.000000;-0.349885
3535.000000;-0.348842
3534.000000;-0.347647
3533.000000;-0.346031
3532.000000;-0.343823
3531.000000;-0.341288
3530.000000;-0.338979
3529.000000;-0.337067
3528.000000;-0.335096
3527.000000;-0.332616
3526.000000;-0.329805
3525.000000;-0.327184
3524.000000;-0.324936
3523.000000;-0.322836
3522.000000;-0.320762
3521.000000;-0.318896
3520.000000;-0.317350
3519.000000;-0.315819
3518.000000;-0.313762
3517.000000;-0.310906
3516.000000;-0.307556
3515.000000;-0.304431
3514.000000;-0.302073
3513.000000;-0.300373
3512.000000;-0.298728
3511.000000;-0.296707
3510.000000;-0.294443
3509.000000;-0.292331
3508.000000;-0.290491
3507.000000;-0.288658
3506.000000;-0.286506
3505.000000;-0.283923
3504.000000;-0.281086
3503.000000;-0.278439
3502.000000;-0.276467
3501.000000;-0.275247
3500.000000;-0.274210
3499.000000;-0.272550
3498.000000;-0.269935
3497.000000;-0.266745
3496.000000;-0.263638
3495.000000;-0.261015
3494.000000;-0.258861
3493.000000;-0.256905
3492.000000;-0.254866
3491.000000;-0.252648
3490.000000;-0.250362
3489.000000;-0.248131
3488.000000;-0.245890
3487.000000;-0.243501
3486.000000;-0.241037
3485.000000;-0.238786
3484.000000;-0.236881
3483.000000;-0.235063
3482.000000;-0.232934
3481.000000;-0.230397
3480.000000;-0.227717
3479.000000;-0.225155
3478.000000;-0.222659
3477.000000;-0.220004
3476.000000;-0.217159
3475.000000;-0.214424
3474.000000;-0.212156
3473.000000;-0.210392
3472.000000;-0.208766
3471.000000;-0.206824
3470.000000;-0.204437
3469.000000;-0.201927
3468.000000;-0.199740
3467.000000;-0.197986
3466.000000;-0.196322
3465.000000;-0.194371
3464.000000;-0.192191
3463.000000;-0.190194
3462.000000;-0.188589
3461.000000;-0.187117
3460.000000;-0.185412
3459.000000;-0.183449
3458.000000;-0.181431
3457.000000;-0.179411
3456.000000;-0.177281
3455.000000;-0.175075
3454.000000;-0.172960
3453.000000;-0.170913
3452.000000;-0.168722
3451.000000;-0.166402
3450.000000;-0.164320
3449.000000;-0.162733
3448.000000;-0.161411
3447.000000;-0.159944
3446.000000;-0.158253
3445.000000;-0.156551
3444.000000;-0.154918
3443.000000;-0.153180
3442.000000;-0.151194
3441.000000;-0.149038
3440.000000;-0.146904
3439.000000;-0.144920
3438.000000;-0.143126
3437.000000;-0.141465
3436.000000;-0.139804
3435.000000;-0.138014
3434.000000;-0.136089
3433.000000;-0.134124
3432.000000;-0.132225
3431.000000;-0.130476
3430.000000;-0.128946
3429.000000;-0.127635
3428.000000;-0.126448
3427.000000;-0.125272
3426.000000;-0.123986
3425.000000;-0.122352
3424.000000;-0.120070
3423.000000;-0.117174
3422.000000;-0.114287
3421.000000;-0.112169
3420.000000;-0.110916
3419.000000;-0.109842
3418.000000;-0.108265
3417.000000;-0.106204
3416.000000;-0.104181
3415.000000;-0.102527
3414.000000;-0.101105
3413.000000;-0.099609
3412.000000;-0.097884
3411.000000;-0.095973
3410.000000;-0.094104
3409.000000;-0.092643
3408.000000;-0.091812
3407.000000;-0.091336
3406.000000;-0.090572
3405.000000;-0.089161
3404.000000;-0.087372
3403.000000;-0.085670
3402.000000;-0.084132
3401.000000;-0.082564
3400.000000;-0.081018
3399.000000;-0.079820
3398.000000;-0.079033
3397.000000;-0.078244
3396.000000;-0.077038
3395.000000;-0.075437
3394.000000;-0.073694
3393.000000;-0.071887
3392.000000;-0.069949
3391.000000;-0.067998
3390.000000;-0.066364
3389.000000;-0.065264
3388.000000;-0.064541
3387.000000;-0.063754
3386.000000;-0.062457
3385.000000;-0.060503
3384.000000;-0.058198
3383.000000;-0.056083
3382.000000;-0.054467
3381.000000;-0.053187
3380.000000;-0.051956
3379.000000;-0.050785
3378.000000;-0.049916
3377.000000;-0.049381
3376.000000;-0.048844
3375.000000;-0.047894
3374.000000;-0.046397
3373.000000;-0.044602
3372.000000;-0.043008
3371.000000;-0.042041
3370.000000;-0.041683
3369.000000;-0.041438
3368.000000;-0.040760
3367.000000;-0.039493
3366.000000;-0.037826
3365.000000;-0.035984
3364.000000;-0.034156
3363.000000;-0.032599
3362.000000;-0.031478
3361.000000;-0.030539
3360.000000;-0.029258
3359.000000;-0.027456
3358.000000;-0.025605
3357.000000;-0.024377
3356.000000;-0.023986
3355.000000;-0.024048
3354.000000;-0.023953
3353.000000;-0.023279
3352.000000;-0.021959
3351.000000;-0.020214
3350.000000;-0.018387
3349.000000;-0.016779
3348.000000;-0.015575
3347.000000;-0.014785
3346.000000;-0.014187
3345.000000;-0.013435
3344.000000;-0.012340
3343.000000;-0.011011
3342.000000;-0.009624
3341.000000;-0.008202
3340.000000;-0.006743
3339.000000;-0.005422
3338.000000;-0.004427
3337.000000;-0.003695
3336.000000;-0.003082
3335.000000;-0.002691
3334.000000;-0.002684
3333.000000;-0.002762
3332.000000;-0.002244
3331.000000;-0.000798
3330.000000;0.001170
3329.000000;0.003010
3328.000000;0.004431
3327.000000;0.005482
3326.000000;0.006240
3325.000000;0.006818
3324.000000;0.007528
3323.000000;0.008684
3322.000000;0.010251
3321.000000;0.011853
3320.000000;0.013159
3319.000000;0.014116
3318.000000;0.014827
3317.000000;0.015369
3316.000000;0.015784
3315.000000;0.016153
3314.000000;0.016622
3313.000000;0.017307
3312.000000;0.018198
3311.000000;0.019200
3310.000000;0.020301
3309.000000;0.021587
3308.000000;0.023011
3307.000000;0.024267
3306.000000;0.025082
3305.000000;0.025592
3304.000000;0.026211
3303.000000;0.027127
3302.000000;0.028137
3301.000000;0.028994
3300.000000;0.029678
3299.000000;0.030275
3298.000000;0.030814
3297.000000;0.031345
3296.000000;0.031964
3295.000000;0.032660
3294.000000;0.033310
3293.000000;0.033930
3292.000000;0.034735
3291.000000;0.035816
3290.000000;0.036928
3289.000000;0.037787
3288.000000;0.038402
3287.000000;0.038965
3286.000000;0.039553
3285.000000;0.040138
3284.000000;0.040795
3283.000000;0.041693
3282.000000;0.042916
3281.000000;0.044363
3280.000000;0.045763
3279.000000;0.046718
3278.000000;0.046954
3277.000000;0.046725
3276.000000;0.046776
3275.000000;0.047612
3274.000000;0.048889
3273.000000;0.049814
3272.000000;0.050146
3271.000000;0.050487
3270.000000;0.051471
3269.000000;0.052975
3268.000000;0.054326
3267.000000;0.055147
3266.000000;0.055714
3265.000000;0.056501
3264.000000;0.057583
3263.000000;0.058606
3262.000000;0.059271
3261.000000;0.059652
3260.000000;0.059995
3259.000000;0.060328
3258.000000;0.060436
3257.000000;0.060244
3256.000000;0.060077
3255.000000;0.060422
3254.000000;0.061489
3253.000000;0.063007
3252.000000;0.064427
3251.000000;0.065294
3250.000000;0.065552
3249.000000;0.065626
3248.000000;0.066126
3247.000000;0.067339
3246.000000;0.068921
3245.000000;0.070183
3244.000000;0.070752
3243.000000;0.070897
3242.000000;0.071188
3241.000000;0.071887
3240.000000;0.072763
3239.000000;0.073460
3238.000000;0.073907
3237.000000;0.074313
3236.000000;0.074853
3235.000000;0.075501
3234.000000;0.076150
3233.000000;0.076744
3232.000000;0.077270
3231.000000;0.077730
3230.000000;0.078159
3229.000000;0.078621
3228.000000;0.079149
3227.000000;0.079770
3226.000000;0.080579
3225.000000;0.081641
3224.000000;0.082796
3223.000000;0.083750
3222.000000;0.084413
3221.000000;0.084964
3220.000000;0.085498
3219.000000;0.085871
3218.000000;0.086054
3217.000000;0.086382
3216.000000;0.087140
3215.000000;0.088110
3214.000000;0.088834
3213.000000;0.089200
3212.000000;0.089432
3211.000000;0.089606
3210.000000;0.089590
3209.000000;0.089495
3208.000000;0.089741
3207.000000;0.090543
3206.000000;0.091609
3205.000000;0.092527
3204.000000;0.093208
3203.000000;0.093846
3202.000000;0.094622
3201.000000;0.095569
3200.000000;0.096499
3199.000000;0.096990
3198.000000;0.096697
3197.000000;0.095842
3196.000000;0.095194
3195.000000;0.095415
3194.000000;0.096535
3193.000000;0.098102
3192.000000;0.099609
3191.000000;0.100650
3190.000000;0.100957
3189.000000;0.100589
3188.000000;0.100049
3187.000000;0.099964
3186.000000;0.100635
3185.000000;0.101890
3184.000000;0.103276
3183.000000;0.104327
3182.000000;0.104849
3181.000000;0.105063
3180.000000;0.105362
3179.000000;0.105847
3178.000000;0.106266
3177.000000;0.106489
3176.000000;0.106810
3175.000000;0.107589
3174.000000;0.108753
3173.000000;0.109882
3172.000000;0.110696
3171.000000;0.111225
3170.000000;0.111552
3169.000000;0.111608
3168.000000;0.111302
3167.000000;0.110732
3166.000000;0.110233
3165.000000;0.110193
3164.000000;0.110776
3163.000000;0.111772
3162.000000;0.112794
3161.000000;0.113635
3160.000000;0.114314
3159.000000;0.114797
3158.000000;0.114942
3157.000000;0.114863
3156.000000;0.115098
3155.000000;0.116094
3154.000000;0.117619
3153.000000;0.118905
3152.000000;0.119406
3151.000000;0.119277
3150.000000;0.119112
3149.000000;0.119378
3148.000000;0.120101
3147.000000;0.120964
3146.000000;0.121656
3145.000000;0.122171
3144.000000;0.122791
3143.000000;0.123733
3142.000000;0.124874
3141.000000;0.125850
3140.000000;0.126393
3139.000000;0.126515
3138.000000;0.126445
3137.000000;0.126460
3136.000000;0.126715
3135.000000;0.127147
3134.000000;0.127531
3133.000000;0.127704
3132.000000;0.127711
3131.000000;0.127714
3130.000000;0.127800
3129.000000;0.127925
3128.000000;0.127980
3127.000000;0.127895
3126.000000;0.127755
3125.000000;0.127780
3124.000000;0.128095
3123.000000;0.128540
3122.000000;0.128871
3121.000000;0.129206
3120.000000;0.130018
3119.000000;0.131552
3118.000000;0.133424
3117.000000;0.134958
3116.000000;0.135806
3115.000000;0.136046
3114.000000;0.135872
3113.000000;0.135504
3112.000000;0.135339
3111.000000;0.135831
3110.000000;0.137002
3109.000000;0.138240
3108.000000;0.138757
3107.000000;0.138314
3106.000000;0.137439
3105.000000;0.136929
3104.000000;0.137165
3103.000000;0.137876
3102.000000;0.138520
3101.000000;0.138867
3100.000000;0.139153
3099.000000;0.139698
3098.000000;0.140505
3097.000000;0.141298
3096.000000;0.141870
3095.000000;0.142289
3094.000000;0.142761
3093.000000;0.143367
3092.000000;0.143955
3091.000000;0.144310
3090.000000;0.144390
3089.000000;0.144367
3088.000000;0.144412
3087.000000;0.144542
3086.000000;0.144768
3085.000000;0.145282
3084.000000;0.146263
3083.000000;0.147490
3082.000000;0.148379
3081.000000;0.148537
3080.000000;0.148159
3079.000000;0.147769
3078.000000;0.147696
3077.000000;0.147884
3076.000000;0.148121
3075.000000;0.148304
3074.000000;0.148558
3073.000000;0.149168
3072.000000;0.150322
3071.000000;0.151812
3070.000000;0.153090
3069.000000;0.153750
3068.000000;0.153895
3067.000000;0.153935
3066.000000;0.154132
3065.000000;0.154474
3064.000000;0.154884
3063.000000;0.155330
3062.000000;0.155750
3061.000000;0.156052
3060.000000;0.156240
3059.000000;0.156415
3058.000000;0.156627
3057.000000;0.156856
3056.000000;0.157143
3055.000000;0.157600
3054.000000;0.158208
3053.000000;0.158760
3052.000000;0.159131
3051.000000;0.159498
3050.000000;0.160139
3049.000000;0.161012
3048.000000;0.161729
3047.000000;0.161997
3046.000000;0.161962
3045.000000;0.162015
3044.000000;0.162400
3043.000000;0.163130
3042.000000;0.164166
3041.000000;0.165428
3040.000000;0.166597
3039.000000;0.167202
3038.000000;0.167081
3037.000000;0.166641
3036.000000;0.166464
3035.000000;0.166684
3034.000000;0.166905
3033.000000;0.166713
3032.000000;0.166186
3031.000000;0.165905
3030.000000;0.166503
3029.000000;0.168118
3028.000000;0.170155
3027.000000;0.171689
3026.000000;0.172218
3025.000000;0.172026
3024.000000;0.171768
3023.000000;0.171829
3022.000000;0.172183
3021.000000;0.172675
3020.000000;0.173178
3019.000000;0.173528
3018.000000;0.173645
3017.000000;0.173747
3016.000000;0.174213
3015.000000;0.175104
3014.000000;0.175995
3013.000000;0.176405
3012.000000;0.176278
3011.000000;0.175983
3010.000000;0.175914
3009.000000;0.176194
3008.000000;0.176670
3007.000000;0.177138
3006.000000;0.177575
3005.000000;0.178140
3004.000000;0.178942
3003.000000;0.179870
3002.000000;0.180716
3001.000000;0.181387
3000.000000;0.181895
2999.000000;0.182240
2998.000000;0.182460
2997.000000;0.182728
2996.000000;0.183245
2995.000000;0.184034
2994.000000;0.184956
2993.000000;0.185831
2992.000000;0.186442
2991.000000;0.186552
2990.000000;0.186147
2989.000000;0.185573
2988.000000;0.185235
2987.000000;0.185241
2986.000000;0.185542
2985.000000;0.186238
2984.000000;0.187397
2983.000000;0.188674
2982.000000;0.189539
2981.000000;0.189916
2980.000000;0.190213
2979.000000;0.190648
2978.000000;0.190947
2977.000000;0.190865
2976.000000;0.190663
2975.000000;0.190814
2974.000000;0.191468
2973.000000;0.192443
2972.000000;0.193527
2971.000000;0.194569
2970.000000;0.195405
2969.000000;0.195894
2968.000000;0.195977
2967.000000;0.195675
2966.000000;0.195176
2965.000000;0.194944
2964.000000;0.195420
2963.000000;0.196463
2962.000000;0.197335
2961.000000;0.197483
2960.000000;0.197134
2959.000000;0.196935
2958.000000;0.197205
2957.000000;0.197788
2956.000000;0.198447
2955.000000;0.199099
2954.000000;0.199722
2953.000000;0.200268
2952.000000;0.200670
2951.000000;0.200844
2950.000000;0.200772
2949.000000;0.200699
2948.000000;0.201094
2947.000000;0.202190
2946.000000;0.203640
2945.000000;0.204788
2944.000000;0.205269
2943.000000;0.205231
2942.000000;0.205078
2941.000000;0.205112
2940.000000;0.205358
2939.000000;0.205587
2938.000000;0.205584
2937.000000;0.205484
2936.000000;0.205739
2935.000000;0.206619
2934.000000;0.207803
2933.000000;0.208650
2932.000000;0.208852
2931.000000;0.208729
2930.000000;0.208912
2929.000000;0.209797
2928.000000;0.211207
2927.000000;0.212507
2926.000000;0.213156
2925.000000;0.213233
2924.000000;0.213312
2923.000000;0.213787
2922.000000;0.214515
2921.000000;0.215164
2920.000000;0.215686
2919.000000;0.216236
2918.000000;0.216837
2917.000000;0.217369
2916.000000;0.217797
2915.000000;0.218174
2914.000000;0.218502
2913.000000;0.218796
2912.000000;0.219225
2911.000000;0.219976
2910.000000;0.220973
2909.000000;0.221880
2908.000000;0.222376
2907.000000;0.222340
2906.000000;0.221867
2905.000000;0.221284
2904.000000;0.221095
2903.000000;0.221683
2902.000000;0.222975
2901.000000;0.224459
2900.000000;0.225529
2899.000000;0.225827
2898.000000;0.225420
2897.000000;0.224782
2896.000000;0.224506
2895.000000;0.224887
2894.000000;0.225758
2893.000000;0.226791
2892.000000;0.227826
2891.000000;0.228804
2890.000000;0.229554
2889.000000;0.229917
2888.000000;0.230060
2887.000000;0.230393
2886.000000;0.231094
2885.000000;0.231860
2884.000000;0.232214
2883.000000;0.232001
2882.000000;0.231501
2881.000000;0.231144
2880.000000;0.231189
2879.000000;0.231688
2878.000000;0.232628
2877.000000;0.233976
2876.000000;0.235500
2875.000000;0.236726
2874.000000;0.237293
2873.000000;0.237360
2872.000000;0.237464
2871.000000;0.237921
2870.000000;0.238549
2869.000000;0.239000
2868.000000;0.239170
2867.000000;0.239177
2866.000000;0.239179
2865.000000;0.239326
2864.000000;0.239720
2863.000000;0.240289
2862.000000;0.240879
2861.000000;0.241547
2860.000000;0.242489
2859.000000;0.243496
2858.000000;0.243875
2857.000000;0.243278
2856.000000;0.242392
2855.000000;0.242323
2854.000000;0.243356
2853.000000;0.244751
2852.000000;0.245751
2851.000000;0.246326
2850.000000;0.246788
2849.000000;0.247122
2848.000000;0.247102
2847.000000;0.246848
2846.000000;0.246867
2845.000000;0.247500
2844.000000;0.248552
2843.000000;0.249537
2842.000000;0.250199
2841.000000;0.250703
2840.000000;0.251340
2839.000000;0.252176
2838.000000;0.253043
2837.000000;0.253819
2836.000000;0.254528
2835.000000;0.255147
2834.000000;0.255515
2833.000000;0.255590
2832.000000;0.255631
2831.000000;0.255919
2830.000000;0.256379
2829.000000;0.256705
2828.000000;0.256838
2827.000000;0.257105
2826.000000;0.257830
2825.000000;0.258966
2824.000000;0.260163
2823.000000;0.261063
2822.000000;0.261515
2821.000000;0.261643
2820.000000;0.261764
2819.000000;0.262143
2818.000000;0.262732
2817.000000;0.263251
2816.000000;0.263534
2815.000000;0.263703
2814.000000;0.263950
2813.000000;0.264286
2812.000000;0.264624
2811.000000;0.265012
2810.000000;0.265644
2809.000000;0.266621
2808.000000;0.267755
2807.000000;0.268677
2806.000000;0.269157
2805.000000;0.269364
2804.000000;0.269740
2803.000000;0.270541
2802.000000;0.271511
2801.000000;0.272123
2800.000000;0.272199
2799.000000;0.272154
2798.000000;0.272539
2797.000000;0.273412
2796.000000;0.274300
2795.000000;0.274786
2794.000000;0.274970
2793.000000;0.275285
2792.000000;0.275965
2791.000000;0.276850
2790.000000;0.277670
2789.000000;0.278350
2788.000000;0.278965
2787.000000;0.279502
2786.000000;0.279815
2785.000000;0.279793
2784.000000;0.279547
2783.000000;0.279412
2782.000000;0.279760
2781.000000;0.280665
2780.000000;0.281737
2779.000000;0.282425
2778.000000;0.282617
2777.000000;0.282801
2776.000000;0.283497
2775.000000;0.284669
2774.000000;0.285854
2773.000000;0.286710
2772.000000;0.287181
2771.000000;0.287281
2770.000000;0.287061
2769.000000;0.286795
2768.000000;0.286845
2767.000000;0.287287
2766.000000;0.287936
2765.000000;0.288732
2764.000000;0.289734
2763.000000;0.290740
2762.000000;0.291377
2761.000000;0.291734
2760.000000;0.292409
2759.000000;0.293596
2758.000000;0.294585
2757.000000;0.294623
2756.000000;0.293976
2755.000000;0.293631
2754.000000;0.294114
2753.000000;0.295134
2752.000000;0.296222
2751.000000;0.297175
2750.000000;0.297816
2749.000000;0.297921
2748.000000;0.297662
2747.000000;0.297712
2746.000000;0.298571
2745.000000;0.299958
2744.000000;0.301108
2743.000000;0.301581
2742.000000;0.301627
2741.000000;0.301811
2740.000000;0.302399
2739.000000;0.303121
2738.000000;0.303480
2737.000000;0.303335
2736.000000;0.303107
2735.000000;0.303305
2734.000000;0.303928
2733.000000;0.304509
2732.000000;0.304735
2731.000000;0.304814
2730.000000;0.305160
2729.000000;0.305905
2728.000000;0.306847
2727.000000;0.307755
2726.000000;0.308592
2725.000000;0.309479
2724.000000;0.310486
2723.000000;0.311477
2722.000000;0.312178
2721.000000;0.312465
2720.000000;0.312542
2719.000000;0.312739
2718.000000;0.313193
2717.000000;0.313820
2716.000000;0.314528
2715.000000;0.315280
2714.000000;0.316016
2713.000000;0.316714
2712.000000;0.317529
2711.000000;0.318634
2710.000000;0.319830
2709.000000;0.320580
2708.000000;0.320581
2707.000000;0.320165
2706.000000;0.319955
2705.000000;0.320228
2704.000000;0.320743
2703.000000;0.321110
2702.000000;0.321172
2701.000000;0.321048
2700.000000;0.320981
2699.000000;0.321213
2698.000000;0.321939
2697.000000;0.323208
2696.000000;0.324767
2695.000000;0.326038
2694.000000;0.326473
2693.000000;0.326106
2692.000000;0.325670
2691.000000;0.325982
2690.000000;0.327208
2689.000000;0.328835
2688.000000;0.330286
2687.000000;0.331381
2686.000000;0.332181
2685.000000;0.332658
2684.000000;0.332710
2683.000000;0.332404
2682.000000;0.332049
2681.000000;0.331998
2680.000000;0.332398
2679.000000;0.333084
2678.000000;0.333750
2677.000000;0.334280
2676.000000;0.334923
2675.000000;0.335977
2674.000000;0.337305
2673.000000;0.338311
2672.000000;0.338488
2671.000000;0.337926
2670.000000;0.337274
2669.000000;0.337289
2668.000000;0.338357
2667.000000;0.340194
2666.000000;0.341955
2665.000000;0.342899
2664.000000;0.343079
2663.000000;0.343183
2662.000000;0.343618
2661.000000;0.344041
2660.000000;0.343973
2659.000000;0.343621
2658.000000;0.343703
2657.000000;0.344569
2656.000000;0.345824
2655.000000;0.346854
2654.000000;0.347423
2653.000000;0.347701
2652.000000;0.347911
2651.000000;0.348142
2650.000000;0.348387
2649.000000;0.348645
2648.000000;0.349023
2647.000000;0.349743
2646.000000;0.350939
2645.000000;0.352403
2644.000000;0.353655
2643.000000;0.354347
2642.000000;0.354552
2641.000000;0.354589
2640.000000;0.354687
2639.000000;0.354887
2638.000000;0.355207
2637.000000;0.355753
2636.000000;0.356631
2635.000000;0.357775
2634.000000;0.358885
2633.000000;0.359584
2632.000000;0.359744
2631.000000;0.359680
2630.000000;0.359932
2629.000000;0.360767
2628.000000;0.361923
2627.000000;0.362888
2626.000000;0.363403
2625.000000;0.363612
2624.000000;0.363771
2623.000000;0.363996
2622.000000;0.364332
2621.000000;0.364915
2620.000000;0.365829
2619.000000;0.366835
2618.000000;0.367462
2617.000000;0.367524
2616.000000;0.367398
2615.000000;0.367621
2614.000000;0.368249
2613.000000;0.368799
2612.000000;0.368818
2611.000000;0.368354
2610.000000;0.367810
2609.000000;0.367537
2608.000000;0.367716
2607.000000;0.368474
2606.000000;0.369829
2605.000000;0.371516
2604.000000;0.373071
2603.000000;0.374214
2602.000000;0.375066
2601.000000;0.375893
2600.000000;0.376691
2599.000000;0.377145
2598.000000;0.377029
2597.000000;0.376543
2596.000000;0.376215
2595.000000;0.376452
2594.000000;0.377232
2593.000000;0.378229
2592.000000;0.379172
2591.000000;0.379994
2590.000000;0.380719
2589.000000;0.381369
2588.000000;0.382023
2587.000000;0.382788
2586.000000;0.383633
2585.000000;0.384370
2584.000000;0.384918
2583.000000;0.385443
2582.000000;0.386047
2581.000000;0.386455
2580.000000;0.386292
2579.000000;0.385651
2578.000000;0.385120
2577.000000;0.385199
2576.000000;0.385901
2575.000000;0.386969
2574.000000;0.388213
2573.000000;0.389480
2572.000000;0.390506
2571.000000;0.391104
2570.000000;0.391459
2569.000000;0.392032
2568.000000;0.393105
2567.000000;0.394502
2566.000000;0.395716
2565.000000;0.396261
2564.000000;0.396005
2563.000000;0.395332
2562.000000;0.394940
2561.000000;0.395290
2560.000000;0.396168
2559.000000;0.396880
2558.000000;0.396953
2557.000000;0.396590
2556.000000;0.396416
2555.000000;0.396860
2554.000000;0.397826
2553.000000;0.398889
2552.000000;0.399731
2551.000000;0.400373
2550.000000;0.401018
2549.000000;0.401727
2548.000000;0.402322
2547.000000;0.402654
2546.000000;0.402873
2545.000000;0.403325
2544.000000;0.404196
2543.000000;0.405343
2542.000000;0.406447
2541.000000;0.407251
2540.000000;0.407689
2539.000000;0.407903
2538.000000;0.408157
2537.000000;0.408655
2536.000000;0.409355
2535.000000;0.410010
2534.000000;0.410417
2533.000000;0.410599
2532.000000;0.410785
2531.000000;0.411262
2530.000000;0.412204
2529.000000;0.413468
2528.000000;0.414579
2527.000000;0.415066
2526.000000;0.414948
2525.000000;0.414764
2524.000000;0.415033
2523.000000;0.415755
2522.000000;0.416521
2521.000000;0.417010
2520.000000;0.417204
2519.000000;0.417225
2518.000000;0.417185
2517.000000;0.417274
2516.000000;0.417740
2515.000000;0.418627
2514.000000;0.419640
2513.000000;0.420471
2512.000000;0.421168
2511.000000;0.421964
2510.000000;0.422779
2509.000000;0.423216
2508.000000;0.423172
2507.000000;0.423179
2506.000000;0.423832
2505.000000;0.425032
2504.000000;0.426146
2503.000000;0.426868
2502.000000;0.427484
2501.000000;0.428205
2500.000000;0.428715
2499.000000;0.428725
2498.000000;0.428642
2497.000000;0.429196
2496.000000;0.430496
2495.000000;0.431918
2494.000000;0.432927
2493.000000;0.433579
2492.000000;0.434105
2491.000000;0.434445
2490.000000;0.434497
2489.000000;0.434500
2488.000000;0.434779
2487.000000;0.435275
2486.000000;0.435641
2485.000000;0.435738
2484.000000;0.435770
2483.000000;0.435948
2482.000000;0.436302
2481.000000;0.436867
2480.000000;0.437764
2479.000000;0.438974
2478.000000;0.440199
2477.000000;0.441114
2476.000000;0.441659
2475.000000;0.441999
2474.000000;0.442267
2473.000000;0.442476
2472.000000;0.442631
2471.000000;0.442822
2470.000000;0.443151
2469.000000;0.443623
2468.000000;0.444121
2467.000000;0.444487
2466.000000;0.444624
2465.000000;0.444606
2464.000000;0.444691
2463.000000;0.445209
2462.000000;0.446314
2461.000000;0.447783
2460.000000;0.449104
2459.000000;0.449864
2458.000000;0.450062
2457.000000;0.450001
2456.000000;0.449902
2455.000000;0.449774
2454.000000;0.449682
2453.000000;0.449978
2452.000000;0.451052
2451.000000;0.452856
2450.000000;0.454801
2449.000000;0.456182
2448.000000;0.456716
2447.000000;0.456683
2446.000000;0.456598
2445.000000;0.456775
2444.000000;0.457178
2443.000000;0.457650
2442.000000;0.458193
2441.000000;0.458914
2440.000000;0.459717
2439.000000;0.460265
2438.000000;0.460371
2437.000000;0.460321
2436.000000;0.460592
2435.000000;0.461304
2434.000000;0.462165
2433.000000;0.462948
2432.000000;0.463760
2431.000000;0.464711
2430.000000;0.465574
2429.000000;0.466060
2428.000000;0.466301
2427.000000;0.466738
2426.000000;0.467504
2425.000000;0.468205
2424.000000;0.468404
2423.000000;0.468134
2422.000000;0.467759
2421.000000;0.467544
2420.000000;0.467587
2419.000000;0.468036
2418.000000;0.469036
2417.000000;0.470419
2416.000000;0.471685
2415.000000;0.472438
2414.000000;0.472725
2413.000000;0.472857
2412.000000;0.473046
2411.000000;0.473292
2410.000000;0.473536
2409.000000;0.473803
2408.000000;0.474249
2407.000000;0.475106
2406.000000;0.476463
2405.000000;0.478015
2404.000000;0.479165
2403.000000;0.479552
2402.000000;0.479417
2401.000000;0.479343
2400.000000;0.479712
2399.000000;0.480486
2398.000000;0.481387
2397.000000;0.482114
2396.000000;0.482498
2395.000000;0.482631
2394.000000;0.482821
2393.000000;0.483260
2392.000000;0.483835
2391.000000;0.484382
2390.000000;0.485010
2389.000000;0.485905
2388.000000;0.486914
2387.000000;0.487634
2386.000000;0.487900
2385.000000;0.487885
2384.000000;0.487722
2383.000000;0.487386
2382.000000;0.487040
2381.000000;0.487142
2380.000000;0.487958
2379.000000;0.489192
2378.000000;0.490324
2377.000000;0.491153
2376.000000;0.491820
2375.000000;0.492444
2374.000000;0.492981
2373.000000;0.493380
2372.000000;0.493649
2371.000000;0.493820
2370.000000;0.493960
2369.000000;0.494196
2368.000000;0.494651
2367.000000;0.495367
2366.000000;0.496310
2365.000000;0.497325
2364.000000;0.498134
2363.000000;0.498519
2362.000000;0.498573
2361.000000;0.498755
2360.000000;0.499437
2359.000000;0.500437
2358.000000;0.501303
2357.000000;0.501773
2356.000000;0.502027
2355.000000;0.502433
2354.000000;0.503079
2353.000000;0.503770
2352.000000;0.504205
2351.000000;0.504405
2350.000000;0.504676
2349.000000;0.505291
2348.000000;0.506250
2347.000000;0.507041
2346.000000;0.507298
2345.000000;0.507243
2344.000000;0.507437
2343.000000;0.508063
2342.000000;0.508785
2341.000000;0.509568
2340.000000;0.510536
2339.000000;0.511569
2338.000000;0.512215
2337.000000;0.512282
2336.000000;0.512111
2335.000000;0.512141
2334.000000;0.512402
2333.000000;0.512749
2332.000000;0.513245
2331.000000;0.514153
2330.000000;0.515456
2329.000000;0.516779
2328.000000;0.518021
2327.000000;0.519270
2326.000000;0.520590
2325.000000;0.521591
2324.000000;0.521960
2323.000000;0.521904
2322.000000;0.521854
2321.000000;0.522022
2320.000000;0.522185
2319.000000;0.522249
2318.000000;0.522334
2317.000000;0.522534
2316.000000;0.522683
2315.000000;0.522658
2314.000000;0.522665
2313.000000;0.522935
2312.000000;0.523392
2311.000000;0.523769
2310.000000;0.524151
2309.000000;0.524869
2308.000000;0.526049
2307.000000;0.527376
2306.000000;0.528551
2305.000000;0.529548
2304.000000;0.530388
2303.000000;0.530902
2302.000000;0.531007
2301.000000;0.530978
2300.000000;0.531164
2299.000000;0.531480
2298.000000;0.531527
2297.000000;0.531147
2296.000000;0.530722
2295.000000;0.530779
2294.000000;0.531527
2293.000000;0.532727
2292.000000;0.533980
2291.000000;0.535024
2290.000000;0.535838
2289.000000;0.536485
2288.000000;0.536978
2287.000000;0.537390
2286.000000;0.537988
2285.000000;0.539010
2284.000000;0.540251
2283.000000;0.541139
2282.000000;0.541379
2281.000000;0.541342
2280.000000;0.541589
2279.000000;0.542190
2278.000000;0.542751
2277.000000;0.543008
2276.000000;0.543094
2275.000000;0.543244
2274.000000;0.543514
2273.000000;0.543862
2272.000000;0.544297
2271.000000;0.544834
2270.000000;0.545406
2269.000000;0.545912
2268.000000;0.546324
2267.000000;0.546709
2266.000000;0.547144
2265.000000;0.547623
2264.000000;0.548066
2263.000000;0.548463
2262.000000;0.548995
2261.000000;0.549855
2260.000000;0.550947
2259.000000;0.551920
2258.000000;0.552564
2257.000000;0.553022
2256.000000;0.553475
2255.000000;0.553859
2254.000000;0.554063
2253.000000;0.554193
2252.000000;0.554396
2251.000000;0.554579
2250.000000;0.554607
2249.000000;0.554684
2248.000000;0.555228
2247.000000;0.556341
2246.000000;0.557655
2245.000000;0.558727
2244.000000;0.559368
2243.000000;0.559583
2242.000000;0.559487
2241.000000;0.559359
2240.000000;0.559582
2239.000000;0.560349
2238.000000;0.561516
2237.000000;0.562713
2236.000000;0.563519
2235.000000;0.563616
2234.000000;0.563038
2233.000000;0.562319
2232.000000;0.562124
2231.000000;0.562626
2230.000000;0.563399
2229.000000;0.564016
2228.000000;0.564556
2227.000000;0.565395
2226.000000;0.566644
2225.000000;0.568027
2224.000000;0.569233
2223.000000;0.570192
2222.000000;0.570981
2221.000000;0.571626
2220.000000;0.572112
2219.000000;0.572545
2218.000000;0.573138
2217.000000;0.573945
2216.000000;0.574657
2215.000000;0.574865
2214.000000;0.574590
2213.000000;0.574356
2212.000000;0.574606
2211.000000;0.575194
2210.000000;0.575663
2209.000000;0.575907
2208.000000;0.576292
2207.000000;0.577119
2206.000000;0.578250
2205.000000;0.579308
2204.000000;0.580060
2203.000000;0.580498
2202.000000;0.580729
2201.000000;0.580894
2200.000000;0.581085
2199.000000;0.581274
2198.000000;0.581385
2197.000000;0.581456
2196.000000;0.581627
2195.000000;0.581983
2194.000000;0.582530
2193.000000;0.583317
2192.000000;0.584392
2191.000000;0.585601
2190.000000;0.586600
2189.000000;0.587155
2188.000000;0.587341
2187.000000;0.587421
2186.000000;0.587632
2185.000000;0.588085
2184.000000;0.588708
2183.000000;0.589273
2182.000000;0.589627
2181.000000;0.589919
2180.000000;0.590400
2179.000000;0.590991
2178.000000;0.591295
2177.000000;0.591163
2176.000000;0.590991
2175.000000;0.591272
2174.000000;0.592011
2173.000000;0.592779
2172.000000;0.593271
2171.000000;0.593623
2170.000000;0.594237
2169.000000;0.595423
2168.000000;0.597138
2167.000000;0.598957
2166.000000;0.600351
2165.000000;0.601114
2164.000000;0.601455
2163.000000;0.601641
2162.000000;0.601682
2161.000000;0.601526
2160.000000;0.601404
2159.000000;0.601688
2158.000000;0.602390
2157.000000;0.603053
2156.000000;0.603294
2155.000000;0.603311
2154.000000;0.603683
2153.000000;0.604681
2152.000000;0.605917
2151.000000;0.606698
2150.000000;0.606710
2149.000000;0.606328
2148.000000;0.606258
2147.000000;0.606902
2146.000000;0.608043
2145.000000;0.609075
2144.000000;0.609524
2143.000000;0.609418
2142.000000;0.609234
2141.000000;0.609512
2140.000000;0.610468
2139.000000;0.611880
2138.000000;0.613273
2137.000000;0.614197
2136.000000;0.614440
2135.000000;0.614137
2134.000000;0.613730
2133.000000;0.613689
2132.000000;0.614187
2131.000000;0.615070
2130.000000;0.616133
2129.000000;0.617292
2128.000000;0.618414
2127.000000;0.619210
2126.000000;0.619519
2125.000000;0.619593
2124.000000;0.619820
2123.000000;0.620234
2122.000000;0.620538
2121.000000;0.620591
2120.000000;0.620574
2119.000000;0.620632
2118.000000;0.620676
2117.000000;0.620679
2116.000000;0.620896
2115.000000;0.621549
2114.000000;0.622432
2113.000000;0.623101
2112.000000;0.623411
2111.000000;0.623665
2110.000000;0.624230
2109.000000;0.625156
2108.000000;0.626231
2107.000000;0.627281
2106.000000;0.628327
2105.000000;0.629444
2104.000000;0.630558
2103.000000;0.631440
2102.000000;0.631964
2101.000000;0.632246
2100.000000;0.632451
2099.000000;0.632504
2098.000000;0.632226
2097.000000;0.631768
2096.000000;0.631665
2095.000000;0.632299
2094.000000;0.633471
2093.000000;0.634623
2092.000000;0.635421
2091.000000;0.635959
2090.000000;0.636489
2089.000000;0.637123
2088.000000;0.637779
2087.000000;0.638283
2086.000000;0.638520
2085.000000;0.638575
2084.000000;0.638701
2083.000000;0.639082
2082.000000;0.639681
2081.000000;0.640375
2080.000000;0.641165
2079.000000;0.642095
2078.000000;0.643022
2077.000000;0.643675
2076.000000;0.644007
2075.000000;0.644336
2074.000000;0.645029
2073.000000;0.646134
2072.000000;0.647367
2071.000000;0.648408
2070.000000;0.649133
2069.000000;0.649622
2068.000000;0.650044
2067.000000;0.650547
2066.000000;0.651140
2065.000000;0.651691
2064.000000;0.652078
2063.000000;0.652377
2062.000000;0.652836
2061.000000;0.653592
2060.000000;0.654467
2059.000000;0.655148
2058.000000;0.655563
2057.000000;0.655978
2056.000000;0.656668
2055.000000;0.657576
2054.000000;0.658434
2053.000000;0.659147
2052.000000;0.659891
2051.000000;0.660772
2050.000000;0.661567
2049.000000;0.661907
2048.000000;0.661694
2047.000000;0.661191
2046.000000;0.660751
2045.000000;0.660573
2044.000000;0.660727
2043.000000;0.661243
2042.000000;0.662041
2041.000000;0.662856
2040.000000;0.663390
2039.000000;0.663595
2038.000000;0.663741
2037.000000;0.664151
2036.000000;0.664927
2035.000000;0.665967
2034.000000;0.667127
2033.000000;0.668257
2032.000000;0.669127
2031.000000;0.669494
2030.000000;0.669353
2029.000000;0.669025
2028.000000;0.668933
2027.000000;0.669302
2026.000000;0.670072
2025.000000;0.671023
2024.000000;0.671915
2023.000000;0.672587
2022.000000;0.672986
2021.000000;0.673132
2020.000000;0.673063
2019.000000;0.672900
2018.000000;0.672951
2017.000000;0.673563
2016.000000;0.674739
2015.000000;0.676022
2014.000000;0.676905
2013.000000;0.677334
2012.000000;0.677655
2011.000000;0.678105
2010.000000;0.678574
2009.000000;0.678867
2008.000000;0.679028
2007.000000;0.679277
2006.000000;0.679771
2005.000000;0.680532
2004.000000;0.681498
2003.000000;0.682516
2002.000000;0.683343
2001.000000;0.683817
2000.000000;0.684042
1999.000000;0.684292
1998.000000;0.684668
1997.000000;0.684960
1996.000000;0.684978
1995.000000;0.684953
1994.000000;0.685407
1993.000000;0.686563
1992.000000;0.688046
1991.000000;0.689308
1990.000000;0.690243
1989.000000;0.691139
1988.000000;0.692075
1987.000000;0.692720
1986.000000;0.692883
1985.000000;0.692989
1984.000000;0.693688
1983.000000;0.695041
1982.000000;0.696343
1981.000000;0.696815
1980.000000;0.696370
1979.000000;0.695629
1978.000000;0.695282
1977.000000;0.695508
1976.000000;0.695961
1975.000000;0.696256
1974.000000;0.696369
1973.000000;0.696541
1972.000000;0.696908
1971.000000;0.697410
1970.000000;0.698055
1969.000000;0.698977
1968.000000;0.700129
1967.000000;0.701153
1966.000000;0.701800
1965.000000;0.702297
1964.000000;0.703057
1963.000000;0.704137
1962.000000;0.705284
1961.000000;0.706406
1960.000000;0.707591
1959.000000;0.708664
1958.000000;0.709142
1957.000000;0.708876
1956.000000;0.708430
1955.000000;0.708533
1954.000000;0.709321
1953.000000;0.710329
1952.000000;0.711130
1951.000000;0.711710
1950.000000;0.712265
1949.000000;0.712876
1948.000000;0.713468
1947.000000;0.713930
1946.000000;0.714213
1945.000000;0.714351
1944.000000;0.714419
1943.000000;0.714437
1942.000000;0.714355
1941.000000;0.714191
1940.000000;0.714161
1939.000000;0.714571
1938.000000;0.715533
1937.000000;0.716802
1936.000000;0.717945
1935.000000;0.718664
1934.000000;0.718987
1933.000000;0.719168
1932.000000;0.719438
1931.000000;0.719870
1930.000000;0.720461
1929.000000;0.721240
1928.000000;0.722150
1927.000000;0.722930
1926.000000;0.723305
1925.000000;0.723381
1924.000000;0.723674
1923.000000;0.724530
1922.000000;0.725636
1921.000000;0.726304
1920.000000;0.726291
1919.000000;0.726131
1918.000000;0.726542
1917.000000;0.727641
1916.000000;0.728926
1915.000000;0.729873
1914.000000;0.730352
1913.000000;0.730518
1912.000000;0.730596
1911.000000;0.730882
1910.000000;0.731658
1909.000000;0.732825
1908.000000;0.733810
1907.000000;0.734183
1906.000000;0.734278
1905.000000;0.734804
1904.000000;0.735828
1903.000000;0.736546
1902.000000;0.736282
1901.000000;0.735383
1900.000000;0.734784
1899.000000;0.734984
1898.000000;0.735758
1897.000000;0.736672
1896.000000;0.737496
1895.000000;0.738123
1894.000000;0.738479
1893.000000;0.738686
1892.000000;0.739136
1891.000000;0.740218
1890.000000;0.741955
1889.000000;0.743900
1888.000000;0.745406
1887.000000;0.746101
1886.000000;0.746218
1885.000000;0.746353
1884.000000;0.746779
1883.000000;0.747120
1882.000000;0.746897
1881.000000;0.746335
1880.000000;0.746369
1879.000000;0.747768
1878.000000;0.750310
1877.000000;0.752809
1876.000000;0.753991
1875.000000;0.753495
1874.000000;0.752133
1873.000000;0.751159
1872.000000;0.751194
1871.000000;0.751869
1870.000000;0.752494
1869.000000;0.752836
1868.000000;0.753170
1867.000000;0.753800
1866.000000;0.754698
1865.000000;0.755565
1864.000000;0.756146
1863.000000;0.756494
1862.000000;0.756963
1861.000000;0.757855
1860.000000;0.759030
1859.000000;0.760011
1858.000000;0.760582
1857.000000;0.761038
1856.000000;0.761714
1855.000000;0.762507
1854.000000;0.763078
1853.000000;0.763362
1852.000000;0.763583
1851.000000;0.763939
1850.000000;0.764480
1849.000000;0.765157
1848.000000;0.765866
1847.000000;0.766562
1846.000000;0.767475
1845.000000;0.768926
1844.000000;0.770685
1843.000000;0.771898
1842.000000;0.772046
1841.000000;0.771556
1840.000000;0.771148
1839.000000;0.771061
1838.000000;0.771225
1837.000000;0.771764
1836.000000;0.772677
1835.000000;0.773319
1834.000000;0.773108
1833.000000;0.772643
1832.000000;0.773134
1831.000000;0.774640
1830.000000;0.775821
1829.000000;0.775833
1828.000000;0.775653
1827.000000;0.776713
1826.000000;0.778868
1825.000000;0.780539
1824.000000;0.780613
1823.000000;0.779536
1822.000000;0.778639
1821.000000;0.778941
1820.000000;0.780537
1819.000000;0.782561
1818.000000;0.783771
1817.000000;0.783674
1816.000000;0.783046
1815.000000;0.782986
1814.000000;0.783677
1813.000000;0.784406
1812.000000;0.784674
1811.000000;0.784750
1810.000000;0.785108
1809.000000;0.785849
1808.000000;0.786711
1807.000000;0.787340
1806.000000;0.787525
1805.000000;0.787417
1804.000000;0.787581
1803.000000;0.788565
1802.000000;0.790332
1801.000000;0.792209
1800.000000;0.793486
1799.000000;0.793984
1798.000000;0.794049
1797.000000;0.794181
1796.000000;0.794622
1795.000000;0.795187
1794.000000;0.795550
1793.000000;0.795704
1792.000000;0.796045
1791.000000;0.796879
1790.000000;0.798038
1789.000000;0.799106
1788.000000;0.799918
1787.000000;0.800615
1786.000000;0.801271
1785.000000;0.801786
1784.000000;0.802176
1783.000000;0.802633
1782.000000;0.803202
1781.000000;0.803574
1780.000000;0.803458
1779.000000;0.803008
1778.000000;0.802699
1777.000000;0.802940
1776.000000;0.803809
1775.000000;0.805064
1774.000000;0.806268
1773.000000;0.806997
1772.000000;0.807136
1771.000000;0.807032
1770.000000;0.807185
1769.000000;0.807751
1768.000000;0.808557
1767.000000;0.809491
1766.000000;0.810656
1765.000000;0.812098
1764.000000;0.813560
1763.000000;0.814676
1762.000000;0.815320
1761.000000;0.815667
1760.000000;0.816028
1759.000000;0.816545
1758.000000;0.817065
1757.000000;0.817339
1756.000000;0.817215
1755.000000;0.816782
1754.000000;0.816313
1753.000000;0.816045
1752.000000;0.816099
1751.000000;0.816515
1750.000000;0.817303
1749.000000;0.818461
1748.000000;0.819773
1747.000000;0.820778
1746.000000;0.821227
1745.000000;0.821354
1744.000000;0.821598
1743.000000;0.822101
1742.000000;0.822687
1741.000000;0.823298
1740.000000;0.824082
1739.000000;0.824996
1738.000000;0.825750
1737.000000;0.826296
1736.000000;0.826986
1735.000000;0.828123
1734.000000;0.829356
1733.000000;0.829970
1732.000000;0.829958
1731.000000;0.829904
1730.000000;0.830119
1729.000000;0.830582
1728.000000;0.831213
1727.000000;0.831910
1726.000000;0.832457
1725.000000;0.832639
1724.000000;0.832581
1723.000000;0.832677
1722.000000;0.833177
1721.000000;0.834032
1720.000000;0.835057
1719.000000;0.836117
1718.000000;0.837056
1717.000000;0.837695
1716.000000;0.838110
1715.000000;0.838574
1714.000000;0.839209
1713.000000;0.839935
1712.000000;0.840607
1711.000000;0.841098
1710.000000;0.841374
1709.000000;0.841586
1708.000000;0.841990
1707.000000;0.842729
1706.000000;0.843636
1705.000000;0.844394
1704.000000;0.844905
1703.000000;0.845398
1702.000000;0.846178
1701.000000;0.847401
1700.000000;0.848730
1699.000000;0.849647
1698.000000;0.850266
1697.000000;0.850842
1696.000000;0.851278
1695.000000;0.851314
1694.000000;0.850969
1693.000000;0.850741
1692.000000;0.850968
1691.000000;0.851457
1690.000000;0.851772
1689.000000;0.851739
1688.000000;0.851650
1687.000000;0.851996
1686.000000;0.852955
1685.000000;0.854271
1684.000000;0.855337
1683.000000;0.855638
1682.000000;0.855461
1681.000000;0.855488
1680.000000;0.856020
1679.000000;0.856880
1678.000000;0.857671
1677.000000;0.858184
1676.000000;0.858623
1675.000000;0.859256
1674.000000;0.860080
1673.000000;0.860956
1672.000000;0.861771
1671.000000;0.862476
1670.000000;0.863139
1669.000000;0.863910
1668.000000;0.864866
1667.000000;0.865839
1666.000000;0.866410
1665.000000;0.866384
1664.000000;0.866191
1663.000000;0.866386
1662.000000;0.866940
1661.000000;0.867390
1660.000000;0.867531
1659.000000;0.867691
1658.000000;0.868242
1657.000000;0.869099
1656.000000;0.869866
1655.000000;0.870409
1654.000000;0.870993
1653.000000;0.871660
1652.000000;0.872090
1651.000000;0.872509
1650.000000;0.873248
1649.000000;0.874032
1648.000000;0.874638
1647.000000;0.875095
1646.000000;0.875420
1645.000000;0.875768
1644.000000;0.876561
1643.000000;0.877999
1642.000000;0.879663
1641.000000;0.880849
1640.000000;0.881269
1639.000000;0.881359
1638.000000;0.881763
1637.000000;0.882680
1636.000000;0.883706
1635.000000;0.884277
1634.000000;0.884274
1633.000000;0.884155
1632.000000;0.884366
1631.000000;0.884952
1630.000000;0.885807
1629.000000;0.886867
1628.000000;0.888076
1627.000000;0.889265
1626.000000;0.890216
1625.000000;0.890846
1624.000000;0.891299
1623.000000;0.891736
1622.000000;0.892139
1621.000000;0.892445
1620.000000;0.892719
1619.000000;0.893107
1618.000000;0.893655
1617.000000;0.894229
1616.000000;0.894619
1615.000000;0.894831
1614.000000;0.895092
1613.000000;0.895558
1612.000000;0.896253
1611.000000;0.897097
1610.000000;0.897847
1609.000000;0.898180
1608.000000;0.898009
1607.000000;0.897644
1606.000000;0.897549
1605.000000;0.897945
1604.000000;0.898708
1603.000000;0.899610
1602.000000;0.900484
1601.000000;0.901259
1600.000000;0.901952
1599.000000;0.902621
1598.000000;0.903276
1597.000000;0.903863
1596.000000;0.904385
1595.000000;0.904972
1594.000000;0.905736
1593.000000;0.906598
1592.000000;0.907364
1591.000000;0.907976
1590.000000;0.908568
1589.000000;0.909248
1588.000000;0.909932
1587.000000;0.910488
1586.000000;0.910940
1585.000000;0.911420
1584.000000;0.911893
1583.000000;0.912202
1582.000000;0.912381
1581.000000;0.912737
1580.000000;0.913477
1579.000000;0.914413
1578.000000;0.915194
1577.000000;0.915762
1576.000000;0.916286
1575.000000;0.916750
1574.000000;0.917059
1573.000000;0.917387
1572.000000;0.918159
1571.000000;0.919615
1570.000000;0.921325
1569.000000;0.922504
1568.000000;0.922830
1567.000000;0.922667
1566.000000;0.922442
1565.000000;0.922291
1564.000000;0.922237
1563.000000;0.922337
1562.000000;0.922591
1561.000000;0.922983
1560.000000;0.923681
1559.000000;0.924617
1558.000000;0.925388
1557.000000;0.926031
1556.000000;0.926861
1555.000000;0.927803
1554.000000;0.928599
1553.000000;0.929196
1552.000000;0.929792
1551.000000;0.930466
1550.000000;0.930928
1549.000000;0.931034
1548.000000;0.931285
1547.000000;0.932336
1546.000000;0.933990
1545.000000;0.935158
1544.000000;0.935042
1543.000000;0.934056
1542.000000;0.933270
1541.000000;0.933319
1540.000000;0.934094
1539.000000;0.935146
1538.000000;0.936131
1537.000000;0.936907
1536.000000;0.937407
1535.000000;0.937782
1534.000000;0.938364
1533.000000;0.939139
1532.000000;0.939851
1531.000000;0.940468
1530.000000;0.941114
1529.000000;0.941846
1528.000000;0.942648
1527.000000;0.943550
1526.000000;0.944541
1525.000000;0.945351
1524.000000;0.945666
1523.000000;0.945610
1522.000000;0.945763
1521.000000;0.946478
1520.000000;0.947446
1519.000000;0.948158
1518.000000;0.948451
1517.000000;0.948635
1516.000000;0.949195
1515.000000;0.950316
1514.000000;0.951746
1513.000000;0.952980
1512.000000;0.953658
1511.000000;0.953777
1510.000000;0.953607
1509.000000;0.953498
1508.000000;0.953716
1507.000000;0.954258
1506.000000;0.954844
1505.000000;0.955329
1504.000000;0.955992
1503.000000;0.957044
1502.000000;0.958319
1501.000000;0.959563
1500.000000;0.960593
1499.000000;0.961310
1498.000000;0.961655
1497.000000;0.961612
1496.000000;0.961322
1495.000000;0.961109
1494.000000;0.961372
1493.000000;0.962257
1492.000000;0.963467
1491.000000;0.964463
1490.000000;0.964880
1489.000000;0.964924
1488.000000;0.965267
1487.000000;0.966287
1486.000000;0.967572
1485.000000;0.968374
1484.000000;0.968396
1483.000000;0.968126
1482.000000;0.968271
1481.000000;0.969020
1480.000000;0.969999
1479.000000;0.970787
1478.000000;0.971320
1477.000000;0.971824
1476.000000;0.972567
1475.000000;0.973663
1474.000000;0.975023
1473.000000;0.976282
1472.000000;0.976913
1471.000000;0.976704
1470.000000;0.976046
1469.000000;0.975627
1468.000000;0.975931
1467.000000;0.976967
1466.000000;0.978318
1465.000000;0.979424
1464.000000;0.979938
1463.000000;0.980011
1462.000000;0.980084
1461.000000;0.980419
1460.000000;0.980923
1459.000000;0.981423
1458.000000;0.981921
1457.000000;0.982447
1456.000000;0.982844
1455.000000;0.983084
1454.000000;0.983368
1453.000000;0.983772
1452.000000;0.984280
1451.000000;0.984898
1450.000000;0.985681
1449.000000;0.986718
1448.000000;0.987995
1447.000000;0.989255
1446.000000;0.990149
1445.000000;0.990430
1444.000000;0.990079
1443.000000;0.989370
1442.000000;0.988815
1441.000000;0.988929
1440.000000;0.989835
1439.000000;0.991148
1438.000000;0.992371
1437.000000;0.993398
1436.000000;0.994420
1435.000000;0.995578
1434.000000;0.996750
1433.000000;0.997655
1432.000000;0.998211
1431.000000;0.998537
1430.000000;0.998639
1429.000000;0.998458
1428.000000;0.998214
1427.000000;0.998386
1426.000000;0.999308
1425.000000;1.000783
1424.000000;1.002162
1423.000000;1.002841
1422.000000;1.002728
1421.000000;1.002358
1420.000000;1.002467
1419.000000;1.003258
1418.000000;1.004168
1417.000000;1.004569
1416.000000;1.004450
1415.000000;1.004344
1414.000000;1.004799
1413.000000;1.005885
1412.000000;1.007187
1411.000000;1.008188
1410.000000;1.008660
1409.000000;1.008788
1408.000000;1.008937
1407.000000;1.009239
1406.000000;1.009552
1405.000000;1.009830
1404.000000;1.010381
1403.000000;1.011591
1402.000000;1.013375
1401.000000;1.015096
1400.000000;1.016034
1399.000000;1.015900
1398.000000;1.015023
1397.000000;1.014198
1396.000000;1.014213
1395.000000;1.015284
1394.000000;1.016918
1393.000000;1.018371
1392.000000;1.019283
1391.000000;1.019782
1390.000000;1.020141
1389.000000;1.020542
1388.000000;1.021037
1387.000000;1.021519
1386.000000;1.021826
1385.000000;1.022040
1384.000000;1.022540
1383.000000;1.023563
1382.000000;1.024757
1381.000000;1.025460
1380.000000;1.025456
1379.000000;1.025155
1378.000000;1.025003
1377.000000;1.025043
1376.000000;1.025203
1375.000000;1.025664
1374.000000;1.026635
1373.000000;1.027909
1372.000000;1.029004
1371.000000;1.029705
1370.000000;1.030243
1369.000000;1.030872
1368.000000;1.031492
1367.000000;1.031844
1366.000000;1.031942
1365.000000;1.032166
1364.000000;1.032893
1363.000000;1.034097
1362.000000;1.035379
1361.000000;1.036346
1360.000000;1.036887
1359.000000;1.037110
1358.000000;1.037171
1357.000000;1.037213
1356.000000;1.037306
1355.000000;1.037368
1354.000000;1.037290
1353.000000;1.037220
1352.000000;1.037591
1351.000000;1.038655
1350.000000;1.040133
1349.000000;1.041491
1348.000000;1.042473
1347.000000;1.043154
1346.000000;1.043555
1345.000000;1.043540
1344.000000;1.043134
1343.000000;1.042659
1342.000000;1.042504
1341.000000;1.042926
1340.000000;1.044028
1339.000000;1.045622
1338.000000;1.047107
1337.000000;1.047866
1336.000000;1.047968
1335.000000;1.048160
1334.000000;1.048973
1333.000000;1.050094
1332.000000;1.050863
1331.000000;1.051103
1330.000000;1.051179
1329.000000;1.051397
1328.000000;1.051714
1327.000000;1.051931
1326.000000;1.051912
1325.000000;1.051663
1324.000000;1.051467
1323.000000;1.051903
1322.000000;1.053415
1321.000000;1.055798
1320.000000;1.058275
1319.000000;1.060113
1318.000000;1.061040
1317.000000;1.061095
1316.000000;1.060388
1315.000000;1.059178
1314.000000;1.057991
1313.000000;1.057424
1312.000000;1.057746
1311.000000;1.058710
1310.000000;1.059797
1309.000000;1.060671
1308.000000;1.061399
1307.000000;1.062223
1306.000000;1.063209
1305.000000;1.064227
1304.000000;1.065239
1303.000000;1.066328
1302.000000;1.067383
1301.000000;1.068030
1300.000000;1.068099
1299.000000;1.067965
1298.000000;1.068156
1297.000000;1.068751
1296.000000;1.069431
1295.000000;1.070031
1294.000000;1.070680
1293.000000;1.071394
1292.000000;1.071900
1291.000000;1.072056
1290.000000;1.072168
1289.000000;1.072655
1288.000000;1.073551
1287.000000;1.074531
1286.000000;1.075363
1285.000000;1.076107
1284.000000;1.076891
1283.000000;1.077645
1282.000000;1.078131
1281.000000;1.078174
1280.000000;1.077875
1279.000000;1.077618
1278.000000;1.077836
1277.000000;1.078663
1276.000000;1.079829
1275.000000;1.080943
1274.000000;1.081880
1273.000000;1.082820
1272.000000;1.083907
1271.000000;1.084992
1270.000000;1.085807
1269.000000;1.086305
1268.000000;1.086702
1267.000000;1.087184
1266.000000;1.087700
1265.000000;1.088068
1264.000000;1.088208
1263.000000;1.088211
1262.000000;1.088232
1261.000000;1.088394
1260.000000;1.088730
1259.000000;1.089151
1258.000000;1.089491
1257.000000;1.089635
1256.000000;1.089588
1255.000000;1.089408
1254.000000;1.089162
1253.000000;1.089014
1252.000000;1.089272
1251.000000;1.090177
1250.000000;1.091632
1249.000000;1.093205
1248.000000;1.094443
1247.000000;1.095164
1246.000000;1.095511
1245.000000;1.095810
1244.000000;1.096342
1243.000000;1.097147
1242.000000;1.098061
1241.000000;1.098937
1240.000000;1.099765
1239.000000;1.100486
1238.000000;1.100907
1237.000000;1.101001
1236.000000;1.101137
1235.000000;1.101674
1234.000000;1.102378
1233.000000;1.102620
1232.000000;1.102230
1231.000000;1.101826
1230.000000;1.102122
1229.000000;1.103243
1228.000000;1.104836
1227.000000;1.106545
1226.000000;1.108058
1225.000000;1.108984
1224.000000;1.109110
1223.000000;1.108778
1222.000000;1.108670
1221.000000;1.109146
1220.000000;1.109945
1219.000000;1.110510
1218.000000;1.110513
1217.000000;1.110140
1216.000000;1.109997
1215.000000;1.110642
1214.000000;1.112016
1213.000000;1.113376
1212.000000;1.113978
1211.000000;1.113797
1210.000000;1.113398
1209.000000;1.113223
1208.000000;1.113289
1207.000000;1.113536
1206.000000;1.114113
1205.000000;1.115131
1204.000000;1.116340
1203.000000;1.117291
1202.000000;1.117736
1201.000000;1.117827
1200.000000;1.117878
