Criado como novo conjunto de dados;"0307_DANIEL.spp","2881.8 Secs"
cm-1;Abs
10000.000000;0.257223
9999.000000;0.256382
9998.000000;0.255446
9997.000000;0.254360
9996.000000;0.253215
9995.000000;0.252090
9994.000000;0.250944
9993.000000;0.249695
9992.000000;0.248367
9991.000000;0.247078
9990.000000;0.245907
9989.000000;0.244854
9988.000000;0.243898
9987.000000;0.243027
9986.000000;0.242179
9985.000000;0.241235
9984.000000;0.240130
9983.000000;0.238927
9982.000000;0.237725
9981.000000;0.236546
9980.000000;0.235366
9979.000000;0.234225
9978.000000;0.233213
9977.000000;0.232347
9976.000000;0.231517
9975.000000;0.230583
9974.000000;0.229473
9973.000000;0.228206
9972.000000;0.226861
9971.000000;0.225557
9970.000000;0.224396
9969.000000;0.223383
9968.000000;0.222416
9967.000000;0.221394
9966.000000;0.220306
9965.000000;0.219208
9964.000000;0.218119
9963.000000;0.217002
9962.000000;0.215818
9961.000000;0.214585
9960.000000;0.213359
9959.000000;0.212191
9958.000000;0.211096
9957.000000;0.210035
9956.000000;0.208934
9955.000000;0.207733
9954.000000;0.206449
9953.000000;0.205183
9952.000000;0.204033
9951.000000;0.203003
9950.000000;0.201998
9949.000000;0.200920
9948.000000;0.199746
9947.000000;0.198519
9946.000000;0.197282
9945.000000;0.196050
9944.000000;0.194830
9943.000000;0.193616
9942.000000;0.192364
9941.000000;0.191021
9940.000000;0.189596
9939.000000;0.188186
9938.000000;0.186904
9937.000000;0.185784
9936.000000;0.184786
9935.000000;0.183858
9934.000000;0.182959
9933.000000;0.182027
9932.000000;0.180981
9931.000000;0.179785
9930.000000;0.178504
9929.000000;0.177262
9928.000000;0.176118
9927.000000;0.175002
9926.000000;0.173782
9925.000000;0.172416
9924.000000;0.171012
9923.000000;0.169712
9922.000000;0.168537
9921.000000;0.167386
9920.000000;0.166167
9919.000000;0.164893
9918.000000;0.163600
9917.000000;0.162274
9916.000000;0.160903
9915.000000;0.159569
9914.000000;0.158399
9913.000000;0.157416
9912.000000;0.156502
9911.000000;0.155515
9910.000000;0.154407
9909.000000;0.153209
9908.000000;0.151948
9907.000000;0.150634
9906.000000;0.149286
9905.000000;0.147942
9904.000000;0.146639
9903.000000;0.145394
9902.000000;0.144178
9901.000000;0.142923
9900.000000;0.141582
9899.000000;0.140199
9898.000000;0.138884
9897.000000;0.137692
9896.000000;0.136560
9895.000000;0.135398
9894.000000;0.134176
9893.000000;0.132899
9892.000000;0.131541
9891.000000;0.130088
9890.000000;0.128613
9889.000000;0.127242
9888.000000;0.126016
9887.000000;0.124862
9886.000000;0.123710
9885.000000;0.122552
9884.000000;0.121374
9883.000000;0.120101
9882.000000;0.118689
9881.000000;0.117227
9880.000000;0.115871
9879.000000;0.114679
9878.000000;0.113560
9877.000000;0.112384
9876.000000;0.111096
9875.000000;0.109734
9874.000000;0.108380
9873.000000;0.107083
9872.000000;0.105823
9871.000000;0.104527
9870.000000;0.103162
9869.000000;0.101784
9868.000000;0.100474
9867.000000;0.099225
9866.000000;0.097956
9865.000000;0.096600
9864.000000;0.095155
9863.000000;0.093646
9862.000000;0.092110
9861.000000;0.090617
9860.000000;0.089244
9859.000000;0.088002
9858.000000;0.086823
9857.000000;0.085647
9856.000000;0.084457
9855.000000;0.083240
9854.000000;0.081939
9853.000000;0.080498
9852.000000;0.078918
9851.000000;0.077244
9850.000000;0.075558
9849.000000;0.073982
9848.000000;0.072623
9847.000000;0.071450
9846.000000;0.070284
9845.000000;0.068968
9844.000000;0.067517
9843.000000;0.066062
9842.000000;0.064672
9841.000000;0.063320
9840.000000;0.061959
9839.000000;0.060577
9838.000000;0.059176
9837.000000;0.057778
9836.000000;0.056443
9835.000000;0.055198
9834.000000;0.053958
9833.000000;0.052594
9832.000000;0.051093
9831.000000;0.049585
9830.000000;0.048167
9829.000000;0.046794
9828.000000;0.045366
9827.000000;0.043858
9826.000000;0.042314
9825.000000;0.040771
9824.000000;0.039256
9823.000000;0.037816
9822.000000;0.036473
9821.000000;0.035152
9820.000000;0.033731
9819.000000;0.032172
9818.000000;0.030558
9817.000000;0.028985
9816.000000;0.027451
9815.000000;0.025903
9814.000000;0.024341
9813.000000;0.022844
9812.000000;0.021470
9811.000000;0.020177
9810.000000;0.018851
9809.000000;0.017410
9808.000000;0.015850
9807.000000;0.014216
9806.000000;0.012585
9805.000000;0.011036
9804.000000;0.009600
9803.000000;0.008215
9802.000000;0.006776
9801.000000;0.005271
9800.000000;0.003804
9799.000000;0.002461
9798.000000;0.001193
9797.000000;-0.000138
9796.000000;-0.001612
9795.000000;-0.003214
9794.000000;-0.004889
9793.000000;-0.006567
9792.000000;-0.008161
9791.000000;-0.009629
9790.000000;-0.011042
9789.000000;-0.012526
9788.000000;-0.014106
9787.000000;-0.015688
9786.000000;-0.017192
9785.000000;-0.018646
9784.000000;-0.020121
9783.000000;-0.021647
9782.000000;-0.023239
9781.000000;-0.024936
9780.000000;-0.026728
9779.000000;-0.028507
9778.000000;-0.030150
9777.000000;-0.031651
9776.000000;-0.033116
9775.000000;-0.034622
9774.000000;-0.036158
9773.000000;-0.037681
9772.000000;-0.039182
9771.000000;-0.040676
9770.000000;-0.042187
9769.000000;-0.043759
9768.000000;-0.045433
9767.000000;-0.047182
9766.000000;-0.048889
9765.000000;-0.050459
9764.000000;-0.051932
9763.000000;-0.053464
9762.000000;-0.055158
9761.000000;-0.056956
9760.000000;-0.058733
9759.000000;-0.060454
9758.000000;-0.062187
9757.000000;-0.063953
9756.000000;-0.065656
9755.000000;-0.067200
9754.000000;-0.068639
9753.000000;-0.070115
9752.000000;-0.071706
9751.000000;-0.073381
9750.000000;-0.075107
9749.000000;-0.076882
9748.000000;-0.078659
9747.000000;-0.080349
9746.000000;-0.081935
9745.000000;-0.083524
9744.000000;-0.085211
9743.000000;-0.086954
9742.000000;-0.088654
9741.000000;-0.090303
9740.000000;-0.091972
9739.000000;-0.093668
9738.000000;-0.095322
9737.000000;-0.096914
9736.000000;-0.098522
9735.000000;-0.100211
9734.000000;-0.101946
9733.000000;-0.103652
9732.000000;-0.105325
9731.000000;-0.107033
9730.000000;-0.108832
9729.000000;-0.110709
9728.000000;-0.112593
9727.000000;-0.114394
9726.000000;-0.116063
9725.000000;-0.117646
9724.000000;-0.119257
9723.000000;-0.120963
9722.000000;-0.122703
9721.000000;-0.124377
9720.000000;-0.125992
9719.000000;-0.127684
9718.000000;-0.129551
9717.000000;-0.131525
9716.000000;-0.133443
9715.000000;-0.135208
9714.000000;-0.136863
9713.000000;-0.138506
9712.000000;-0.140202
9711.000000;-0.141975
9710.000000;-0.143836
9709.000000;-0.145759
9708.000000;-0.147670
9707.000000;-0.149519
9706.000000;-0.151353
9705.000000;-0.153285
9704.000000;-0.155338
9703.000000;-0.157381
9702.000000;-0.159243
9701.000000;-0.160892
9700.000000;-0.162478
9699.000000;-0.164187
9698.000000;-0.166093
9697.000000;-0.168134
9696.000000;-0.170190
9695.000000;-0.172168
9694.000000;-0.174036
9693.000000;-0.175822
9692.000000;-0.177592
9691.000000;-0.179408
9690.000000;-0.181287
9689.000000;-0.183196
9688.000000;-0.185094
9687.000000;-0.186979
9686.000000;-0.188883
9685.000000;-0.190840
9684.000000;-0.192837
9683.000000;-0.194829
9682.000000;-0.196785
9681.000000;-0.198733
9680.000000;-0.200727
9679.000000;-0.202774
9678.000000;-0.204788
9677.000000;-0.206674
9676.000000;-0.208444
9675.000000;-0.210240
9674.000000;-0.212192
9673.000000;-0.214282
9672.000000;-0.216377
9671.000000;-0.218389
9670.000000;-0.220333
9669.000000;-0.222251
9668.000000;-0.224138
9667.000000;-0.225993
9666.000000;-0.227888
9665.000000;-0.229902
9664.000000;-0.232014
9663.000000;-0.234114
9662.000000;-0.236141
9661.000000;-0.238125
9660.000000;-0.240107
9659.000000;-0.242065
9658.000000;-0.243965
9657.000000;-0.245853
9656.000000;-0.247825
9655.000000;-0.249924
9654.000000;-0.252098
9653.000000;-0.254238
9652.000000;-0.256263
9651.000000;-0.258166
9650.000000;-0.260033
9649.000000;-0.261986
9648.000000;-0.264087
9647.000000;-0.266291
9646.000000;-0.268500
9645.000000;-0.270644
9644.000000;-0.272690
9643.000000;-0.274632
9642.000000;-0.276519
9641.000000;-0.278481
9640.000000;-0.280628
9639.000000;-0.282917
9638.000000;-0.285166
9637.000000;-0.287248
9636.000000;-0.289215
9635.000000;-0.291202
9634.000000;-0.293265
9633.000000;-0.295388
9632.000000;-0.297577
9631.000000;-0.299860
9630.000000;-0.302181
9629.000000;-0.304404
9628.000000;-0.306461
9627.000000;-0.308446
9626.000000;-0.310499
9625.000000;-0.312644
9624.000000;-0.314786
9623.000000;-0.316845
9622.000000;-0.318842
9621.000000;-0.320854
9620.000000;-0.322926
9619.000000;-0.325048
9618.000000;-0.327196
9617.000000;-0.329356
9616.000000;-0.331532
9615.000000;-0.333735
9614.000000;-0.335968
9613.000000;-0.338234
9612.000000;-0.340533
9611.000000;-0.342858
9610.000000;-0.345177
9609.000000;-0.347444
9608.000000;-0.349619
9607.000000;-0.351693
9606.000000;-0.353687
9605.000000;-0.355674
9604.000000;-0.357769
9603.000000;-0.360047
9602.000000;-0.362459
9601.000000;-0.364854
9600.000000;-0.367127
9599.000000;-0.369304
9598.000000;-0.371470
9597.000000;-0.373669
9596.000000;-0.375895
9595.000000;-0.378147
9594.000000;-0.380418
9593.000000;-0.382667
9592.000000;-0.384861
9591.000000;-0.387035
9590.000000;-0.389238
9589.000000;-0.391455
9588.000000;-0.393620
9587.000000;-0.395727
9586.000000;-0.397851
9585.000000;-0.400058
9584.000000;-0.402325
9583.000000;-0.404604
9582.000000;-0.406900
9581.000000;-0.409263
9580.000000;-0.411698
9579.000000;-0.414120
9578.000000;-0.416422
9577.000000;-0.418591
9576.000000;-0.420744
9575.000000;-0.423013
9574.000000;-0.425381
9573.000000;-0.427698
9572.000000;-0.429880
9571.000000;-0.432030
9570.000000;-0.434290
9569.000000;-0.436654
9568.000000;-0.439011
9567.000000;-0.441316
9566.000000;-0.443599
9565.000000;-0.445819
9564.000000;-0.447894
9563.000000;-0.449872
9562.000000;-0.451953
9561.000000;-0.454253
9560.000000;-0.456653
9559.000000;-0.458972
9558.000000;-0.461172
9557.000000;-0.463333
9556.000000;-0.465508
9555.000000;-0.467707
9554.000000;-0.469954
9553.000000;-0.472252
9552.000000;-0.474534
9551.000000;-0.476733
9550.000000;-0.478881
9549.000000;-0.481040
9548.000000;-0.483197
9547.000000;-0.485297
9546.000000;-0.487353
9545.000000;-0.489415
9544.000000;-0.491463
9543.000000;-0.493424
9542.000000;-0.495309
9541.000000;-0.497249
9540.000000;-0.499346
9539.000000;-0.501584
9538.000000;-0.503875
9537.000000;-0.506153
9536.000000;-0.508391
9535.000000;-0.510578
9534.000000;-0.512717
9533.000000;-0.514806
9532.000000;-0.516835
9531.000000;-0.518811
9530.000000;-0.520776
9529.000000;-0.522738
9528.000000;-0.524629
9527.000000;-0.526391
9526.000000;-0.528103
9525.000000;-0.529941
9524.000000;-0.531994
9523.000000;-0.534195
9522.000000;-0.536406
9521.000000;-0.538530
9520.000000;-0.540523
9519.000000;-0.542391
9518.000000;-0.544199
9517.000000;-0.546014
9516.000000;-0.547828
9515.000000;-0.549567
9514.000000;-0.551218
9513.000000;-0.552870
9512.000000;-0.554601
9511.000000;-0.556386
9510.000000;-0.558161
9509.000000;-0.559914
9508.000000;-0.561660
9507.000000;-0.563383
9506.000000;-0.565057
9505.000000;-0.566712
9504.000000;-0.568409
9503.000000;-0.570143
9502.000000;-0.571824
9501.000000;-0.573369
9500.000000;-0.574793
9499.000000;-0.576222
9498.000000;-0.577783
9497.000000;-0.579472
9496.000000;-0.581138
9495.000000;-0.582642
9494.000000;-0.584018
9493.000000;-0.585418
9492.000000;-0.586901
9491.000000;-0.588357
9490.000000;-0.589663
9489.000000;-0.590843
9488.000000;-0.591999
9487.000000;-0.593164
9486.000000;-0.594304
9485.000000;-0.595443
9484.000000;-0.596670
9483.000000;-0.598010
9482.000000;-0.599362
9481.000000;-0.600590
9480.000000;-0.601622
9479.000000;-0.602476
9478.000000;-0.603238
9477.000000;-0.604020
9476.000000;-0.604905
9475.000000;-0.605890
9474.000000;-0.606893
9473.000000;-0.607822
9472.000000;-0.608628
9471.000000;-0.609322
9470.000000;-0.609978
9469.000000;-0.610714
9468.000000;-0.611614
9467.000000;-0.612638
9466.000000;-0.613640
9465.000000;-0.614465
9464.000000;-0.615044
9463.000000;-0.615423
9462.000000;-0.615749
9461.000000;-0.616189
9460.000000;-0.616790
9459.000000;-0.617413
9458.000000;-0.617878
9457.000000;-0.618187
9456.000000;-0.618525
9455.000000;-0.619032
9454.000000;-0.619621
9453.000000;-0.620081
9452.000000;-0.620308
9451.000000;-0.620384
9450.000000;-0.620475
9449.000000;-0.620684
9448.000000;-0.620973
9447.000000;-0.621184
9446.000000;-0.621171
9445.000000;-0.620946
9444.000000;-0.620687
9443.000000;-0.620568
9442.000000;-0.620606
9441.000000;-0.620697
9440.000000;-0.620754
9439.000000;-0.620762
9438.000000;-0.620725
9437.000000;-0.620625
9436.000000;-0.620439
9435.000000;-0.620159
9434.000000;-0.619802
9433.000000;-0.619425
9432.000000;-0.619113
9431.000000;-0.618903
9430.000000;-0.618722
9429.000000;-0.618435
9428.000000;-0.617982
9427.000000;-0.617422
9426.000000;-0.616859
9425.000000;-0.616345
9424.000000;-0.615865
9423.000000;-0.615383
9422.000000;-0.614889
9421.000000;-0.614397
9420.000000;-0.613917
9419.000000;-0.613413
9418.000000;-0.612831
9417.000000;-0.612176
9416.000000;-0.611540
9415.000000;-0.611006
9414.000000;-0.610545
9413.000000;-0.610038
9412.000000;-0.609393
9411.000000;-0.608618
9410.000000;-0.607776
9409.000000;-0.606937
9408.000000;-0.606146
9407.000000;-0.605409
9406.000000;-0.604669
9405.000000;-0.603844
9404.000000;-0.602904
9403.000000;-0.601899
9402.000000;-0.600891
9401.000000;-0.599899
9400.000000;-0.598915
9399.000000;-0.597948
9398.000000;-0.597021
9397.000000;-0.596134
9396.000000;-0.595263
9395.000000;-0.594387
9394.000000;-0.593507
9393.000000;-0.592622
9392.000000;-0.591710
9391.000000;-0.590736
9390.000000;-0.589683
9389.000000;-0.588579
9388.000000;-0.587475
9387.000000;-0.586397
9386.000000;-0.585313
9385.000000;-0.584164
9384.000000;-0.582937
9383.000000;-0.581678
9382.000000;-0.580440
9381.000000;-0.579222
9380.000000;-0.578007
9379.000000;-0.576826
9378.000000;-0.575744
9377.000000;-0.574751
9376.000000;-0.573723
9375.000000;-0.572529
9374.000000;-0.571174
9373.000000;-0.569800
9372.000000;-0.568522
9371.000000;-0.567319
9370.000000;-0.566112
9369.000000;-0.564890
9368.000000;-0.563706
9367.000000;-0.562574
9366.000000;-0.561452
9365.000000;-0.560319
9364.000000;-0.559200
9363.000000;-0.558090
9362.000000;-0.556923
9361.000000;-0.555660
9360.000000;-0.554360
9359.000000;-0.553106
9358.000000;-0.551898
9357.000000;-0.550672
9356.000000;-0.549393
9355.000000;-0.548066
9354.000000;-0.546676
9353.000000;-0.545198
9352.000000;-0.543692
9351.000000;-0.542303
9350.000000;-0.541138
9349.000000;-0.540159
9348.000000;-0.539227
9347.000000;-0.538219
9346.000000;-0.537073
9345.000000;-0.535780
9344.000000;-0.534382
9343.000000;-0.532978
9342.000000;-0.531654
9341.000000;-0.530393
9340.000000;-0.529085
9339.000000;-0.527665
9338.000000;-0.526206
9337.000000;-0.524860
9336.000000;-0.523704
9335.000000;-0.522670
9334.000000;-0.521623
9333.000000;-0.520478
9332.000000;-0.519239
9331.000000;-0.517953
9330.000000;-0.516663
9329.000000;-0.515387
9328.000000;-0.514128
9327.000000;-0.512883
9326.000000;-0.511660
9325.000000;-0.510468
9324.000000;-0.509302
9323.000000;-0.508138
9322.000000;-0.506968
9321.000000;-0.505817
9320.000000;-0.504695
9319.000000;-0.503537
9318.000000;-0.502243
9317.000000;-0.500801
9316.000000;-0.499331
9315.000000;-0.497970
9314.000000;-0.496740
9313.000000;-0.495559
9312.000000;-0.494371
9311.000000;-0.493215
9310.000000;-0.492154
9309.000000;-0.491163
9308.000000;-0.490114
9307.000000;-0.488876
9306.000000;-0.487433
9305.000000;-0.485911
9304.000000;-0.484478
9303.000000;-0.483210
9302.000000;-0.482057
9301.000000;-0.480927
9300.000000;-0.479784
9299.000000;-0.478643
9298.000000;-0.477491
9297.000000;-0.476272
9296.000000;-0.474957
9295.000000;-0.473604
9294.000000;-0.472334
9293.000000;-0.471228
9292.000000;-0.470271
9291.000000;-0.469353
9290.000000;-0.468333
9289.000000;-0.467135
9288.000000;-0.465813
9287.000000;-0.464522
9286.000000;-0.463383
9285.000000;-0.462361
9284.000000;-0.461299
9283.000000;-0.460094
9282.000000;-0.458805
9281.000000;-0.457588
9280.000000;-0.456522
9279.000000;-0.455542
9278.000000;-0.454541
9277.000000;-0.453487
9276.000000;-0.452418
9275.000000;-0.451353
9274.000000;-0.450266
9273.000000;-0.449143
9272.000000;-0.448025
9271.000000;-0.446956
9270.000000;-0.445916
9269.000000;-0.444847
9268.000000;-0.443729
9267.000000;-0.442609
9266.000000;-0.441551
9265.000000;-0.440569
9264.000000;-0.439614
9263.000000;-0.438613
9262.000000;-0.437514
9261.000000;-0.436321
9260.000000;-0.435111
9259.000000;-0.434008
9258.000000;-0.433086
9257.000000;-0.432286
9256.000000;-0.431445
9255.000000;-0.430443
9254.000000;-0.429328
9253.000000;-0.428259
9252.000000;-0.427328
9251.000000;-0.426467
9250.000000;-0.425538
9249.000000;-0.424496
9248.000000;-0.423414
9247.000000;-0.422375
9246.000000;-0.421389
9245.000000;-0.420429
9244.000000;-0.419492
9243.000000;-0.418590
9242.000000;-0.417713
9241.000000;-0.416831
9240.000000;-0.415933
9239.000000;-0.415034
9238.000000;-0.414140
9237.000000;-0.413237
9236.000000;-0.412302
9235.000000;-0.411324
9234.000000;-0.410308
9233.000000;-0.409280
9232.000000;-0.408282
9231.000000;-0.407341
9230.000000;-0.406449
9229.000000;-0.405572
9228.000000;-0.404695
9227.000000;-0.403826
9226.000000;-0.402962
9225.000000;-0.402075
9224.000000;-0.401152
9223.000000;-0.400210
9222.000000;-0.399277
9221.000000;-0.398350
9220.000000;-0.397421
9219.000000;-0.396519
9218.000000;-0.395699
9217.000000;-0.394968
9216.000000;-0.394259
9215.000000;-0.393475
9214.000000;-0.392577
9213.000000;-0.391613
9212.000000;-0.390683
9211.000000;-0.389872
9210.000000;-0.389183
9209.000000;-0.388522
9208.000000;-0.387764
9207.000000;-0.386847
9206.000000;-0.385832
9205.000000;-0.384840
9204.000000;-0.383942
9203.000000;-0.383120
9202.000000;-0.382327
9201.000000;-0.381553
9200.000000;-0.380814
9199.000000;-0.380092
9198.000000;-0.379347
9197.000000;-0.378573
9196.000000;-0.377816
9195.000000;-0.377114
9194.000000;-0.376428
9193.000000;-0.375667
9192.000000;-0.374789
9191.000000;-0.373853
9190.000000;-0.372977
9189.000000;-0.372242
9188.000000;-0.371628
9187.000000;-0.371036
9186.000000;-0.370350
9185.000000;-0.369523
9184.000000;-0.368618
9183.000000;-0.367769
9182.000000;-0.367069
9181.000000;-0.366487
9180.000000;-0.365891
9179.000000;-0.365181
9178.000000;-0.364379
9177.000000;-0.363580
9176.000000;-0.362838
9175.000000;-0.362130
9174.000000;-0.361441
9173.000000;-0.360795
9172.000000;-0.360192
9171.000000;-0.359561
9170.000000;-0.358833
9169.000000;-0.358040
9168.000000;-0.357275
9167.000000;-0.356568
9166.000000;-0.355857
9165.000000;-0.355107
9164.000000;-0.354377
9163.000000;-0.353743
9162.000000;-0.353198
9161.000000;-0.352673
9160.000000;-0.352133
9159.000000;-0.351578
9158.000000;-0.350990
9157.000000;-0.350341
9156.000000;-0.349654
9155.000000;-0.348995
9154.000000;-0.348390
9153.000000;-0.347793
9152.000000;-0.347152
9151.000000;-0.346479
9150.000000;-0.345812
9149.000000;-0.345169
9148.000000;-0.344559
9147.000000;-0.344010
9146.000000;-0.343530
9145.000000;-0.343051
9144.000000;-0.342456
9143.000000;-0.341701
9142.000000;-0.340864
9141.000000;-0.340075
9140.000000;-0.339402
9139.000000;-0.338819
9138.000000;-0.338267
9137.000000;-0.337731
9136.000000;-0.337239
9135.000000;-0.336802
9134.000000;-0.336379
9133.000000;-0.335914
9132.000000;-0.335410
9131.000000;-0.334908
9130.000000;-0.334418
9129.000000;-0.333886
9128.000000;-0.333265
9127.000000;-0.332585
9126.000000;-0.331926
9125.000000;-0.331338
9124.000000;-0.330815
9123.000000;-0.330333
9122.000000;-0.329874
9121.000000;-0.329418
9120.000000;-0.328959
9119.000000;-0.328505
9118.000000;-0.328064
9117.000000;-0.327610
9116.000000;-0.327095
9115.000000;-0.326509
9114.000000;-0.325897
9113.000000;-0.325316
9112.000000;-0.324793
9111.000000;-0.324311
9110.000000;-0.323824
9109.000000;-0.323287
9108.000000;-0.322690
9107.000000;-0.322075
9106.000000;-0.321503
9105.000000;-0.320991
9104.000000;-0.320512
9103.000000;-0.320048
9102.000000;-0.319616
9101.000000;-0.319234
9100.000000;-0.318878
9099.000000;-0.318504
9098.000000;-0.318081
9097.000000;-0.317604
9096.000000;-0.317093
9095.000000;-0.316594
9094.000000;-0.316141
9093.000000;-0.315708
9092.000000;-0.315225
9091.000000;-0.314660
9090.000000;-0.314078
9089.000000;-0.313589
9088.000000;-0.313242
9087.000000;-0.312988
9086.000000;-0.312720
9085.000000;-0.312340
9084.000000;-0.311812
9083.000000;-0.311193
9082.000000;-0.310609
9081.000000;-0.310158
9080.000000;-0.309838
9079.000000;-0.309566
9078.000000;-0.309259
9077.000000;-0.308883
9076.000000;-0.308443
9075.000000;-0.307970
9074.000000;-0.307504
9073.000000;-0.307079
9072.000000;-0.306698
9071.000000;-0.306351
9070.000000;-0.306041
9069.000000;-0.305767
9068.000000;-0.305496
9067.000000;-0.305178
9066.000000;-0.304799
9065.000000;-0.304385
9064.000000;-0.303960
9063.000000;-0.303522
9062.000000;-0.303068
9061.000000;-0.302630
9060.000000;-0.302246
9059.000000;-0.301913
9058.000000;-0.301592
9057.000000;-0.301250
9056.000000;-0.300902
9055.000000;-0.300589
9054.000000;-0.300333
9053.000000;-0.300103
9052.000000;-0.299848
9051.000000;-0.299540
9050.000000;-0.299195
9049.000000;-0.298836
9048.000000;-0.298455
9047.000000;-0.298043
9046.000000;-0.297639
9045.000000;-0.297303
9044.000000;-0.297044
9043.000000;-0.296794
9042.000000;-0.296476
9041.000000;-0.296088
9040.000000;-0.295683
9039.000000;-0.295306
9038.000000;-0.294961
9037.000000;-0.294648
9036.000000;-0.294386
9035.000000;-0.294185
9034.000000;-0.294016
9033.000000;-0.293821
9032.000000;-0.293553
9031.000000;-0.293215
9030.000000;-0.292855
9029.000000;-0.292538
9028.000000;-0.292294
9027.000000;-0.292094
9026.000000;-0.291876
9025.000000;-0.291609
9024.000000;-0.291314
9023.000000;-0.291029
9022.000000;-0.290768
9021.000000;-0.290526
9020.000000;-0.290301
9019.000000;-0.290082
9018.000000;-0.289828
9017.000000;-0.289511
9016.000000;-0.289176
9015.000000;-0.288896
9014.000000;-0.288676
9013.000000;-0.288444
9012.000000;-0.288165
9011.000000;-0.287897
9010.000000;-0.287703
9009.000000;-0.287540
9008.000000;-0.287305
9007.000000;-0.286966
9006.000000;-0.286578
9005.000000;-0.286198
9004.000000;-0.285844
9003.000000;-0.285526
9002.000000;-0.285267
9001.000000;-0.285065
9000.000000;-0.284894
8999.000000;-0.284748
8998.000000;-0.284641
8997.000000;-0.284562
8996.000000;-0.284466
8995.000000;-0.284321
8994.000000;-0.284130
8993.000000;-0.283910
8992.000000;-0.283692
8991.000000;-0.283529
8990.000000;-0.283442
8989.000000;-0.283353
8988.000000;-0.283142
8987.000000;-0.282795
8986.000000;-0.282424
8985.000000;-0.282109
8984.000000;-0.281819
8983.000000;-0.281510
8982.000000;-0.281234
8981.000000;-0.281059
8980.000000;-0.280946
8979.000000;-0.280806
8978.000000;-0.280632
8977.000000;-0.280482
8976.000000;-0.280363
8975.000000;-0.280219
8974.000000;-0.280034
8973.000000;-0.279866
8972.000000;-0.279754
8971.000000;-0.279650
8970.000000;-0.279476
8969.000000;-0.279214
8968.000000;-0.278915
8967.000000;-0.278650
8966.000000;-0.278457
8965.000000;-0.278326
8964.000000;-0.278221
8963.000000;-0.278136
8962.000000;-0.278088
8961.000000;-0.278052
8960.000000;-0.277931
8959.000000;-0.277665
8958.000000;-0.277320
8957.000000;-0.277019
8956.000000;-0.276805
8955.000000;-0.276625
8954.000000;-0.276444
8953.000000;-0.276293
8952.000000;-0.276191
8951.000000;-0.276097
8950.000000;-0.275978
8949.000000;-0.275865
8948.000000;-0.275802
8947.000000;-0.275774
8946.000000;-0.275721
8945.000000;-0.275600
8944.000000;-0.275412
8943.000000;-0.275194
8942.000000;-0.275001
8941.000000;-0.274873
8940.000000;-0.274798
8939.000000;-0.274728
8938.000000;-0.274623
8937.000000;-0.274468
8936.000000;-0.274258
8935.000000;-0.274001
8934.000000;-0.273753
8933.000000;-0.273607
8932.000000;-0.273606
8931.000000;-0.273693
8930.000000;-0.273766
8929.000000;-0.273746
8928.000000;-0.273620
8927.000000;-0.273422
8926.000000;-0.273217
8925.000000;-0.273067
8924.000000;-0.272996
8923.000000;-0.272976
8922.000000;-0.272961
8921.000000;-0.272904
8920.000000;-0.272763
8919.000000;-0.272539
8918.000000;-0.272312
8917.000000;-0.272194
8916.000000;-0.272214
8915.000000;-0.272257
8914.000000;-0.272173
8913.000000;-0.271930
8912.000000;-0.271633
8911.000000;-0.271406
8910.000000;-0.271277
8909.000000;-0.271184
8908.000000;-0.271086
8907.000000;-0.271030
8906.000000;-0.271094
8905.000000;-0.271293
8904.000000;-0.271536
8903.000000;-0.271703
8902.000000;-0.271705
8901.000000;-0.271506
8900.000000;-0.271137
8899.000000;-0.270742
8898.000000;-0.270531
8897.000000;-0.270620
8896.000000;-0.270908
8895.000000;-0.271160
8894.000000;-0.271220
8893.000000;-0.271109
8892.000000;-0.270926
8891.000000;-0.270750
8890.000000;-0.270615
8889.000000;-0.270511
8888.000000;-0.270375
8887.000000;-0.270133
8886.000000;-0.269808
8885.000000;-0.269543
8884.000000;-0.269470
8883.000000;-0.269581
8882.000000;-0.269732
8881.000000;-0.269779
8880.000000;-0.269700
8879.000000;-0.269599
8878.000000;-0.269615
8877.000000;-0.269789
8876.000000;-0.270011
8875.000000;-0.270122
8874.000000;-0.270047
8873.000000;-0.269834
8872.000000;-0.269578
8871.000000;-0.269337
8870.000000;-0.269123
8869.000000;-0.268913
8868.000000;-0.268670
8867.000000;-0.268422
8866.000000;-0.268289
8865.000000;-0.268389
8864.000000;-0.268680
8863.000000;-0.268972
8862.000000;-0.269117
8861.000000;-0.269115
8860.000000;-0.269038
8859.000000;-0.268918
8858.000000;-0.268769
8857.000000;-0.268647
8856.000000;-0.268599
8855.000000;-0.268585
8854.000000;-0.268514
8853.000000;-0.268371
8852.000000;-0.268237
8851.000000;-0.268201
8850.000000;-0.268270
8849.000000;-0.268386
8848.000000;-0.268490
8847.000000;-0.268563
8846.000000;-0.268622
8845.000000;-0.268686
8844.000000;-0.268738
8843.000000;-0.268748
8842.000000;-0.268705
8841.000000;-0.268610
8840.000000;-0.268444
8839.000000;-0.268196
8838.000000;-0.267922
8837.000000;-0.267728
8836.000000;-0.267664
8835.000000;-0.267677
8834.000000;-0.267682
8833.000000;-0.267636
8832.000000;-0.267525
8831.000000;-0.267348
8830.000000;-0.267158
8829.000000;-0.267050
8828.000000;-0.267053
8827.000000;-0.267083
8826.000000;-0.267051
8825.000000;-0.266975
8824.000000;-0.266925
8823.000000;-0.266897
8822.000000;-0.266823
8821.000000;-0.266692
8820.000000;-0.266569
8819.000000;-0.266500
8818.000000;-0.266459
8817.000000;-0.266386
8816.000000;-0.266216
8815.000000;-0.265880
8814.000000;-0.265373
8813.000000;-0.264842
8812.000000;-0.264537
8811.000000;-0.264608
8810.000000;-0.264970
8809.000000;-0.265389
8808.000000;-0.265679
8807.000000;-0.265777
8806.000000;-0.265695
8805.000000;-0.265456
8804.000000;-0.265106
8803.000000;-0.264748
8802.000000;-0.264522
8801.000000;-0.264514
8800.000000;-0.264687
8799.000000;-0.264907
8798.000000;-0.265063
8797.000000;-0.265143
8796.000000;-0.265187
8795.000000;-0.265198
8794.000000;-0.265114
8793.000000;-0.264894
8792.000000;-0.264575
8791.000000;-0.264266
8790.000000;-0.264062
8789.000000;-0.263995
8788.000000;-0.264015
8787.000000;-0.264039
8786.000000;-0.264011
8785.000000;-0.263922
8784.000000;-0.263791
8783.000000;-0.263650
8782.000000;-0.263538
8781.000000;-0.263479
8780.000000;-0.263444
8779.000000;-0.263373
8778.000000;-0.263265
8777.000000;-0.263192
8776.000000;-0.263197
8775.000000;-0.263204
8774.000000;-0.263093
8773.000000;-0.262841
8772.000000;-0.262545
8771.000000;-0.262306
8770.000000;-0.262150
8769.000000;-0.262044
8768.000000;-0.261927
8767.000000;-0.261740
8766.000000;-0.261474
8765.000000;-0.261208
8764.000000;-0.261050
8763.000000;-0.261020
8762.000000;-0.261038
8761.000000;-0.261035
8760.000000;-0.261015
8759.000000;-0.260992
8758.000000;-0.260936
8757.000000;-0.260820
8756.000000;-0.260673
8755.000000;-0.260553
8754.000000;-0.260483
8753.000000;-0.260464
8752.000000;-0.260502
8751.000000;-0.260587
8750.000000;-0.260643
8749.000000;-0.260580
8748.000000;-0.260383
8747.000000;-0.260132
8746.000000;-0.259920
8745.000000;-0.259780
8744.000000;-0.259699
8743.000000;-0.259646
8742.000000;-0.259564
8741.000000;-0.259392
8740.000000;-0.259137
8739.000000;-0.258918
8738.000000;-0.258861
8737.000000;-0.258942
8736.000000;-0.258989
8735.000000;-0.258875
8734.000000;-0.258656
8733.000000;-0.258493
8732.000000;-0.258456
8731.000000;-0.258474
8730.000000;-0.258457
8729.000000;-0.258393
8728.000000;-0.258320
8727.000000;-0.258251
8726.000000;-0.258183
8725.000000;-0.258116
8724.000000;-0.258038
8723.000000;-0.257918
8722.000000;-0.257760
8721.000000;-0.257635
8720.000000;-0.257602
8719.000000;-0.257626
8718.000000;-0.257616
8717.000000;-0.257536
8716.000000;-0.257436
8715.000000;-0.257378
8714.000000;-0.257386
8713.000000;-0.257446
8712.000000;-0.257520
8711.000000;-0.257551
8710.000000;-0.257494
8709.000000;-0.257377
8708.000000;-0.257285
8707.000000;-0.257259
8706.000000;-0.257253
8705.000000;-0.257202
8704.000000;-0.257115
8703.000000;-0.257065
8702.000000;-0.257094
8701.000000;-0.257142
8700.000000;-0.257094
8699.000000;-0.256906
8698.000000;-0.256681
8697.000000;-0.256595
8696.000000;-0.256737
8695.000000;-0.257004
8694.000000;-0.257206
8693.000000;-0.257254
8692.000000;-0.257220
8691.000000;-0.257230
8690.000000;-0.257314
8689.000000;-0.257389
8688.000000;-0.257359
8687.000000;-0.257217
8686.000000;-0.257063
8685.000000;-0.257023
8684.000000;-0.257138
8683.000000;-0.257326
8682.000000;-0.257475
8681.000000;-0.257554
8680.000000;-0.257610
8679.000000;-0.257662
8678.000000;-0.257660
8677.000000;-0.257567
8676.000000;-0.257444
8675.000000;-0.257423
8674.000000;-0.257589
8673.000000;-0.257914
8672.000000;-0.258288
8671.000000;-0.258601
8670.000000;-0.258789
8669.000000;-0.258859
8668.000000;-0.258871
8667.000000;-0.258897
8666.000000;-0.258979
8665.000000;-0.259113
8664.000000;-0.259272
8663.000000;-0.259427
8662.000000;-0.259557
8661.000000;-0.259647
8660.000000;-0.259706
8659.000000;-0.259781
8658.000000;-0.259929
8657.000000;-0.260151
8656.000000;-0.260368
8655.000000;-0.260494
8654.000000;-0.260534
8653.000000;-0.260592
8652.000000;-0.260762
8651.000000;-0.261037
8650.000000;-0.261326
8649.000000;-0.261548
8648.000000;-0.261694
8647.000000;-0.261808
8646.000000;-0.261943
8645.000000;-0.262123
8644.000000;-0.262331
8643.000000;-0.262527
8642.000000;-0.262697
8641.000000;-0.262871
8640.000000;-0.263083
8639.000000;-0.263327
8638.000000;-0.263566
8637.000000;-0.263780
8636.000000;-0.263965
8635.000000;-0.264115
8634.000000;-0.264221
8633.000000;-0.264301
8632.000000;-0.264387
8631.000000;-0.264497
8630.000000;-0.264634
8629.000000;-0.264813
8628.000000;-0.265056
8627.000000;-0.265349
8626.000000;-0.265635
8625.000000;-0.265859
8624.000000;-0.266027
8623.000000;-0.266198
8622.000000;-0.266419
8621.000000;-0.266681
8620.000000;-0.266926
8619.000000;-0.267102
8618.000000;-0.267219
8617.000000;-0.267352
8616.000000;-0.267567
8615.000000;-0.267861
8614.000000;-0.268184
8613.000000;-0.268506
8612.000000;-0.268823
8611.000000;-0.269130
8610.000000;-0.269401
8609.000000;-0.269621
8608.000000;-0.269803
8607.000000;-0.269975
8606.000000;-0.270155
8605.000000;-0.270352
8604.000000;-0.270555
8603.000000;-0.270746
8602.000000;-0.270914
8601.000000;-0.271068
8600.000000;-0.271228
8599.000000;-0.271397
8598.000000;-0.271582
8597.000000;-0.271814
8596.000000;-0.272121
8595.000000;-0.272483
8594.000000;-0.272843
8593.000000;-0.273175
8592.000000;-0.273502
8591.000000;-0.273840
8590.000000;-0.274160
8589.000000;-0.274428
8588.000000;-0.274643
8587.000000;-0.274819
8586.000000;-0.274964
8585.000000;-0.275092
8584.000000;-0.275248
8583.000000;-0.275474
8582.000000;-0.275766
8581.000000;-0.276077
8580.000000;-0.276369
8579.000000;-0.276634
8578.000000;-0.276889
8577.000000;-0.277154
8576.000000;-0.277435
8575.000000;-0.277707
8574.000000;-0.277938
8573.000000;-0.278125
8572.000000;-0.278310
8571.000000;-0.278534
8570.000000;-0.278802
8569.000000;-0.279096
8568.000000;-0.279406
8567.000000;-0.279746
8566.000000;-0.280120
8565.000000;-0.280502
8564.000000;-0.280840
8563.000000;-0.281078
8562.000000;-0.281200
8561.000000;-0.281262
8560.000000;-0.281373
8559.000000;-0.281620
8558.000000;-0.281993
8557.000000;-0.282401
8556.000000;-0.282736
8555.000000;-0.282950
8554.000000;-0.283067
8553.000000;-0.283170
8552.000000;-0.283347
8551.000000;-0.283633
8550.000000;-0.283985
8549.000000;-0.284320
8548.000000;-0.284590
8547.000000;-0.284812
8546.000000;-0.285035
8545.000000;-0.285288
8544.000000;-0.285557
8543.000000;-0.285809
8542.000000;-0.286026
8541.000000;-0.286222
8540.000000;-0.286428
8539.000000;-0.286672
8538.000000;-0.286968
8537.000000;-0.287327
8536.000000;-0.287742
8535.000000;-0.288165
8534.000000;-0.288510
8533.000000;-0.288726
8532.000000;-0.288851
8531.000000;-0.288996
8530.000000;-0.289248
8529.000000;-0.289595
8528.000000;-0.289947
8527.000000;-0.290223
8526.000000;-0.290412
8525.000000;-0.290566
8524.000000;-0.290751
8523.000000;-0.290998
8522.000000;-0.291289
8521.000000;-0.291580
8520.000000;-0.291848
8519.000000;-0.292108
8518.000000;-0.292394
8517.000000;-0.292711
8516.000000;-0.293027
8515.000000;-0.293316
8514.000000;-0.293592
8513.000000;-0.293887
8512.000000;-0.294200
8511.000000;-0.294485
8510.000000;-0.294703
8509.000000;-0.294866
8508.000000;-0.295032
8507.000000;-0.295263
8506.000000;-0.295579
8505.000000;-0.295941
8504.000000;-0.296283
8503.000000;-0.296557
8502.000000;-0.296773
8501.000000;-0.296973
8500.000000;-0.297184
8499.000000;-0.297402
8498.000000;-0.297628
8497.000000;-0.297877
8496.000000;-0.298149
8495.000000;-0.298413
8494.000000;-0.298644
8493.000000;-0.298870
8492.000000;-0.299132
8491.000000;-0.299438
8490.000000;-0.299754
8489.000000;-0.300047
8488.000000;-0.300303
8487.000000;-0.300511
8486.000000;-0.300681
8485.000000;-0.300856
8484.000000;-0.301085
8483.000000;-0.301363
8482.000000;-0.301645
8481.000000;-0.301902
8480.000000;-0.302147
8479.000000;-0.302399
8478.000000;-0.302648
8477.000000;-0.302889
8476.000000;-0.303138
8475.000000;-0.303405
8474.000000;-0.303675
8473.000000;-0.303934
8472.000000;-0.304177
8471.000000;-0.304386
8470.000000;-0.304529
8469.000000;-0.304617
8468.000000;-0.304720
8467.000000;-0.304895
8466.000000;-0.305119
8465.000000;-0.305333
8464.000000;-0.305538
8463.000000;-0.305794
8462.000000;-0.306111
8461.000000;-0.306427
8460.000000;-0.306683
8459.000000;-0.306901
8458.000000;-0.307143
8457.000000;-0.307429
8456.000000;-0.307730
8455.000000;-0.308005
8454.000000;-0.308235
8453.000000;-0.308417
8452.000000;-0.308569
8451.000000;-0.308732
8450.000000;-0.308950
8449.000000;-0.309232
8448.000000;-0.309540
8447.000000;-0.309828
8446.000000;-0.310076
8445.000000;-0.310294
8444.000000;-0.310502
8443.000000;-0.310714
8442.000000;-0.310940
8441.000000;-0.311184
8440.000000;-0.311444
8439.000000;-0.311706
8438.000000;-0.311955
8437.000000;-0.312176
8436.000000;-0.312366
8435.000000;-0.312537
8434.000000;-0.312697
8433.000000;-0.312839
8432.000000;-0.312948
8431.000000;-0.313038
8430.000000;-0.313158
8429.000000;-0.313347
8428.000000;-0.313593
8427.000000;-0.313852
8426.000000;-0.314104
8425.000000;-0.314358
8424.000000;-0.314613
8423.000000;-0.314833
8422.000000;-0.314999
8421.000000;-0.315142
8420.000000;-0.315311
8419.000000;-0.315508
8418.000000;-0.315698
8417.000000;-0.315873
8416.000000;-0.316072
8415.000000;-0.316332
8414.000000;-0.316634
8413.000000;-0.316917
8412.000000;-0.317131
8411.000000;-0.317272
8410.000000;-0.317368
8409.000000;-0.317457
8408.000000;-0.317564
8407.000000;-0.317708
8406.000000;-0.317906
8405.000000;-0.318166
8404.000000;-0.318472
8403.000000;-0.318786
8402.000000;-0.319063
8401.000000;-0.319284
8400.000000;-0.319456
8399.000000;-0.319606
8398.000000;-0.319763
8397.000000;-0.319944
8396.000000;-0.320139
8395.000000;-0.320318
8394.000000;-0.320477
8393.000000;-0.320656
8392.000000;-0.320892
8391.000000;-0.321153
8390.000000;-0.321361
8389.000000;-0.321482
8388.000000;-0.321574
8387.000000;-0.321722
8386.000000;-0.321952
8385.000000;-0.322224
8384.000000;-0.322494
8383.000000;-0.322747
8382.000000;-0.322976
8381.000000;-0.323164
8380.000000;-0.323295
8379.000000;-0.323383
8378.000000;-0.323474
8377.000000;-0.323602
8376.000000;-0.323767
8375.000000;-0.323940
8374.000000;-0.324109
8373.000000;-0.324299
8372.000000;-0.324539
8371.000000;-0.324809
8370.000000;-0.325050
8369.000000;-0.325229
8368.000000;-0.325373
8367.000000;-0.325527
8366.000000;-0.325698
8365.000000;-0.325863
8364.000000;-0.326019
8363.000000;-0.326188
8362.000000;-0.326385
8361.000000;-0.326594
8360.000000;-0.326802
8359.000000;-0.327019
8358.000000;-0.327263
8357.000000;-0.327523
8356.000000;-0.327770
8355.000000;-0.327986
8354.000000;-0.328177
8353.000000;-0.328360
8352.000000;-0.328555
8351.000000;-0.328777
8350.000000;-0.329021
8349.000000;-0.329260
8348.000000;-0.329450
8347.000000;-0.329569
8346.000000;-0.329632
8345.000000;-0.329683
8344.000000;-0.329769
8343.000000;-0.329926
8342.000000;-0.330153
8341.000000;-0.330396
8340.000000;-0.330576
8339.000000;-0.330671
8338.000000;-0.330748
8337.000000;-0.330896
8336.000000;-0.331124
8335.000000;-0.331357
8334.000000;-0.331542
8333.000000;-0.331704
8332.000000;-0.331895
8331.000000;-0.332105
8330.000000;-0.332275
8329.000000;-0.332381
8328.000000;-0.332465
8327.000000;-0.332579
8326.000000;-0.332739
8325.000000;-0.332935
8324.000000;-0.333157
8323.000000;-0.333378
8322.000000;-0.333550
8321.000000;-0.333648
8320.000000;-0.333707
8319.000000;-0.333802
8318.000000;-0.333972
8317.000000;-0.334193
8316.000000;-0.334415
8315.000000;-0.334623
8314.000000;-0.334826
8313.000000;-0.335020
8312.000000;-0.335177
8311.000000;-0.335279
8310.000000;-0.335337
8309.000000;-0.335384
8308.000000;-0.335448
8307.000000;-0.335545
8306.000000;-0.335688
8305.000000;-0.335873
8304.000000;-0.336073
8303.000000;-0.336248
8302.000000;-0.336385
8301.000000;-0.336505
8300.000000;-0.336631
8299.000000;-0.336763
8298.000000;-0.336892
8297.000000;-0.337031
8296.000000;-0.337215
8295.000000;-0.337461
8294.000000;-0.337740
8293.000000;-0.337986
8292.000000;-0.338145
8291.000000;-0.338208
8290.000000;-0.338228
8289.000000;-0.338282
8288.000000;-0.338414
8287.000000;-0.338609
8286.000000;-0.338814
8285.000000;-0.338990
8284.000000;-0.339129
8283.000000;-0.339238
8282.000000;-0.339329
8281.000000;-0.339415
8280.000000;-0.339509
8279.000000;-0.339615
8278.000000;-0.339729
8277.000000;-0.339859
8276.000000;-0.340023
8275.000000;-0.340222
8274.000000;-0.340428
8273.000000;-0.340597
8272.000000;-0.340703
8271.000000;-0.340752
8270.000000;-0.340779
8269.000000;-0.340819
8268.000000;-0.340885
8267.000000;-0.340967
8266.000000;-0.341054
8265.000000;-0.341160
8264.000000;-0.341302
8263.000000;-0.341462
8262.000000;-0.341587
8261.000000;-0.341640
8260.000000;-0.341647
8259.000000;-0.341679
8258.000000;-0.341781
8257.000000;-0.341931
8256.000000;-0.342078
8255.000000;-0.342207
8254.000000;-0.342352
8253.000000;-0.342548
8252.000000;-0.342769
8251.000000;-0.342949
8250.000000;-0.343046
8249.000000;-0.343077
8248.000000;-0.343078
8247.000000;-0.343069
8246.000000;-0.343069
8245.000000;-0.343118
8244.000000;-0.343245
8243.000000;-0.343426
8242.000000;-0.343600
8241.000000;-0.343725
8240.000000;-0.343806
8239.000000;-0.343859
8238.000000;-0.343896
8237.000000;-0.343940
8236.000000;-0.344022
8235.000000;-0.344141
8234.000000;-0.344250
8233.000000;-0.344306
8232.000000;-0.344323
8231.000000;-0.344359
8230.000000;-0.344453
8229.000000;-0.344587
8228.000000;-0.344712
8227.000000;-0.344793
8226.000000;-0.344827
8225.000000;-0.344840
8224.000000;-0.344866
8223.000000;-0.344930
8222.000000;-0.345031
8221.000000;-0.345146
8220.000000;-0.345242
8219.000000;-0.345293
8218.000000;-0.345296
8217.000000;-0.345277
8216.000000;-0.345275
8215.000000;-0.345321
8214.000000;-0.345414
8213.000000;-0.345530
8212.000000;-0.345644
8211.000000;-0.345751
8210.000000;-0.345857
8209.000000;-0.345965
8208.000000;-0.346057
8207.000000;-0.346112
8206.000000;-0.346138
8205.000000;-0.346175
8204.000000;-0.346259
8203.000000;-0.346379
8202.000000;-0.346493
8201.000000;-0.346562
8200.000000;-0.346581
8199.000000;-0.346566
8198.000000;-0.346548
8197.000000;-0.346557
8196.000000;-0.346603
8195.000000;-0.346668
8194.000000;-0.346729
8193.000000;-0.346780
8192.000000;-0.346834
8191.000000;-0.346892
8190.000000;-0.346946
8189.000000;-0.347000
8188.000000;-0.347075
8187.000000;-0.347178
8186.000000;-0.347286
8185.000000;-0.347370
8184.000000;-0.347421
8183.000000;-0.347445
8182.000000;-0.347448
8181.000000;-0.347433
8180.000000;-0.347414
8179.000000;-0.347405
8178.000000;-0.347410
8177.000000;-0.347423
8176.000000;-0.347431
8175.000000;-0.347434
8174.000000;-0.347454
8173.000000;-0.347531
8172.000000;-0.347679
8171.000000;-0.347843
8170.000000;-0.347937
8169.000000;-0.347920
8168.000000;-0.347844
8167.000000;-0.347794
8166.000000;-0.347804
8165.000000;-0.347849
8164.000000;-0.347895
8163.000000;-0.347935
8162.000000;-0.347976
8161.000000;-0.348016
8160.000000;-0.348050
8159.000000;-0.348075
8158.000000;-0.348092
8157.000000;-0.348103
8156.000000;-0.348111
8155.000000;-0.348120
8154.000000;-0.348129
8153.000000;-0.348126
8152.000000;-0.348103
8151.000000;-0.348074
8150.000000;-0.348070
8149.000000;-0.348110
8148.000000;-0.348166
8147.000000;-0.348176
8146.000000;-0.348108
8145.000000;-0.347996
8144.000000;-0.347912
8143.000000;-0.347889
8142.000000;-0.347903
8141.000000;-0.347929
8140.000000;-0.347980
8139.000000;-0.348070
8138.000000;-0.348160
8137.000000;-0.348186
8136.000000;-0.348139
8135.000000;-0.348082
8134.000000;-0.348090
8133.000000;-0.348172
8132.000000;-0.348274
8131.000000;-0.348335
8130.000000;-0.348340
8129.000000;-0.348316
8128.000000;-0.348298
8127.000000;-0.348296
8126.000000;-0.348308
8125.000000;-0.348332
8124.000000;-0.348364
8123.000000;-0.348386
8122.000000;-0.348383
8121.000000;-0.348373
8120.000000;-0.348398
8119.000000;-0.348463
8118.000000;-0.348502
8117.000000;-0.348440
8116.000000;-0.348275
8115.000000;-0.348090
8114.000000;-0.347978
8113.000000;-0.347978
8112.000000;-0.348074
8111.000000;-0.348219
8110.000000;-0.348360
8109.000000;-0.348448
8108.000000;-0.348462
8107.000000;-0.348421
8106.000000;-0.348360
8105.000000;-0.348299
8104.000000;-0.348234
8103.000000;-0.348151
8102.000000;-0.348054
8101.000000;-0.347974
8100.000000;-0.347950
8099.000000;-0.347992
8098.000000;-0.348050
8097.000000;-0.348051
8096.000000;-0.347972
8095.000000;-0.347865
8094.000000;-0.347803
8093.000000;-0.347806
8092.000000;-0.347826
8091.000000;-0.347805
8090.000000;-0.347728
8089.000000;-0.347630
8088.000000;-0.347555
8087.000000;-0.347517
8086.000000;-0.347498
8085.000000;-0.347469
8084.000000;-0.347423
8083.000000;-0.347388
8082.000000;-0.347396
8081.000000;-0.347448
8080.000000;-0.347498
8079.000000;-0.347497
8078.000000;-0.347434
8077.000000;-0.347336
8076.000000;-0.347241
8075.000000;-0.347171
8074.000000;-0.347130
8073.000000;-0.347118
8072.000000;-0.347123
8071.000000;-0.347127
8070.000000;-0.347115
8069.000000;-0.347100
8068.000000;-0.347111
8067.000000;-0.347156
8066.000000;-0.347201
8065.000000;-0.347198
8064.000000;-0.347128
8063.000000;-0.347018
8062.000000;-0.346916
8061.000000;-0.346858
8060.000000;-0.346845
8059.000000;-0.346842
8058.000000;-0.346809
8057.000000;-0.346735
8056.000000;-0.346641
8055.000000;-0.346561
8054.000000;-0.346504
8053.000000;-0.346447
8052.000000;-0.346365
8051.000000;-0.346263
8050.000000;-0.346172
8049.000000;-0.346124
8048.000000;-0.346127
8047.000000;-0.346165
8046.000000;-0.346210
8045.000000;-0.346234
8044.000000;-0.346216
8043.000000;-0.346146
8042.000000;-0.346026
8041.000000;-0.345878
8040.000000;-0.345736
8039.000000;-0.345641
8038.000000;-0.345622
8037.000000;-0.345677
8036.000000;-0.345768
8035.000000;-0.345841
8034.000000;-0.345866
8033.000000;-0.345845
8032.000000;-0.345787
8031.000000;-0.345693
8030.000000;-0.345568
8029.000000;-0.345439
8028.000000;-0.345336
8027.000000;-0.345257
8026.000000;-0.345173
8025.000000;-0.345077
8024.000000;-0.344998
8023.000000;-0.344959
8022.000000;-0.344937
8021.000000;-0.344890
8020.000000;-0.344807
8019.000000;-0.344710
8018.000000;-0.344621
8017.000000;-0.344545
8016.000000;-0.344484
8015.000000;-0.344441
8014.000000;-0.344410
8013.000000;-0.344364
8012.000000;-0.344291
8011.000000;-0.344210
8010.000000;-0.344149
8009.000000;-0.344109
8008.000000;-0.344065
8007.000000;-0.344008
8006.000000;-0.343955
8005.000000;-0.343929
8004.000000;-0.343918
8003.000000;-0.343890
8002.000000;-0.343827
8001.000000;-0.343747
8000.000000;-0.343681
7999.000000;-0.343639
7998.000000;-0.343591
7997.000000;-0.343504
7996.000000;-0.343374
7995.000000;-0.343242
7994.000000;-0.343152
7993.000000;-0.343114
7992.000000;-0.343100
7991.000000;-0.343076
7990.000000;-0.343032
7989.000000;-0.342974
7988.000000;-0.342906
7987.000000;-0.342824
7986.000000;-0.342739
7985.000000;-0.342673
7984.000000;-0.342648
7983.000000;-0.342657
7982.000000;-0.342672
7981.000000;-0.342661
7980.000000;-0.342603
7979.000000;-0.342496
7978.000000;-0.342361
7977.000000;-0.342233
7976.000000;-0.342135
7975.000000;-0.342066
7974.000000;-0.342009
7973.000000;-0.341944
7972.000000;-0.341855
7971.000000;-0.341734
7970.000000;-0.341587
7969.000000;-0.341437
7968.000000;-0.341317
7967.000000;-0.341238
7966.000000;-0.341182
7965.000000;-0.341120
7964.000000;-0.341032
7963.000000;-0.340919
7962.000000;-0.340800
7961.000000;-0.340702
7960.000000;-0.340638
7959.000000;-0.340587
7958.000000;-0.340518
7957.000000;-0.340418
7956.000000;-0.340310
7955.000000;-0.340228
7954.000000;-0.340184
7953.000000;-0.340159
7952.000000;-0.340131
7951.000000;-0.340097
7950.000000;-0.340064
7949.000000;-0.340024
7948.000000;-0.339955
7947.000000;-0.339849
7946.000000;-0.339728
7945.000000;-0.339624
7944.000000;-0.339539
7943.000000;-0.339451
7942.000000;-0.339345
7941.000000;-0.339238
7940.000000;-0.339155
7939.000000;-0.339094
7938.000000;-0.339031
7937.000000;-0.338955
7936.000000;-0.338875
7935.000000;-0.338809
7934.000000;-0.338747
7933.000000;-0.338661
7932.000000;-0.338529
7931.000000;-0.338367
7930.000000;-0.338217
7929.000000;-0.338106
7928.000000;-0.338027
7927.000000;-0.337956
7926.000000;-0.337892
7925.000000;-0.337842
7924.000000;-0.337790
7923.000000;-0.337691
7922.000000;-0.337523
7921.000000;-0.337320
7920.000000;-0.337137
7919.000000;-0.336997
7918.000000;-0.336887
7917.000000;-0.336798
7916.000000;-0.336736
7915.000000;-0.336701
7914.000000;-0.336664
7913.000000;-0.336603
7912.000000;-0.336517
7911.000000;-0.336424
7910.000000;-0.336333
7909.000000;-0.336233
7908.000000;-0.336117
7907.000000;-0.335995
7906.000000;-0.335886
7905.000000;-0.335796
7904.000000;-0.335705
7903.000000;-0.335587
7902.000000;-0.335454
7901.000000;-0.335351
7900.000000;-0.335304
7899.000000;-0.335284
7898.000000;-0.335235
7897.000000;-0.335131
7896.000000;-0.335000
7895.000000;-0.334874
7894.000000;-0.334761
7893.000000;-0.334648
7892.000000;-0.334525
7891.000000;-0.334399
7890.000000;-0.334283
7889.000000;-0.334182
7888.000000;-0.334092
7887.000000;-0.333994
7886.000000;-0.333874
7885.000000;-0.333737
7884.000000;-0.333598
7883.000000;-0.333468
7882.000000;-0.333351
7881.000000;-0.333251
7880.000000;-0.333173
7879.000000;-0.333105
7878.000000;-0.333031
7877.000000;-0.332942
7876.000000;-0.332849
7875.000000;-0.332759
7874.000000;-0.332672
7873.000000;-0.332581
7872.000000;-0.332477
7871.000000;-0.332339
7870.000000;-0.332157
7869.000000;-0.331956
7868.000000;-0.331789
7867.000000;-0.331690
7866.000000;-0.331640
7865.000000;-0.331592
7864.000000;-0.331511
7863.000000;-0.331384
7862.000000;-0.331213
7861.000000;-0.331018
7860.000000;-0.330834
7859.000000;-0.330689
7858.000000;-0.330581
7857.000000;-0.330490
7856.000000;-0.330393
7855.000000;-0.330281
7854.000000;-0.330145
7853.000000;-0.329983
7852.000000;-0.329809
7851.000000;-0.329646
7850.000000;-0.329504
7849.000000;-0.329370
7848.000000;-0.329234
7847.000000;-0.329110
7846.000000;-0.329023
7845.000000;-0.328980
7844.000000;-0.328959
7843.000000;-0.328920
7842.000000;-0.328826
7841.000000;-0.328672
7840.000000;-0.328486
7839.000000;-0.328308
7838.000000;-0.328154
7837.000000;-0.328006
7836.000000;-0.327843
7835.000000;-0.327669
7834.000000;-0.327506
7833.000000;-0.327360
7832.000000;-0.327214
7831.000000;-0.327061
7830.000000;-0.326923
7829.000000;-0.326820
7828.000000;-0.326739
7827.000000;-0.326642
7826.000000;-0.326511
7825.000000;-0.326366
7824.000000;-0.326234
7823.000000;-0.326121
7822.000000;-0.326016
7821.000000;-0.325912
7820.000000;-0.325815
7819.000000;-0.325722
7818.000000;-0.325620
7817.000000;-0.325493
7816.000000;-0.325337
7815.000000;-0.325165
7814.000000;-0.324997
7813.000000;-0.324835
7812.000000;-0.324654
7811.000000;-0.324441
7810.000000;-0.324233
7809.000000;-0.324086
7808.000000;-0.324013
7807.000000;-0.323967
7806.000000;-0.323886
7805.000000;-0.323750
7804.000000;-0.323580
7803.000000;-0.323408
7802.000000;-0.323253
7801.000000;-0.323112
7800.000000;-0.322963
7799.000000;-0.322779
7798.000000;-0.322567
7797.000000;-0.322363
7796.000000;-0.322199
7795.000000;-0.322079
7794.000000;-0.321989
7793.000000;-0.321912
7792.000000;-0.321814
7791.000000;-0.321652
7790.000000;-0.321427
7789.000000;-0.321202
7788.000000;-0.321032
7787.000000;-0.320907
7786.000000;-0.320776
7785.000000;-0.320617
7784.000000;-0.320455
7783.000000;-0.320300
7782.000000;-0.320128
7781.000000;-0.319916
7780.000000;-0.319677
7779.000000;-0.319447
7778.000000;-0.319248
7777.000000;-0.319091
7776.000000;-0.318976
7775.000000;-0.318886
7774.000000;-0.318787
7773.000000;-0.318643
7772.000000;-0.318447
7771.000000;-0.318220
7770.000000;-0.317999
7769.000000;-0.317813
7768.000000;-0.317659
7767.000000;-0.317507
7766.000000;-0.317343
7765.000000;-0.317187
7764.000000;-0.317064
7763.000000;-0.316961
7762.000000;-0.316834
7761.000000;-0.316665
7760.000000;-0.316477
7759.000000;-0.316298
7758.000000;-0.316127
7757.000000;-0.315948
7756.000000;-0.315754
7755.000000;-0.315547
7754.000000;-0.315339
7753.000000;-0.315157
7752.000000;-0.315015
7751.000000;-0.314892
7750.000000;-0.314743
7749.000000;-0.314545
7748.000000;-0.314320
7747.000000;-0.314103
7746.000000;-0.313904
7745.000000;-0.313715
7744.000000;-0.313527
7743.000000;-0.313347
7742.000000;-0.313175
7741.000000;-0.313002
7740.000000;-0.312806
7739.000000;-0.312575
7738.000000;-0.312325
7737.000000;-0.312105
7736.000000;-0.311954
7735.000000;-0.311861
7734.000000;-0.311760
7733.000000;-0.311590
7732.000000;-0.311345
7731.000000;-0.311079
7730.000000;-0.310852
7729.000000;-0.310685
7728.000000;-0.310545
7727.000000;-0.310376
7726.000000;-0.310155
7725.000000;-0.309907
7724.000000;-0.309666
7723.000000;-0.309434
7722.000000;-0.309192
7721.000000;-0.308941
7720.000000;-0.308706
7719.000000;-0.308501
7718.000000;-0.308311
7717.000000;-0.308124
7716.000000;-0.307947
7715.000000;-0.307796
7714.000000;-0.307668
7713.000000;-0.307542
7712.000000;-0.307388
7711.000000;-0.307192
7710.000000;-0.306964
7709.000000;-0.306734
7708.000000;-0.306527
7707.000000;-0.306336
7706.000000;-0.306133
7705.000000;-0.305895
7704.000000;-0.305622
7703.000000;-0.305337
7702.000000;-0.305075
7701.000000;-0.304861
7700.000000;-0.304692
7699.000000;-0.304529
7698.000000;-0.304344
7697.000000;-0.304142
7696.000000;-0.303947
7695.000000;-0.303756
7694.000000;-0.303550
7693.000000;-0.303328
7692.000000;-0.303100
7691.000000;-0.302868
7690.000000;-0.302622
7689.000000;-0.302368
7688.000000;-0.302124
7687.000000;-0.301897
7686.000000;-0.301680
7685.000000;-0.301466
7684.000000;-0.301251
7683.000000;-0.301015
7682.000000;-0.300738
7681.000000;-0.300438
7680.000000;-0.300159
7679.000000;-0.299922
7678.000000;-0.299709
7677.000000;-0.299490
7676.000000;-0.299257
7675.000000;-0.299013
7674.000000;-0.298762
7673.000000;-0.298514
7672.000000;-0.298282
7671.000000;-0.298073
7670.000000;-0.297877
7669.000000;-0.297681
7668.000000;-0.297471
7667.000000;-0.297239
7666.000000;-0.296994
7665.000000;-0.296762
7664.000000;-0.296554
7663.000000;-0.296344
7662.000000;-0.296102
7661.000000;-0.295839
7660.000000;-0.295589
7659.000000;-0.295358
7658.000000;-0.295117
7657.000000;-0.294854
7656.000000;-0.294581
7655.000000;-0.294295
7654.000000;-0.293979
7653.000000;-0.293641
7652.000000;-0.293323
7651.000000;-0.293049
7650.000000;-0.292791
7649.000000;-0.292514
7648.000000;-0.292221
7647.000000;-0.291927
7646.000000;-0.291631
7645.000000;-0.291322
7644.000000;-0.291006
7643.000000;-0.290704
7642.000000;-0.290423
7641.000000;-0.290155
7640.000000;-0.289885
7639.000000;-0.289598
7638.000000;-0.289285
7637.000000;-0.288961
7636.000000;-0.288657
7635.000000;-0.288391
7634.000000;-0.288157
7633.000000;-0.287938
7632.000000;-0.287716
7631.000000;-0.287467
7630.000000;-0.287174
7629.000000;-0.286856
7628.000000;-0.286555
7627.000000;-0.286289
7626.000000;-0.286024
7625.000000;-0.285719
7624.000000;-0.285379
7623.000000;-0.285046
7622.000000;-0.284756
7621.000000;-0.284506
7620.000000;-0.284258
7619.000000;-0.283973
7618.000000;-0.283647
7617.000000;-0.283312
7616.000000;-0.282991
7615.000000;-0.282668
7614.000000;-0.282308
7613.000000;-0.281913
7612.000000;-0.281533
7611.000000;-0.281204
7610.000000;-0.280919
7609.000000;-0.280638
7608.000000;-0.280332
7607.000000;-0.279988
7606.000000;-0.279614
7605.000000;-0.279239
7604.000000;-0.278886
7603.000000;-0.278556
7602.000000;-0.278232
7601.000000;-0.277901
7600.000000;-0.277557
7599.000000;-0.277192
7598.000000;-0.276812
7597.000000;-0.276441
7596.000000;-0.276105
7595.000000;-0.275792
7594.000000;-0.275484
7593.000000;-0.275191
7592.000000;-0.274934
7591.000000;-0.274689
7590.000000;-0.274392
7589.000000;-0.274013
7588.000000;-0.273582
7587.000000;-0.273145
7586.000000;-0.272724
7585.000000;-0.272327
7584.000000;-0.271966
7583.000000;-0.271638
7582.000000;-0.271317
7581.000000;-0.270978
7580.000000;-0.270611
7579.000000;-0.270222
7578.000000;-0.269827
7577.000000;-0.269449
7576.000000;-0.269092
7575.000000;-0.268722
7574.000000;-0.268305
7573.000000;-0.267866
7572.000000;-0.267461
7571.000000;-0.267106
7570.000000;-0.266754
7569.000000;-0.266361
7568.000000;-0.265933
7567.000000;-0.265502
7566.000000;-0.265087
7565.000000;-0.264698
7564.000000;-0.264331
7563.000000;-0.263958
7562.000000;-0.263548
7561.000000;-0.263113
7560.000000;-0.262702
7559.000000;-0.262333
7558.000000;-0.261971
7557.000000;-0.261581
7556.000000;-0.261167
7555.000000;-0.260744
7554.000000;-0.260323
7553.000000;-0.259915
7552.000000;-0.259536
7551.000000;-0.259169
7550.000000;-0.258768
7549.000000;-0.258324
7548.000000;-0.257879
7547.000000;-0.257467
7546.000000;-0.257067
7545.000000;-0.256647
7544.000000;-0.256220
7543.000000;-0.255817
7542.000000;-0.255445
7541.000000;-0.255079
7540.000000;-0.254688
7539.000000;-0.254243
7538.000000;-0.253730
7537.000000;-0.253173
7536.000000;-0.252631
7535.000000;-0.252150
7534.000000;-0.251724
7533.000000;-0.251321
7532.000000;-0.250920
7531.000000;-0.250509
7530.000000;-0.250079
7529.000000;-0.249628
7528.000000;-0.249163
7527.000000;-0.248689
7526.000000;-0.248205
7525.000000;-0.247727
7524.000000;-0.247273
7523.000000;-0.246833
7522.000000;-0.246370
7521.000000;-0.245868
7520.000000;-0.245357
7519.000000;-0.244878
7518.000000;-0.244448
7517.000000;-0.244063
7516.000000;-0.243705
7515.000000;-0.243333
7514.000000;-0.242908
7513.000000;-0.242433
7512.000000;-0.241941
7511.000000;-0.241443
7510.000000;-0.240925
7509.000000;-0.240386
7508.000000;-0.239845
7507.000000;-0.239312
7506.000000;-0.238794
7505.000000;-0.238313
7504.000000;-0.237869
7503.000000;-0.237472
7502.000000;-0.237030
7501.000000;-0.236526
7500.000000;-0.236007
7499.000000;-0.235504
7498.000000;-0.234998
7497.000000;-0.234471
7496.000000;-0.233944
7495.000000;-0.233445
7494.000000;-0.232969
7493.000000;-0.232506
7492.000000;-0.232051
7491.000000;-0.231579
7490.000000;-0.231056
7489.000000;-0.230498
7488.000000;-0.229961
7487.000000;-0.229473
7486.000000;-0.229009
7485.000000;-0.228553
7484.000000;-0.228119
7483.000000;-0.227702
7482.000000;-0.227255
7481.000000;-0.226754
7480.000000;-0.226230
7479.000000;-0.225713
7478.000000;-0.225199
7477.000000;-0.224688
7476.000000;-0.224205
7475.000000;-0.223755
7474.000000;-0.223293
7473.000000;-0.222782
7472.000000;-0.222235
7471.000000;-0.221695
7470.000000;-0.221186
7469.000000;-0.220710
7468.000000;-0.220256
7467.000000;-0.219788
7466.000000;-0.219276
7465.000000;-0.218735
7464.000000;-0.218215
7463.000000;-0.217730
7462.000000;-0.217258
7461.000000;-0.216790
7460.000000;-0.216336
7459.000000;-0.215873
7458.000000;-0.215365
7457.000000;-0.214828
7456.000000;-0.214320
7455.000000;-0.213847
7454.000000;-0.213364
7453.000000;-0.212858
7452.000000;-0.212360
7451.000000;-0.211870
7450.000000;-0.211340
7449.000000;-0.210763
7448.000000;-0.210201
7447.000000;-0.209687
7446.000000;-0.209190
7445.000000;-0.208693
7444.000000;-0.208218
7443.000000;-0.207757
7442.000000;-0.207256
7441.000000;-0.206705
7440.000000;-0.206163
7439.000000;-0.205655
7438.000000;-0.205144
7437.000000;-0.204625
7436.000000;-0.204173
7435.000000;-0.203826
7434.000000;-0.203503
7433.000000;-0.203083
7432.000000;-0.202533
7431.000000;-0.201906
7430.000000;-0.201280
7429.000000;-0.200723
7428.000000;-0.200253
7427.000000;-0.199779
7426.000000;-0.199177
7425.000000;-0.198457
7424.000000;-0.197771
7423.000000;-0.197182
7422.000000;-0.196562
7421.000000;-0.195797
7420.000000;-0.194991
7419.000000;-0.194344
7418.000000;-0.193904
7417.000000;-0.193562
7416.000000;-0.193217
7415.000000;-0.192866
7414.000000;-0.192541
7413.000000;-0.192206
7412.000000;-0.191756
7411.000000;-0.191106
7410.000000;-0.190304
7409.000000;-0.189538
7408.000000;-0.188948
7407.000000;-0.188428
7406.000000;-0.187778
7405.000000;-0.187014
7404.000000;-0.186313
7403.000000;-0.185712
7402.000000;-0.185024
7401.000000;-0.184036
7400.000000;-0.182748
7399.000000;-0.181424
7398.000000;-0.180380
7397.000000;-0.179692
7396.000000;-0.179132
7395.000000;-0.178424
7394.000000;-0.177638
7393.000000;-0.177098
7392.000000;-0.176896
7391.000000;-0.176723
7390.000000;-0.176249
7389.000000;-0.175401
7388.000000;-0.174153
7387.000000;-0.172324
7386.000000;-0.169983
7385.000000;-0.167860
7384.000000;-0.166725
7383.000000;-0.166323
7382.000000;-0.165592
7381.000000;-0.164138
7380.000000;-0.162898
7379.000000;-0.162880
7378.000000;-0.163783
7377.000000;-0.164458
7376.000000;-0.164322
7375.000000;-0.163765
7374.000000;-0.163430
7373.000000;-0.163535
7372.000000;-0.163824
7371.000000;-0.163883
7370.000000;-0.163456
7369.000000;-0.162553
7368.000000;-0.161363
7367.000000;-0.160018
7366.000000;-0.158575
7365.000000;-0.157382
7364.000000;-0.156973
7363.000000;-0.157175
7362.000000;-0.156911
7361.000000;-0.155433
7360.000000;-0.153438
7359.000000;-0.152174
7358.000000;-0.151847
7357.000000;-0.151426
7356.000000;-0.149998
7355.000000;-0.147629
7354.000000;-0.145008
7353.000000;-0.142728
7352.000000;-0.140838
7351.000000;-0.138690
7350.000000;-0.135545
7349.000000;-0.131842
7348.000000;-0.129281
7347.000000;-0.128966
7346.000000;-0.130049
7345.000000;-0.131008
7344.000000;-0.131792
7343.000000;-0.133423
7342.000000;-0.135861
7341.000000;-0.137622
7340.000000;-0.137940
7339.000000;-0.137792
7338.000000;-0.138294
7337.000000;-0.139196
7336.000000;-0.139466
7335.000000;-0.138333
7334.000000;-0.135624
7333.000000;-0.132051
7332.000000;-0.129343
7331.000000;-0.128804
7330.000000;-0.129559
7329.000000;-0.129589
7328.000000;-0.128658
7327.000000;-0.128821
7326.000000;-0.131457
7325.000000;-0.135157
7324.000000;-0.137471
7323.000000;-0.137756
7322.000000;-0.137258
7321.000000;-0.136917
7320.000000;-0.136315
7319.000000;-0.134579
7318.000000;-0.131292
7317.000000;-0.126879
7316.000000;-0.122792
7315.000000;-0.120607
7314.000000;-0.120164
7313.000000;-0.119380
7312.000000;-0.116907
7311.000000;-0.114102
7310.000000;-0.113245
7309.000000;-0.114503
7308.000000;-0.115913
7307.000000;-0.115867
7306.000000;-0.114493
7305.000000;-0.112711
7304.000000;-0.111262
7303.000000;-0.110747
7302.000000;-0.111173
7301.000000;-0.111318
7300.000000;-0.109856
7299.000000;-0.107518
7298.000000;-0.106673
7297.000000;-0.108230
7296.000000;-0.110346
7295.000000;-0.110879
7294.000000;-0.110015
7293.000000;-0.109543
7292.000000;-0.110317
7291.000000;-0.111461
7290.000000;-0.111753
7289.000000;-0.110903
7288.000000;-0.109494
7287.000000;-0.108218
7286.000000;-0.107452
7285.000000;-0.107047
7284.000000;-0.106455
7283.000000;-0.105333
7282.000000;-0.103882
7281.000000;-0.102470
7280.000000;-0.101144
7279.000000;-0.099704
7278.000000;-0.098100
7277.000000;-0.096497
7276.000000;-0.094977
7275.000000;-0.093385
7274.000000;-0.091557
7273.000000;-0.089583
7272.000000;-0.087768
7271.000000;-0.086341
7270.000000;-0.085154
7269.000000;-0.083740
7268.000000;-0.081803
7267.000000;-0.079612
7266.000000;-0.077647
7265.000000;-0.075920
7264.000000;-0.073954
7263.000000;-0.071548
7262.000000;-0.069191
7261.000000;-0.067477
7260.000000;-0.066260
7259.000000;-0.064834
7258.000000;-0.062857
7257.000000;-0.060557
7256.000000;-0.057886
7255.000000;-0.054200
7254.000000;-0.049070
7253.000000;-0.043183
7252.000000;-0.038131
7251.000000;-0.034837
7250.000000;-0.032445
7249.000000;-0.029283
7248.000000;-0.024998
7247.000000;-0.021060
7246.000000;-0.018731
7245.000000;-0.017089
7244.000000;-0.014078
7243.000000;-0.009305
7242.000000;-0.004851
7241.000000;-0.002907
7240.000000;-0.003040
7239.000000;-0.002600
7238.000000;0.000302
7237.000000;0.004980
7236.000000;0.009376
7235.000000;0.012322
7234.000000;0.014451
7233.000000;0.016969
7232.000000;0.019779
7231.000000;0.021528
7230.000000;0.021498
7229.000000;0.020719
7228.000000;0.020989
7227.000000;0.023208
7226.000000;0.026850
7225.000000;0.030719
7224.000000;0.033933
7223.000000;0.036432
7222.000000;0.038870
7221.000000;0.041932
7220.000000;0.045577
7219.000000;0.049062
7218.000000;0.051822
7217.000000;0.054213
7216.000000;0.057140
7215.000000;0.060932
7214.000000;0.065034
7213.000000;0.068903
7212.000000;0.072703
7211.000000;0.076894
7210.000000;0.081538
7209.000000;0.086283
7208.000000;0.090862
7207.000000;0.095343
7206.000000;0.099912
7205.000000;0.104463
7204.000000;0.108527
7203.000000;0.111697
7202.000000;0.114166
7201.000000;0.116720
7200.000000;0.120064
7199.000000;0.124160
7198.000000;0.128483
7197.000000;0.132813
7196.000000;0.137474
7195.000000;0.142756
7194.000000;0.148598
7193.000000;0.154952
7192.000000;0.161959
7191.000000;0.169431
7190.000000;0.176600
7189.000000;0.183049
7188.000000;0.189387
7187.000000;0.196260
7186.000000;0.202995
7185.000000;0.208228
7184.000000;0.211802
7183.000000;0.215079
7182.000000;0.219209
7181.000000;0.223879
7180.000000;0.228187
7179.000000;0.232079
7178.000000;0.236372
7177.000000;0.241690
7176.000000;0.247992
7175.000000;0.254941
7174.000000;0.262352
7173.000000;0.270183
7172.000000;0.278465
7171.000000;0.287107
7170.000000;0.295526
7169.000000;0.302963
7168.000000;0.309303
7167.000000;0.315082
7166.000000;0.320449
7165.000000;0.324763
7164.000000;0.327740
7163.000000;0.330431
7162.000000;0.334282
7161.000000;0.339351
7160.000000;0.344264
7159.000000;0.348121
7158.000000;0.351685
7157.000000;0.356297
7156.000000;0.362396
7155.000000;0.369335
7154.000000;0.376252
7153.000000;0.382899
7152.000000;0.389774
7151.000000;0.397462
7150.000000;0.405891
7149.000000;0.414271
7148.000000;0.421839
7147.000000;0.428699
7146.000000;0.435684
7145.000000;0.443200
7144.000000;0.450493
7143.000000;0.456453
7142.000000;0.461112
7141.000000;0.465719
7140.000000;0.471119
7139.000000;0.476664
7138.000000;0.481239
7137.000000;0.484819
7136.000000;0.488437
7135.000000;0.492807
7134.000000;0.497670
7133.000000;0.502572
7132.000000;0.507612
7131.000000;0.513197
7130.000000;0.519613
7129.000000;0.527038
7128.000000;0.535453
7127.000000;0.544202
7126.000000;0.552229
7125.000000;0.559263
7124.000000;0.566207
7123.000000;0.573748
7122.000000;0.581037
7121.000000;0.586596
7120.000000;0.590365
7119.000000;0.593869
7118.000000;0.598232
7117.000000;0.602960
7116.000000;0.607032
7115.000000;0.610445
7114.000000;0.614133
7113.000000;0.618757
7112.000000;0.624133
7111.000000;0.629756
7110.000000;0.635288
7109.000000;0.640599
7108.000000;0.645821
7107.000000;0.651223
7106.000000;0.656788
7105.000000;0.662067
7104.000000;0.666604
7103.000000;0.670529
7102.000000;0.674608
7101.000000;0.679576
7100.000000;0.685370
7099.000000;0.691103
7098.000000;0.695919
7097.000000;0.699808
7096.000000;0.703392
7095.000000;0.707030
7094.000000;0.710501
7093.000000;0.713596
7092.000000;0.716606
7091.000000;0.719993
7090.000000;0.723803
7089.000000;0.727707
7088.000000;0.731509
7087.000000;0.735275
7086.000000;0.739031
7085.000000;0.742712
7084.000000;0.746413
7083.000000;0.750394
7082.000000;0.754775
7081.000000;0.759287
7080.000000;0.763430
7079.000000;0.766967
7078.000000;0.770186
7077.000000;0.773619
7076.000000;0.777464
7075.000000;0.781402
7074.000000;0.785040
7073.000000;0.788373
7072.000000;0.791574
7071.000000;0.794535
7070.000000;0.796947
7069.000000;0.798816
7068.000000;0.800571
7067.000000;0.802574
7066.000000;0.804789
7065.000000;0.807104
7064.000000;0.809632
7063.000000;0.812453
7062.000000;0.815393
7061.000000;0.818280
7060.000000;0.821154
7059.000000;0.824097
7058.000000;0.827008
7057.000000;0.829713
7056.000000;0.832165
7055.000000;0.834420
7054.000000;0.836566
7053.000000;0.838744
7052.000000;0.841104
7051.000000;0.843623
7050.000000;0.846141
7049.000000;0.848603
7048.000000;0.851039
7047.000000;0.853280
7046.000000;0.855000
7045.000000;0.856186
7044.000000;0.857294
7043.000000;0.858726
7042.000000;0.860414
7041.000000;0.862089
7040.000000;0.863690
7039.000000;0.865341
7038.000000;0.867135
7037.000000;0.869073
7036.000000;0.871044
7035.000000;0.872770
7034.000000;0.874015
7033.000000;0.874979
7032.000000;0.876220
7031.000000;0.878036
7030.000000;0.880191
7029.000000;0.882337
7028.000000;0.884380
7027.000000;0.886250
7026.000000;0.887704
7025.000000;0.888651
7024.000000;0.889371
7023.000000;0.890124
7022.000000;0.890790
7021.000000;0.891172
7020.000000;0.891426
7019.000000;0.891921
7018.000000;0.892826
7017.000000;0.894080
7016.000000;0.895589
7015.000000;0.897192
7014.000000;0.898616
7013.000000;0.899733
7012.000000;0.900744
7011.000000;0.901913
7010.000000;0.903248
7009.000000;0.904610
7008.000000;0.905947
7007.000000;0.907226
7006.000000;0.908340
7005.000000;0.909280
7004.000000;0.910215
7003.000000;0.911232
7002.000000;0.912185
7001.000000;0.912975
7000.000000;0.913744
6999.000000;0.914579
6998.000000;0.915272
6997.000000;0.915644
6996.000000;0.915880
6995.000000;0.916321
6994.000000;0.917067
6993.000000;0.917965
6992.000000;0.918827
6991.000000;0.919467
6990.000000;0.919731
6989.000000;0.919721
6988.000000;0.919827
6987.000000;0.920295
6986.000000;0.920921
6985.000000;0.921367
6984.000000;0.921593
6983.000000;0.921778
6982.000000;0.922032
6981.000000;0.922416
6980.000000;0.923037
6979.000000;0.923866
6978.000000;0.924627
6977.000000;0.925097
6976.000000;0.925335
6975.000000;0.925484
6974.000000;0.925546
6973.000000;0.925529
6972.000000;0.925599
6971.000000;0.925848
6970.000000;0.926096
6969.000000;0.926176
6968.000000;0.926223
6967.000000;0.926428
6966.000000;0.926714
6965.000000;0.926911
6964.000000;0.927031
6963.000000;0.927123
6962.000000;0.927076
6961.000000;0.926876
6960.000000;0.926849
6959.000000;0.927323
6958.000000;0.928145
6957.000000;0.928856
6956.000000;0.929203
6955.000000;0.929214
6954.000000;0.928892
6953.000000;0.928205
6952.000000;0.927327
6951.000000;0.926595
6950.000000;0.926193
6949.000000;0.926081
6948.000000;0.926168
6947.000000;0.926345
6946.000000;0.926388
6945.000000;0.926094
6944.000000;0.925530
6943.000000;0.924969
6942.000000;0.924618
6941.000000;0.924538
6940.000000;0.924747
6939.000000;0.925171
6938.000000;0.925537
6937.000000;0.925527
6936.000000;0.925083
6935.000000;0.924440
6934.000000;0.923888
6933.000000;0.923594
6932.000000;0.923536
6931.000000;0.923497
6930.000000;0.923225
6929.000000;0.922685
6928.000000;0.922090
6927.000000;0.921602
6926.000000;0.921129
6925.000000;0.920588
6924.000000;0.920178
6923.000000;0.920145
6922.000000;0.920397
6921.000000;0.920605
6920.000000;0.920628
6919.000000;0.920572
6918.000000;0.920460
6917.000000;0.920124
6916.000000;0.919478
6915.000000;0.918707
6914.000000;0.918048
6913.000000;0.917499
6912.000000;0.916836
6911.000000;0.915897
6910.000000;0.914840
6909.000000;0.914060
6908.000000;0.913820
6907.000000;0.913979
6906.000000;0.914135
6905.000000;0.914024
6904.000000;0.913676
6903.000000;0.913182
6902.000000;0.912561
6901.000000;0.911948
6900.000000;0.911654
6899.000000;0.911813
6898.000000;0.912141
6897.000000;0.912226
6896.000000;0.911958
6895.000000;0.911470
6894.000000;0.910837
6893.000000;0.910076
6892.000000;0.909322
6891.000000;0.908710
6890.000000;0.908118
6889.000000;0.907283
6888.000000;0.906185
6887.000000;0.905105
6886.000000;0.904255
6885.000000;0.903567
6884.000000;0.902940
6883.000000;0.902482
6882.000000;0.902390
6881.000000;0.902666
6880.000000;0.903047
6879.000000;0.903227
6878.000000;0.903073
6877.000000;0.902631
6876.000000;0.901976
6875.000000;0.901127
6874.000000;0.900153
6873.000000;0.899278
6872.000000;0.898730
6871.000000;0.898477
6870.000000;0.898215
6869.000000;0.897650
6868.000000;0.896717
6867.000000;0.895559
6866.000000;0.894430
6865.000000;0.893613
6864.000000;0.893263
6863.000000;0.893197
6862.000000;0.892980
6861.000000;0.892314
6860.000000;0.891272
6859.000000;0.890114
6858.000000;0.889019
6857.000000;0.888028
6856.000000;0.887127
6855.000000;0.886243
6854.000000;0.885259
6853.000000;0.884138
6852.000000;0.882991
6851.000000;0.881947
6850.000000;0.880992
6849.000000;0.879987
6848.000000;0.878800
6847.000000;0.877420
6846.000000;0.875982
6845.000000;0.874688
6844.000000;0.873657
6843.000000;0.872831
6842.000000;0.872078
6841.000000;0.871325
6840.000000;0.870514
6839.000000;0.869487
6838.000000;0.868125
6837.000000;0.866593
6836.000000;0.865245
6835.000000;0.864236
6834.000000;0.863357
6833.000000;0.862325
6832.000000;0.861079
6831.000000;0.859693
6830.000000;0.858175
6829.000000;0.856463
6828.000000;0.854547
6827.000000;0.852502
6826.000000;0.850440
6825.000000;0.848474
6824.000000;0.846687
6823.000000;0.845091
6822.000000;0.843668
6821.000000;0.842427
6820.000000;0.841294
6819.000000;0.839967
6818.000000;0.838086
6817.000000;0.835633
6816.000000;0.833024
6815.000000;0.830713
6814.000000;0.828783
6813.000000;0.827006
6812.000000;0.825201
6811.000000;0.823412
6810.000000;0.821762
6809.000000;0.820239
6808.000000;0.818630
6807.000000;0.816704
6806.000000;0.814446
6805.000000;0.812096
6804.000000;0.809890
6803.000000;0.807814
6802.000000;0.805712
6801.000000;0.803543
6800.000000;0.801392
6799.000000;0.799271
6798.000000;0.797073
6797.000000;0.794757
6796.000000;0.792416
6795.000000;0.790148
6794.000000;0.787962
6793.000000;0.785829
6792.000000;0.783706
6791.000000;0.781491
6790.000000;0.779090
6789.000000;0.776564
6788.000000;0.774084
6787.000000;0.771733
6786.000000;0.769449
6785.000000;0.767169
6784.000000;0.764866
6783.000000;0.762464
6782.000000;0.759894
6781.000000;0.757248
6780.000000;0.754717
6779.000000;0.752331
6778.000000;0.749933
6777.000000;0.747457
6776.000000;0.745044
6775.000000;0.742798
6774.000000;0.740627
6773.000000;0.738421
6772.000000;0.736232
6771.000000;0.734131
6770.000000;0.732002
6769.000000;0.729660
6768.000000;0.727097
6767.000000;0.724472
6766.000000;0.721917
6765.000000;0.719441
6764.000000;0.716969
6763.000000;0.714401
6762.000000;0.711706
6761.000000;0.708986
6760.000000;0.706409
6759.000000;0.704018
6758.000000;0.701713
6757.000000;0.699427
6756.000000;0.697201
6755.000000;0.695001
6754.000000;0.692635
6753.000000;0.689979
6752.000000;0.687193
6751.000000;0.684577
6750.000000;0.682251
6749.000000;0.680084
6748.000000;0.677868
6747.000000;0.675478
6746.000000;0.672914
6745.000000;0.670288
6744.000000;0.667731
6743.000000;0.665261
6742.000000;0.662776
6741.000000;0.660221
6740.000000;0.657684
6739.000000;0.655263
6738.000000;0.652911
6737.000000;0.650507
6736.000000;0.648026
6735.000000;0.645541
6734.000000;0.643104
6733.000000;0.640719
6732.000000;0.638380
6731.000000;0.636060
6730.000000;0.633687
6729.000000;0.631202
6728.000000;0.628647
6727.000000;0.626122
6726.000000;0.623667
6725.000000;0.621235
6724.000000;0.618777
6723.000000;0.616292
6722.000000;0.613830
6721.000000;0.611433
6720.000000;0.609101
6719.000000;0.606765
6718.000000;0.604327
6717.000000;0.601822
6716.000000;0.599371
6715.000000;0.597026
6714.000000;0.594705
6713.000000;0.592308
6712.000000;0.589817
6711.000000;0.587400
6710.000000;0.585098
6709.000000;0.582856
6708.000000;0.580645
6707.000000;0.578364
6706.000000;0.575959
6705.000000;0.573383
6704.000000;0.570692
6703.000000;0.568012
6702.000000;0.565459
6701.000000;0.563077
6700.000000;0.560844
6699.000000;0.558690
6698.000000;0.556514
6697.000000;0.554246
6696.000000;0.551901
6695.000000;0.549554
6694.000000;0.547249
6693.000000;0.544949
6692.000000;0.542589
6691.000000;0.540157
6690.000000;0.537724
6689.000000;0.535384
6688.000000;0.533165
6687.000000;0.531010
6686.000000;0.528833
6685.000000;0.526596
6684.000000;0.524299
6683.000000;0.521948
6682.000000;0.519561
6681.000000;0.517205
6680.000000;0.514954
6679.000000;0.512809
6678.000000;0.510693
6677.000000;0.508526
6676.000000;0.506287
6675.000000;0.504001
6674.000000;0.501709
6673.000000;0.499450
6672.000000;0.497242
6671.000000;0.495057
6670.000000;0.492854
6669.000000;0.490635
6668.000000;0.488417
6667.000000;0.486186
6666.000000;0.483924
6665.000000;0.481678
6664.000000;0.479533
6663.000000;0.477507
6662.000000;0.475512
6661.000000;0.473457
6660.000000;0.471325
6659.000000;0.469138
6658.000000;0.466910
6657.000000;0.464663
6656.000000;0.462447
6655.000000;0.460298
6654.000000;0.458208
6653.000000;0.456152
6652.000000;0.454122
6651.000000;0.452100
6650.000000;0.450039
6649.000000;0.447894
6648.000000;0.445677
6647.000000;0.443460
6646.000000;0.441334
6645.000000;0.439354
6644.000000;0.437484
6643.000000;0.435607
6642.000000;0.433616
6641.000000;0.431510
6640.000000;0.429361
6639.000000;0.427204
6638.000000;0.425015
6637.000000;0.422806
6636.000000;0.420660
6635.000000;0.418651
6634.000000;0.416769
6633.000000;0.414941
6632.000000;0.413092
6631.000000;0.411165
6630.000000;0.409132
6629.000000;0.407034
6628.000000;0.404966
6627.000000;0.402989
6626.000000;0.401077
6625.000000;0.399156
6624.000000;0.397179
6623.000000;0.395147
6622.000000;0.393100
6621.000000;0.391096
6620.000000;0.389174
6619.000000;0.387318
6618.000000;0.385472
6617.000000;0.383610
6616.000000;0.381763
6615.000000;0.379943
6614.000000;0.378109
6613.000000;0.376214
6612.000000;0.374262
6611.000000;0.372291
6610.000000;0.370334
6609.000000;0.368420
6608.000000;0.366580
6607.000000;0.364806
6606.000000;0.363040
6605.000000;0.361220
6604.000000;0.359347
6603.000000;0.357471
6602.000000;0.355635
6601.000000;0.353846
6600.000000;0.352088
6599.000000;0.350348
6598.000000;0.348621
6597.000000;0.346910
6596.000000;0.345211
6595.000000;0.343512
6594.000000;0.341801
6593.000000;0.340076
6592.000000;0.338320
6591.000000;0.336504
6590.000000;0.334632
6589.000000;0.332772
6588.000000;0.330986
6587.000000;0.329263
6586.000000;0.327554
6585.000000;0.325862
6584.000000;0.324225
6583.000000;0.322627
6582.000000;0.320982
6581.000000;0.319246
6580.000000;0.317469
6579.000000;0.315718
6578.000000;0.314004
6577.000000;0.312311
6576.000000;0.310652
6575.000000;0.309034
6574.000000;0.307420
6573.000000;0.305771
6572.000000;0.304101
6571.000000;0.302461
6570.000000;0.300869
6569.000000;0.299290
6568.000000;0.297676
6567.000000;0.296016
6566.000000;0.294340
6565.000000;0.292683
6564.000000;0.291050
6563.000000;0.289415
6562.000000;0.287774
6561.000000;0.286178
6560.000000;0.284676
6559.000000;0.283241
6558.000000;0.281778
6557.000000;0.280235
6556.000000;0.278651
6555.000000;0.277091
6554.000000;0.275573
6553.000000;0.274061
6552.000000;0.272527
6551.000000;0.270969
6550.000000;0.269426
6549.000000;0.267947
6548.000000;0.266547
6547.000000;0.265173
6546.000000;0.263751
6545.000000;0.262272
6544.000000;0.260784
6543.000000;0.259326
6542.000000;0.257883
6541.000000;0.256434
6540.000000;0.254980
6539.000000;0.253529
6538.000000;0.252075
6537.000000;0.250611
6536.000000;0.249140
6535.000000;0.247661
6534.000000;0.246174
6533.000000;0.244703
6532.000000;0.243279
6531.000000;0.241894
6530.000000;0.240515
6529.000000;0.239151
6528.000000;0.237843
6527.000000;0.236597
6526.000000;0.235354
6525.000000;0.234062
6524.000000;0.232729
6523.000000;0.231380
6522.000000;0.230007
6521.000000;0.228601
6520.000000;0.227190
6519.000000;0.225809
6518.000000;0.224460
6517.000000;0.223120
6516.000000;0.221774
6515.000000;0.220422
6514.000000;0.219077
6513.000000;0.217768
6512.000000;0.216521
6511.000000;0.215310
6510.000000;0.214075
6509.000000;0.212785
6508.000000;0.211474
6507.000000;0.210171
6506.000000;0.208873
6505.000000;0.207577
6504.000000;0.206311
6503.000000;0.205084
6502.000000;0.203853
6501.000000;0.202584
6500.000000;0.201303
6499.000000;0.200053
6498.000000;0.198835
6497.000000;0.197619
6496.000000;0.196402
6495.000000;0.195193
6494.000000;0.193974
6493.000000;0.192727
6492.000000;0.191476
6491.000000;0.190266
6490.000000;0.189101
6489.000000;0.187938
6488.000000;0.186748
6487.000000;0.185538
6486.000000;0.184331
6485.000000;0.183142
6484.000000;0.181986
6483.000000;0.180873
6482.000000;0.179783
6481.000000;0.178681
6480.000000;0.177552
6479.000000;0.176410
6478.000000;0.175266
6477.000000;0.174122
6476.000000;0.172983
6475.000000;0.171855
6474.000000;0.170738
6473.000000;0.169620
6472.000000;0.168494
6471.000000;0.167368
6470.000000;0.166256
6469.000000;0.165164
6468.000000;0.164091
6467.000000;0.163028
6466.000000;0.161962
6465.000000;0.160892
6464.000000;0.159824
6463.000000;0.158756
6462.000000;0.157685
6461.000000;0.156615
6460.000000;0.155564
6459.000000;0.154529
6458.000000;0.153484
6457.000000;0.152411
6456.000000;0.151328
6455.000000;0.150275
6454.000000;0.149266
6453.000000;0.148280
6452.000000;0.147285
6451.000000;0.146265
6450.000000;0.145233
6449.000000;0.144215
6448.000000;0.143226
6447.000000;0.142257
6446.000000;0.141282
6445.000000;0.140294
6444.000000;0.139296
6443.000000;0.138286
6442.000000;0.137251
6441.000000;0.136192
6440.000000;0.135134
6439.000000;0.134111
6438.000000;0.133148
6437.000000;0.132259
6436.000000;0.131434
6435.000000;0.130625
6434.000000;0.129770
6433.000000;0.128836
6432.000000;0.127849
6431.000000;0.126862
6430.000000;0.125913
6429.000000;0.125016
6428.000000;0.124156
6427.000000;0.123296
6426.000000;0.122402
6425.000000;0.121480
6424.000000;0.120567
6423.000000;0.119697
6422.000000;0.118869
6421.000000;0.118066
6420.000000;0.117256
6419.000000;0.116400
6418.000000;0.115484
6417.000000;0.114543
6416.000000;0.113636
6415.000000;0.112777
6414.000000;0.111933
6413.000000;0.111075
6412.000000;0.110219
6411.000000;0.109388
6410.000000;0.108577
6409.000000;0.107770
6408.000000;0.106964
6407.000000;0.106158
6406.000000;0.105338
6405.000000;0.104496
6404.000000;0.103645
6403.000000;0.102804
6402.000000;0.101985
6401.000000;0.101195
6400.000000;0.100443
6399.000000;0.099718
6398.000000;0.098989
6397.000000;0.098235
6396.000000;0.097464
6395.000000;0.096688
6394.000000;0.095903
6393.000000;0.095109
6392.000000;0.094316
6391.000000;0.093537
6390.000000;0.092774
6389.000000;0.092035
6388.000000;0.091329
6387.000000;0.090632
6386.000000;0.089894
6385.000000;0.089097
6384.000000;0.088285
6383.000000;0.087524
6382.000000;0.086833
6381.000000;0.086180
6380.000000;0.085516
6379.000000;0.084812
6378.000000;0.084067
6377.000000;0.083313
6376.000000;0.082584
6375.000000;0.081884
6374.000000;0.081187
6373.000000;0.080480
6372.000000;0.079768
6371.000000;0.079056
6370.000000;0.078333
6369.000000;0.077599
6368.000000;0.076876
6367.000000;0.076179
6366.000000;0.075499
6365.000000;0.074833
6364.000000;0.074190
6363.000000;0.073566
6362.000000;0.072921
6361.000000;0.072228
6360.000000;0.071508
6359.000000;0.070800
6358.000000;0.070128
6357.000000;0.069494
6356.000000;0.068899
6355.000000;0.068320
6354.000000;0.067711
6353.000000;0.067049
6352.000000;0.066372
6351.000000;0.065743
6350.000000;0.065176
6349.000000;0.064637
6348.000000;0.064087
6347.000000;0.063518
6346.000000;0.062933
6345.000000;0.062334
6344.000000;0.061721
6343.000000;0.061100
6342.000000;0.060476
6341.000000;0.059862
6340.000000;0.059271
6339.000000;0.058701
6338.000000;0.058132
6337.000000;0.057546
6336.000000;0.056945
6335.000000;0.056337
6334.000000;0.055728
6333.000000;0.055123
6332.000000;0.054539
6331.000000;0.053980
6330.000000;0.053435
6329.000000;0.052893
6328.000000;0.052359
6327.000000;0.051836
6326.000000;0.051310
6325.000000;0.050766
6324.000000;0.050205
6323.000000;0.049638
6322.000000;0.049071
6321.000000;0.048510
6320.000000;0.047972
6319.000000;0.047466
6318.000000;0.046981
6317.000000;0.046498
6316.000000;0.046016
6315.000000;0.045536
6314.000000;0.045049
6313.000000;0.044535
6312.000000;0.043994
6311.000000;0.043444
6310.000000;0.042908
6309.000000;0.042399
6308.000000;0.041913
6307.000000;0.041430
6306.000000;0.040933
6305.000000;0.040427
6304.000000;0.039932
6303.000000;0.039449
6302.000000;0.038961
6301.000000;0.038461
6300.000000;0.037967
6299.000000;0.037489
6298.000000;0.037011
6297.000000;0.036519
6296.000000;0.036027
6295.000000;0.035559
6294.000000;0.035118
6293.000000;0.034698
6292.000000;0.034285
6291.000000;0.033862
6290.000000;0.033410
6289.000000;0.032929
6288.000000;0.032448
6287.000000;0.031992
6286.000000;0.031556
6285.000000;0.031130
6284.000000;0.030712
6283.000000;0.030298
6282.000000;0.029875
6281.000000;0.029439
6280.000000;0.029014
6279.000000;0.028626
6278.000000;0.028268
6277.000000;0.027915
6276.000000;0.027545
6275.000000;0.027149
6274.000000;0.026720
6273.000000;0.026263
6272.000000;0.025804
6271.000000;0.025370
6270.000000;0.024964
6269.000000;0.024572
6268.000000;0.024186
6267.000000;0.023803
6266.000000;0.023416
6265.000000;0.023017
6264.000000;0.022609
6263.000000;0.022193
6262.000000;0.021765
6261.000000;0.021330
6260.000000;0.020908
6259.000000;0.020509
6258.000000;0.020118
6257.000000;0.019722
6256.000000;0.019330
6255.000000;0.018953
6254.000000;0.018589
6253.000000;0.018233
6252.000000;0.017895
6251.000000;0.017583
6250.000000;0.017283
6249.000000;0.016968
6248.000000;0.016631
6247.000000;0.016278
6246.000000;0.015917
6245.000000;0.015552
6244.000000;0.015188
6243.000000;0.014818
6242.000000;0.014432
6241.000000;0.014043
6240.000000;0.013683
6239.000000;0.013368
6238.000000;0.013075
6237.000000;0.012767
6236.000000;0.012432
6235.000000;0.012076
6234.000000;0.011710
6233.000000;0.011352
6232.000000;0.011029
6231.000000;0.010742
6230.000000;0.010449
6229.000000;0.010107
6228.000000;0.009724
6227.000000;0.009347
6226.000000;0.009012
6225.000000;0.008717
6224.000000;0.008443
6223.000000;0.008161
6222.000000;0.007848
6221.000000;0.007504
6220.000000;0.007162
6219.000000;0.006854
6218.000000;0.006578
6217.000000;0.006312
6216.000000;0.006051
6215.000000;0.005796
6214.000000;0.005532
6213.000000;0.005236
6212.000000;0.004908
6211.000000;0.004574
6210.000000;0.004248
6209.000000;0.003929
6208.000000;0.003620
6207.000000;0.003327
6206.000000;0.003051
6205.000000;0.002783
6204.000000;0.002517
6203.000000;0.002248
6202.000000;0.001968
6201.000000;0.001677
6200.000000;0.001388
6199.000000;0.001114
6198.000000;0.000849
6197.000000;0.000578
6196.000000;0.000303
6195.000000;0.000037
6194.000000;-0.000222
6193.000000;-0.000489
6192.000000;-0.000778
6191.000000;-0.001083
6190.000000;-0.001395
6189.000000;-0.001707
6188.000000;-0.002005
6187.000000;-0.002277
6186.000000;-0.002515
6185.000000;-0.002722
6184.000000;-0.002913
6183.000000;-0.003114
6182.000000;-0.003343
6181.000000;-0.003593
6180.000000;-0.003833
6179.000000;-0.004047
6178.000000;-0.004251
6177.000000;-0.004466
6176.000000;-0.004698
6175.000000;-0.004944
6174.000000;-0.005206
6173.000000;-0.005474
6172.000000;-0.005724
6171.000000;-0.005943
6170.000000;-0.006148
6169.000000;-0.006358
6168.000000;-0.006569
6167.000000;-0.006770
6166.000000;-0.006979
6165.000000;-0.007228
6164.000000;-0.007518
6163.000000;-0.007816
6162.000000;-0.008084
6161.000000;-0.008309
6160.000000;-0.008497
6159.000000;-0.008665
6158.000000;-0.008831
6157.000000;-0.009009
6156.000000;-0.009201
6155.000000;-0.009407
6154.000000;-0.009626
6153.000000;-0.009851
6152.000000;-0.010071
6151.000000;-0.010285
6150.000000;-0.010508
6149.000000;-0.010748
6148.000000;-0.010985
6147.000000;-0.011190
6146.000000;-0.011362
6145.000000;-0.011528
6144.000000;-0.011714
6143.000000;-0.011917
6142.000000;-0.012119
6141.000000;-0.012300
6140.000000;-0.012456
6139.000000;-0.012612
6138.000000;-0.012796
6137.000000;-0.013003
6136.000000;-0.013203
6135.000000;-0.013380
6134.000000;-0.013551
6133.000000;-0.013740
6132.000000;-0.013944
6131.000000;-0.014147
6130.000000;-0.014343
6129.000000;-0.014533
6128.000000;-0.014711
6127.000000;-0.014872
6126.000000;-0.015024
6125.000000;-0.015177
6124.000000;-0.015328
6123.000000;-0.015475
6122.000000;-0.015629
6121.000000;-0.015802
6120.000000;-0.015985
6119.000000;-0.016163
6118.000000;-0.016327
6117.000000;-0.016476
6116.000000;-0.016603
6115.000000;-0.016716
6114.000000;-0.016842
6113.000000;-0.016997
6112.000000;-0.017167
6111.000000;-0.017327
6110.000000;-0.017478
6109.000000;-0.017637
6108.000000;-0.017806
6107.000000;-0.017973
6106.000000;-0.018138
6105.000000;-0.018315
6104.000000;-0.018503
6103.000000;-0.018690
6102.000000;-0.018861
6101.000000;-0.019005
6100.000000;-0.019114
6099.000000;-0.019198
6098.000000;-0.019287
6097.000000;-0.019405
6096.000000;-0.019548
6095.000000;-0.019700
6094.000000;-0.019864
6093.000000;-0.020049
6092.000000;-0.020248
6091.000000;-0.020437
6090.000000;-0.020601
6089.000000;-0.020741
6088.000000;-0.020863
6087.000000;-0.020967
6086.000000;-0.021055
6085.000000;-0.021131
6084.000000;-0.021205
6083.000000;-0.021292
6082.000000;-0.021403
6081.000000;-0.021524
6080.000000;-0.021628
6079.000000;-0.021709
6078.000000;-0.021797
6077.000000;-0.021921
6076.000000;-0.022067
6075.000000;-0.022201
6074.000000;-0.022315
6073.000000;-0.022419
6072.000000;-0.022520
6071.000000;-0.022612
6070.000000;-0.022697
6069.000000;-0.022787
6068.000000;-0.022889
6067.000000;-0.022998
6066.000000;-0.023114
6065.000000;-0.023239
6064.000000;-0.023360
6063.000000;-0.023464
6062.000000;-0.023552
6061.000000;-0.023635
6060.000000;-0.023717
6059.000000;-0.023800
6058.000000;-0.023884
6057.000000;-0.023973
6056.000000;-0.024058
6055.000000;-0.024138
6054.000000;-0.024219
6053.000000;-0.024307
6052.000000;-0.024387
6051.000000;-0.024452
6050.000000;-0.024518
6049.000000;-0.024609
6048.000000;-0.024719
6047.000000;-0.024818
6046.000000;-0.024894
6045.000000;-0.024958
6044.000000;-0.025022
6043.000000;-0.025084
6042.000000;-0.025146
6041.000000;-0.025222
6040.000000;-0.025324
6039.000000;-0.025446
6038.000000;-0.025567
6037.000000;-0.025661
6036.000000;-0.025706
6035.000000;-0.025710
6034.000000;-0.025709
6033.000000;-0.025739
6032.000000;-0.025800
6031.000000;-0.025871
6030.000000;-0.025939
6029.000000;-0.026006
6028.000000;-0.026077
6027.000000;-0.026144
6026.000000;-0.026196
6025.000000;-0.026230
6024.000000;-0.026254
6023.000000;-0.026284
6022.000000;-0.026328
6021.000000;-0.026382
6020.000000;-0.026436
6019.000000;-0.026499
6018.000000;-0.026593
6017.000000;-0.026713
6016.000000;-0.026823
6015.000000;-0.026891
6014.000000;-0.026925
6013.000000;-0.026953
6012.000000;-0.026986
6011.000000;-0.027017
6010.000000;-0.027041
6009.000000;-0.027049
6008.000000;-0.027035
6007.000000;-0.027005
6006.000000;-0.026980
6005.000000;-0.026977
6004.000000;-0.026989
6003.000000;-0.027003
6002.000000;-0.027015
6001.000000;-0.027022
6000.000000;-0.027010
5999.000000;-0.026978
5998.000000;-0.026955
5997.000000;-0.026959
5996.000000;-0.026973
5995.000000;-0.026970
5994.000000;-0.026952
5993.000000;-0.026939
5992.000000;-0.026934
5991.000000;-0.026924
5990.000000;-0.026913
5989.000000;-0.026919
5988.000000;-0.026943
5987.000000;-0.026969
5986.000000;-0.026989
5985.000000;-0.027011
5984.000000;-0.027026
5983.000000;-0.027018
5982.000000;-0.026990
5981.000000;-0.026960
5980.000000;-0.026933
5979.000000;-0.026895
5978.000000;-0.026847
5977.000000;-0.026808
5976.000000;-0.026791
5975.000000;-0.026783
5974.000000;-0.026765
5973.000000;-0.026737
5972.000000;-0.026706
5971.000000;-0.026674
5970.000000;-0.026633
5969.000000;-0.026580
5968.000000;-0.026518
5967.000000;-0.026460
5966.000000;-0.026418
5965.000000;-0.026387
5964.000000;-0.026350
5963.000000;-0.026290
5962.000000;-0.026211
5961.000000;-0.026134
5960.000000;-0.026076
5959.000000;-0.026046
5958.000000;-0.026036
5957.000000;-0.026031
5956.000000;-0.026007
5955.000000;-0.025956
5954.000000;-0.025890
5953.000000;-0.025825
5952.000000;-0.025753
5951.000000;-0.025659
5950.000000;-0.025539
5949.000000;-0.025404
5948.000000;-0.025271
5947.000000;-0.025157
5946.000000;-0.025083
5945.000000;-0.025053
5944.000000;-0.025047
5943.000000;-0.025039
5942.000000;-0.025012
5941.000000;-0.024961
5940.000000;-0.024881
5939.000000;-0.024777
5938.000000;-0.024666
5937.000000;-0.024561
5936.000000;-0.024455
5935.000000;-0.024337
5934.000000;-0.024216
5933.000000;-0.024112
5932.000000;-0.024023
5931.000000;-0.023935
5930.000000;-0.023835
5929.000000;-0.023723
5928.000000;-0.023595
5927.000000;-0.023460
5926.000000;-0.023344
5925.000000;-0.023267
5924.000000;-0.023217
5923.000000;-0.023163
5922.000000;-0.023086
5921.000000;-0.022987
5920.000000;-0.022872
5919.000000;-0.022747
5918.000000;-0.022624
5917.000000;-0.022507
5916.000000;-0.022393
5915.000000;-0.022279
5914.000000;-0.022168
5913.000000;-0.022063
5912.000000;-0.021956
5911.000000;-0.021846
5910.000000;-0.021748
5909.000000;-0.021659
5908.000000;-0.021549
5907.000000;-0.021398
5906.000000;-0.021231
5905.000000;-0.021093
5904.000000;-0.020989
5903.000000;-0.020887
5902.000000;-0.020766
5901.000000;-0.020633
5900.000000;-0.020506
5899.000000;-0.020388
5898.000000;-0.020276
5897.000000;-0.020159
5896.000000;-0.020023
5895.000000;-0.019866
5894.000000;-0.019708
5893.000000;-0.019563
5892.000000;-0.019417
5891.000000;-0.019255
5890.000000;-0.019087
5889.000000;-0.018934
5888.000000;-0.018785
5887.000000;-0.018616
5886.000000;-0.018431
5885.000000;-0.018258
5884.000000;-0.018101
5883.000000;-0.017932
5882.000000;-0.017733
5881.000000;-0.017520
5880.000000;-0.017319
5879.000000;-0.017135
5878.000000;-0.016956
5877.000000;-0.016767
5876.000000;-0.016555
5875.000000;-0.016317
5874.000000;-0.016072
5873.000000;-0.015847
5872.000000;-0.015650
5871.000000;-0.015464
5870.000000;-0.015272
5869.000000;-0.015067
5868.000000;-0.014848
5867.000000;-0.014614
5866.000000;-0.014384
5865.000000;-0.014180
5864.000000;-0.014002
5863.000000;-0.013824
5862.000000;-0.013625
5861.000000;-0.013406
5860.000000;-0.013177
5859.000000;-0.012944
5858.000000;-0.012714
5857.000000;-0.012493
5856.000000;-0.012283
5855.000000;-0.012071
5854.000000;-0.011842
5853.000000;-0.011590
5852.000000;-0.011323
5851.000000;-0.011060
5850.000000;-0.010823
5849.000000;-0.010618
5848.000000;-0.010433
5847.000000;-0.010241
5846.000000;-0.010019
5845.000000;-0.009760
5844.000000;-0.009467
5843.000000;-0.009153
5842.000000;-0.008834
5841.000000;-0.008526
5840.000000;-0.008234
5839.000000;-0.007958
5838.000000;-0.007685
5837.000000;-0.007397
5836.000000;-0.007087
5835.000000;-0.006764
5834.000000;-0.006447
5833.000000;-0.006134
5832.000000;-0.005807
5831.000000;-0.005469
5830.000000;-0.005135
5829.000000;-0.004811
5828.000000;-0.004483
5827.000000;-0.004154
5826.000000;-0.003847
5825.000000;-0.003568
5824.000000;-0.003282
5823.000000;-0.002957
5822.000000;-0.002603
5821.000000;-0.002254
5820.000000;-0.001924
5819.000000;-0.001601
5818.000000;-0.001274
5817.000000;-0.000937
5816.000000;-0.000578
5815.000000;-0.000197
5814.000000;0.000181
5813.000000;0.000534
5812.000000;0.000872
5811.000000;0.001222
5810.000000;0.001589
5809.000000;0.001967
5808.000000;0.002361
5807.000000;0.002776
5806.000000;0.003194
5805.000000;0.003579
5804.000000;0.003928
5803.000000;0.004266
5802.000000;0.004616
5801.000000;0.004990
5800.000000;0.005391
5799.000000;0.005817
5798.000000;0.006251
5797.000000;0.006678
5796.000000;0.007101
5795.000000;0.007529
5794.000000;0.007950
5793.000000;0.008351
5792.000000;0.008736
5791.000000;0.009131
5790.000000;0.009543
5789.000000;0.009957
5788.000000;0.010365
5787.000000;0.010778
5786.000000;0.011204
5785.000000;0.011644
5784.000000;0.012098
5783.000000;0.012569
5782.000000;0.013052
5781.000000;0.013539
5780.000000;0.014027
5779.000000;0.014522
5778.000000;0.015023
5777.000000;0.015521
5776.000000;0.016008
5775.000000;0.016481
5774.000000;0.016941
5773.000000;0.017397
5772.000000;0.017867
5771.000000;0.018366
5770.000000;0.018889
5769.000000;0.019427
5768.000000;0.019972
5767.000000;0.020514
5766.000000;0.021042
5765.000000;0.021554
5764.000000;0.022066
5763.000000;0.022590
5762.000000;0.023118
5761.000000;0.023638
5760.000000;0.024150
5759.000000;0.024658
5758.000000;0.025161
5757.000000;0.025673
5756.000000;0.026223
5755.000000;0.026821
5754.000000;0.027443
5753.000000;0.028064
5752.000000;0.028682
5751.000000;0.029304
5750.000000;0.029919
5749.000000;0.030519
5748.000000;0.031113
5747.000000;0.031710
5746.000000;0.032298
5745.000000;0.032872
5744.000000;0.033453
5743.000000;0.034062
5742.000000;0.034693
5741.000000;0.035325
5740.000000;0.035952
5739.000000;0.036575
5738.000000;0.037183
5737.000000;0.037774
5736.000000;0.038375
5735.000000;0.039009
5734.000000;0.039668
5733.000000;0.040330
5732.000000;0.041005
5731.000000;0.041706
5730.000000;0.042423
5729.000000;0.043134
5728.000000;0.043840
5727.000000;0.044547
5726.000000;0.045239
5725.000000;0.045895
5724.000000;0.046536
5723.000000;0.047204
5722.000000;0.047914
5721.000000;0.048644
5720.000000;0.049372
5719.000000;0.050093
5718.000000;0.050806
5717.000000;0.051514
5716.000000;0.052234
5715.000000;0.052975
5714.000000;0.053714
5713.000000;0.054432
5712.000000;0.055150
5711.000000;0.055902
5710.000000;0.056677
5709.000000;0.057433
5708.000000;0.058159
5707.000000;0.058881
5706.000000;0.059623
5705.000000;0.060382
5704.000000;0.061163
5703.000000;0.061970
5702.000000;0.062791
5701.000000;0.063609
5700.000000;0.064407
5699.000000;0.065182
5698.000000;0.065928
5697.000000;0.066651
5696.000000;0.067377
5695.000000;0.068141
5694.000000;0.068946
5693.000000;0.069776
5692.000000;0.070616
5691.000000;0.071445
5690.000000;0.072228
5689.000000;0.072955
5688.000000;0.073666
5687.000000;0.074416
5686.000000;0.075208
5685.000000;0.076002
5684.000000;0.076775
5683.000000;0.077549
5682.000000;0.078353
5681.000000;0.079181
5680.000000;0.080010
5679.000000;0.080814
5678.000000;0.081588
5677.000000;0.082352
5676.000000;0.083138
5675.000000;0.083948
5674.000000;0.084743
5673.000000;0.085497
5672.000000;0.086243
5671.000000;0.087035
5670.000000;0.087880
5669.000000;0.088744
5668.000000;0.089601
5667.000000;0.090433
5666.000000;0.091219
5665.000000;0.091949
5664.000000;0.092654
5663.000000;0.093378
5662.000000;0.094121
5661.000000;0.094858
5660.000000;0.095585
5659.000000;0.096313
5658.000000;0.097038
5657.000000;0.097748
5656.000000;0.098467
5655.000000;0.099231
5654.000000;0.100035
5653.000000;0.100831
5652.000000;0.101581
5651.000000;0.102281
5650.000000;0.102941
5649.000000;0.103584
5648.000000;0.104246
5647.000000;0.104943
5646.000000;0.105649
5645.000000;0.106325
5644.000000;0.106979
5643.000000;0.107646
5642.000000;0.108335
5641.000000;0.109023
5640.000000;0.109696
5639.000000;0.110354
5638.000000;0.110996
5637.000000;0.111623
5636.000000;0.112254
5635.000000;0.112903
5634.000000;0.113551
5633.000000;0.114170
5632.000000;0.114763
5631.000000;0.115340
5630.000000;0.115885
5629.000000;0.116386
5628.000000;0.116869
5627.000000;0.117370
5626.000000;0.117896
5625.000000;0.118434
5624.000000;0.118995
5623.000000;0.119591
5622.000000;0.120179
5621.000000;0.120701
5620.000000;0.121158
5619.000000;0.121603
5618.000000;0.122080
5617.000000;0.122593
5616.000000;0.123136
5615.000000;0.123686
5614.000000;0.124184
5613.000000;0.124581
5612.000000;0.124900
5611.000000;0.125218
5610.000000;0.125581
5609.000000;0.125986
5608.000000;0.126428
5607.000000;0.126898
5606.000000;0.127365
5605.000000;0.127796
5604.000000;0.128199
5603.000000;0.128586
5602.000000;0.128931
5601.000000;0.129211
5600.000000;0.129467
5599.000000;0.129761
5598.000000;0.130085
5597.000000;0.130376
5596.000000;0.130610
5595.000000;0.130810
5594.000000;0.130985
5593.000000;0.131133
5592.000000;0.131295
5591.000000;0.131532
5590.000000;0.131852
5589.000000;0.132205
5588.000000;0.132550
5587.000000;0.132873
5586.000000;0.133152
5585.000000;0.133364
5584.000000;0.133532
5583.000000;0.133702
5582.000000;0.133888
5581.000000;0.134070
5580.000000;0.134254
5579.000000;0.134454
5578.000000;0.134636
5577.000000;0.134753
5576.000000;0.134822
5575.000000;0.134902
5574.000000;0.135015
5573.000000;0.135137
5572.000000;0.135269
5571.000000;0.135442
5570.000000;0.135644
5569.000000;0.135817
5568.000000;0.135936
5567.000000;0.136028
5566.000000;0.136097
5565.000000;0.136112
5564.000000;0.136074
5563.000000;0.136036
5562.000000;0.136045
5561.000000;0.136114
5560.000000;0.136252
5559.000000;0.136473
5558.000000;0.136765
5557.000000;0.137084
5556.000000;0.137394
5555.000000;0.137674
5554.000000;0.137896
5553.000000;0.138024
5552.000000;0.138044
5551.000000;0.137973
5550.000000;0.137838
5549.000000;0.137673
5548.000000;0.137522
5547.000000;0.137410
5546.000000;0.137337
5545.000000;0.137306
5544.000000;0.137334
5543.000000;0.137441
5542.000000;0.137628
5541.000000;0.137903
5540.000000;0.138266
5539.000000;0.138674
5538.000000;0.139020
5537.000000;0.139173
5536.000000;0.139054
5535.000000;0.138679
5534.000000;0.138170
5533.000000;0.137708
5532.000000;0.137433
5531.000000;0.137368
5530.000000;0.137427
5529.000000;0.137536
5528.000000;0.137728
5527.000000;0.138074
5526.000000;0.138572
5525.000000;0.139128
5524.000000;0.139622
5523.000000;0.139978
5522.000000;0.140162
5521.000000;0.140153
5520.000000;0.139982
5519.000000;0.139762
5518.000000;0.139672
5517.000000;0.139822
5516.000000;0.140092
5515.000000;0.140267
5514.000000;0.140362
5513.000000;0.140683
5512.000000;0.141433
5511.000000;0.142421
5510.000000;0.143258
5509.000000;0.143735
5508.000000;0.143852
5507.000000;0.143540
5506.000000;0.142710
5505.000000;0.141621
5504.000000;0.140894
5503.000000;0.141066
5502.000000;0.142171
5501.000000;0.143783
5500.000000;0.145529
5499.000000;0.147390
5498.000000;0.149463
5497.000000;0.151633
5496.000000;0.153591
5495.000000;0.155117
5494.000000;0.156082
5493.000000;0.156185
5492.000000;0.155049
5491.000000;0.152803
5490.000000;0.150241
5489.000000;0.148116
5488.000000;0.146440
5487.000000;0.144840
5486.000000;0.143560
5485.000000;0.143643
5484.000000;0.145713
5483.000000;0.149075
5482.000000;0.152519
5481.000000;0.155499
5480.000000;0.158035
5479.000000;0.159895
5478.000000;0.160711
5477.000000;0.160705
5476.000000;0.160311
5475.000000;0.159318
5474.000000;0.157336
5473.000000;0.155011
5472.000000;0.153777
5471.000000;0.154497
5470.000000;0.156827
5469.000000;0.159737
5468.000000;0.162305
5467.000000;0.164072
5466.000000;0.165055
5465.000000;0.165593
5464.000000;0.165888
5463.000000;0.165735
5462.000000;0.164924
5461.000000;0.163618
5460.000000;0.162194
5459.000000;0.160978
5458.000000;0.160306
5457.000000;0.160575
5456.000000;0.162083
5455.000000;0.164815
5454.000000;0.168345
5453.000000;0.172122
5452.000000;0.175891
5451.000000;0.179888
5450.000000;0.184224
5449.000000;0.188147
5448.000000;0.190593
5447.000000;0.191383
5446.000000;0.191247
5445.000000;0.190803
5444.000000;0.190143
5443.000000;0.189379
5442.000000;0.188910
5441.000000;0.188861
5440.000000;0.188902
5439.000000;0.189123
5438.000000;0.190376
5437.000000;0.193188
5436.000000;0.196867
5435.000000;0.199961
5434.000000;0.201387
5433.000000;0.201097
5432.000000;0.199858
5431.000000;0.198636
5430.000000;0.197815
5429.000000;0.196680
5428.000000;0.194214
5427.000000;0.190478
5426.000000;0.186792
5425.000000;0.184713
5424.000000;0.185144
5423.000000;0.188083
5422.000000;0.192874
5421.000000;0.198910
5420.000000;0.205969
5419.000000;0.213821
5418.000000;0.221688
5417.000000;0.228493
5416.000000;0.233727
5415.000000;0.237391
5414.000000;0.239063
5413.000000;0.237968
5412.000000;0.234345
5411.000000;0.229871
5410.000000;0.226200
5409.000000;0.223694
5408.000000;0.222081
5407.000000;0.221577
5406.000000;0.222784
5405.000000;0.225671
5404.000000;0.229643
5403.000000;0.234538
5402.000000;0.240420
5401.000000;0.246872
5400.000000;0.253189
5399.000000;0.258936
5398.000000;0.263865
5397.000000;0.267641
5396.000000;0.270416
5395.000000;0.273023
5394.000000;0.275889
5393.000000;0.278486
5392.000000;0.280324
5391.000000;0.282049
5390.000000;0.284693
5389.000000;0.288246
5388.000000;0.291944
5387.000000;0.295785
5386.000000;0.300494
5385.000000;0.306011
5384.000000;0.311542
5383.000000;0.316994
5382.000000;0.323058
5381.000000;0.329781
5380.000000;0.336213
5379.000000;0.341725
5378.000000;0.346578
5377.000000;0.350681
5376.000000;0.353273
5375.000000;0.354446
5374.000000;0.355752
5373.000000;0.358727
5372.000000;0.363544
5371.000000;0.369594
5370.000000;0.376539
5369.000000;0.384264
5368.000000;0.392321
5367.000000;0.400235
5366.000000;0.408031
5365.000000;0.415951
5364.000000;0.424242
5363.000000;0.433360
5362.000000;0.443748
5361.000000;0.455250
5360.000000;0.467237
5359.000000;0.479566
5358.000000;0.492470
5357.000000;0.505497
5356.000000;0.517742
5355.000000;0.529447
5354.000000;0.541933
5353.000000;0.555491
5352.000000;0.568794
5351.000000;0.580979
5350.000000;0.593061
5349.000000;0.606443
5348.000000;0.621062
5347.000000;0.635977
5346.000000;0.651006
5345.000000;0.666219
5344.000000;0.680612
5343.000000;0.693118
5342.000000;0.704545
5341.000000;0.716871
5340.000000;0.730858
5339.000000;0.745425
5338.000000;0.759208
5337.000000;0.772243
5336.000000;0.785648
5335.000000;0.800493
5334.000000;0.817330
5333.000000;0.835912
5332.000000;0.855053
5331.000000;0.873422
5330.000000;0.890798
5329.000000;0.908077
5328.000000;0.925977
5327.000000;0.944144
5326.000000;0.962056
5325.000000;0.980072
5324.000000;0.999024
5323.000000;1.019354
5322.000000;1.040992
5321.000000;1.063535
5320.000000;1.086360
5319.000000;1.109149
5318.000000;1.132347
5317.000000;1.156642
5316.000000;1.181847
5315.000000;1.207047
5314.000000;1.231840
5313.000000;1.256379
5312.000000;1.280362
5311.000000;1.303170
5310.000000;1.325001
5309.000000;1.346604
5308.000000;1.367856
5307.000000;1.387907
5306.000000;1.406739
5305.000000;1.425177
5304.000000;1.443467
5303.000000;1.461179
5302.000000;1.478330
5301.000000;1.495425
5300.000000;1.512678
5299.000000;1.530080
5298.000000;1.547669
5297.000000;1.564889
5296.000000;1.580373
5295.000000;1.593611
5294.000000;1.605885
5293.000000;1.618271
5292.000000;1.629923
5291.000000;1.639483
5290.000000;1.647026
5289.000000;1.653323
5288.000000;1.658522
5287.000000;1.663107
5286.000000;1.668431
5285.000000;1.674660
5284.000000;1.679872
5283.000000;1.682847
5282.000000;1.684971
5281.000000;1.687677
5280.000000;1.690207
5279.000000;1.691521
5278.000000;1.692414
5277.000000;1.693856
5276.000000;1.695329
5275.000000;1.696602
5274.000000;1.699323
5273.000000;1.704707
5272.000000;1.711400
5271.000000;1.717689
5270.000000;1.723786
5269.000000;1.729976
5268.000000;1.734471
5267.000000;1.735631
5266.000000;1.734649
5265.000000;1.733756
5264.000000;1.733048
5263.000000;1.731331
5262.000000;1.728985
5261.000000;1.727323
5260.000000;1.726375
5259.000000;1.725525
5258.000000;1.725482
5257.000000;1.727326
5256.000000;1.730402
5255.000000;1.732843
5254.000000;1.733938
5253.000000;1.734356
5252.000000;1.734600
5251.000000;1.735049
5250.000000;1.736365
5249.000000;1.738272
5248.000000;1.738845
5247.000000;1.736656
5246.000000;1.732611
5245.000000;1.728284
5244.000000;1.723833
5243.000000;1.719008
5242.000000;1.714972
5241.000000;1.713216
5240.000000;1.713583
5239.000000;1.714784
5238.000000;1.716108
5237.000000;1.717296
5236.000000;1.717752
5235.000000;1.717578
5234.000000;1.718297
5233.000000;1.720920
5232.000000;1.724205
5231.000000;1.726199
5230.000000;1.726654
5229.000000;1.726745
5228.000000;1.727372
5227.000000;1.728739
5226.000000;1.730258
5225.000000;1.730139
5224.000000;1.726702
5223.000000;1.721021
5222.000000;1.716458
5221.000000;1.715001
5220.000000;1.715601
5219.000000;1.716526
5218.000000;1.717579
5217.000000;1.719099
5216.000000;1.720814
5215.000000;1.722803
5214.000000;1.725795
5213.000000;1.729582
5212.000000;1.732693
5211.000000;1.734385
5210.000000;1.735412
5209.000000;1.736234
5208.000000;1.735984
5207.000000;1.734016
5206.000000;1.730930
5205.000000;1.727139
5204.000000;1.722287
5203.000000;1.717273
5202.000000;1.714603
5201.000000;1.715307
5200.000000;1.717293
5199.000000;1.718201
5198.000000;1.718152
5197.000000;1.718121
5196.000000;1.717730
5195.000000;1.716550
5194.000000;1.715755
5193.000000;1.716445
5192.000000;1.717694
5191.000000;1.718057
5190.000000;1.717849
5189.000000;1.718244
5188.000000;1.719240
5187.000000;1.720212
5186.000000;1.721275
5185.000000;1.722375
5184.000000;1.722130
5183.000000;1.719530
5182.000000;1.715923
5181.000000;1.713578
5180.000000;1.713108
5179.000000;1.713674
5178.000000;1.714719
5177.000000;1.715952
5176.000000;1.716377
5175.000000;1.715134
5174.000000;1.713040
5173.000000;1.711824
5172.000000;1.712142
5171.000000;1.713294
5170.000000;1.714449
5169.000000;1.715174
5168.000000;1.715244
5167.000000;1.714918
5166.000000;1.715019
5165.000000;1.715905
5164.000000;1.716790
5163.000000;1.716701
5162.000000;1.715623
5161.000000;1.714103
5160.000000;1.712532
5159.000000;1.711431
5158.000000;1.711595
5157.000000;1.713097
5156.000000;1.714754
5155.000000;1.715266
5154.000000;1.714482
5153.000000;1.713080
5152.000000;1.711699
5151.000000;1.710866
5150.000000;1.710885
5149.000000;1.711317
5148.000000;1.711391
5147.000000;1.711236
5146.000000;1.711706
5145.000000;1.712732
5144.000000;1.713189
5143.000000;1.712843
5142.000000;1.712915
5141.000000;1.713928
5140.000000;1.714500
5139.000000;1.713325
5138.000000;1.711039
5137.000000;1.709092
5136.000000;1.708030
5135.000000;1.707872
5134.000000;1.708934
5133.000000;1.711079
5132.000000;1.713027
5131.000000;1.713597
5130.000000;1.712948
5129.000000;1.711747
5128.000000;1.710032
5127.000000;1.707813
5126.000000;1.705876
5125.000000;1.705052
5124.000000;1.705389
5123.000000;1.706593
5122.000000;1.708417
5121.000000;1.710095
5120.000000;1.710457
5119.000000;1.709288
5118.000000;1.707589
5117.000000;1.706030
5116.000000;1.704371
5115.000000;1.702844
5114.000000;1.702557
5113.000000;1.703684
5112.000000;1.704684
5111.000000;1.704434
5110.000000;1.703865
5109.000000;1.704330
5108.000000;1.705599
5107.000000;1.706689
5106.000000;1.707522
5105.000000;1.708364
5104.000000;1.708552
5103.000000;1.707290
5102.000000;1.705129
5101.000000;1.703372
5100.000000;1.702519
5099.000000;1.702267
5098.000000;1.702418
5097.000000;1.702874
5096.000000;1.703276
5095.000000;1.703429
5094.000000;1.703492
5093.000000;1.703205
5092.000000;1.701785
5091.000000;1.699293
5090.000000;1.697156
5089.000000;1.696586
5088.000000;1.697349
5087.000000;1.698659
5086.000000;1.700164
5085.000000;1.701330
5084.000000;1.701091
5083.000000;1.699280
5082.000000;1.697332
5081.000000;1.696445
5080.000000;1.696049
5079.000000;1.695164
5078.000000;1.694210
5077.000000;1.694147
5076.000000;1.694724
5075.000000;1.694940
5074.000000;1.694631
5073.000000;1.694306
5072.000000;1.693971
5071.000000;1.693358
5070.000000;1.692828
5069.000000;1.692850
5068.000000;1.692918
5067.000000;1.692075
5066.000000;1.690291
5065.000000;1.688353
5064.000000;1.686742
5063.000000;1.685501
5062.000000;1.684813
5061.000000;1.684779
5060.000000;1.684852
5059.000000;1.684315
5058.000000;1.683179
5057.000000;1.682055
5056.000000;1.681475
5055.000000;1.681718
5054.000000;1.682763
5053.000000;1.683901
5052.000000;1.684074
5051.000000;1.683175
5050.000000;1.682278
5049.000000;1.682044
5048.000000;1.681781
5047.000000;1.680750
5046.000000;1.679450
5045.000000;1.678577
5044.000000;1.677534
5043.000000;1.675286
5042.000000;1.672194
5041.000000;1.669780
5040.000000;1.668900
5039.000000;1.669076
5038.000000;1.669370
5037.000000;1.669077
5036.000000;1.667816
5035.000000;1.665789
5034.000000;1.663924
5033.000000;1.663141
5032.000000;1.663508
5031.000000;1.664408
5030.000000;1.665228
5029.000000;1.665470
5028.000000;1.664690
5027.000000;1.662866
5026.000000;1.660522
5025.000000;1.658063
5024.000000;1.655438
5023.000000;1.652771
5022.000000;1.650694
5021.000000;1.649568
5020.000000;1.648937
5019.000000;1.648251
5018.000000;1.647610
5017.000000;1.647312
5016.000000;1.647286
5015.000000;1.647433
5014.000000;1.647860
5013.000000;1.648196
5012.000000;1.647414
5011.000000;1.645059
5010.000000;1.642018
5009.000000;1.639361
5008.000000;1.637099
5007.000000;1.634667
5006.000000;1.632127
5005.000000;1.629806
5004.000000;1.627530
5003.000000;1.625037
5002.000000;1.622679
5001.000000;1.620999
5000.000000;1.619864
4999.000000;1.618740
4998.000000;1.617484
4997.000000;1.616201
4996.000000;1.614681
4995.000000;1.612627
4994.000000;1.610160
4993.000000;1.607488
4992.000000;1.604447
4991.000000;1.601010
4990.000000;1.597882
4989.000000;1.595827
4988.000000;1.594630
4987.000000;1.593350
4986.000000;1.591463
4985.000000;1.589163
4984.000000;1.586727
4983.000000;1.584272
4982.000000;1.582025
4981.000000;1.580166
4980.000000;1.578425
4979.000000;1.576308
4978.000000;1.573746
4977.000000;1.571133
4976.000000;1.568830
4975.000000;1.566929
4974.000000;1.565357
4973.000000;1.563874
4972.000000;1.562093
4971.000000;1.559816
4970.000000;1.557213
4969.000000;1.554471
4968.000000;1.551505
4967.000000;1.548229
4966.000000;1.544849
4965.000000;1.541635
4964.000000;1.538631
4963.000000;1.535769
4962.000000;1.532997
4961.000000;1.530152
4960.000000;1.527078
4959.000000;1.523999
4958.000000;1.521400
4957.000000;1.519357
4956.000000;1.517398
4955.000000;1.515182
4954.000000;1.512810
4953.000000;1.510201
4952.000000;1.506794
4951.000000;1.502373
4950.000000;1.497702
4949.000000;1.493771
4948.000000;1.490727
4947.000000;1.487957
4946.000000;1.484965
4945.000000;1.481754
4944.000000;1.478486
4943.000000;1.475155
4942.000000;1.471565
4941.000000;1.467511
4940.000000;1.463170
4939.000000;1.459290
4938.000000;1.456532
4937.000000;1.454519
4936.000000;1.452020
4935.000000;1.448375
4934.000000;1.444233
4933.000000;1.440553
4932.000000;1.437403
4931.000000;1.434160
4930.000000;1.430435
4929.000000;1.426275
4928.000000;1.421812
4927.000000;1.417217
4926.000000;1.412808
4925.000000;1.408769
4924.000000;1.404938
4923.000000;1.401159
4922.000000;1.397626
4921.000000;1.394553
4920.000000;1.391738
4919.000000;1.388804
4918.000000;1.385686
4917.000000;1.382553
4916.000000;1.379413
4915.000000;1.376108
4914.000000;1.372554
4913.000000;1.368731
4912.000000;1.364651
4911.000000;1.360578
4910.000000;1.357014
4909.000000;1.354124
4908.000000;1.351361
4907.000000;1.347975
4906.000000;1.343755
4905.000000;1.339087
4904.000000;1.334505
4903.000000;1.330433
4902.000000;1.327061
4901.000000;1.324065
4900.000000;1.320675
4899.000000;1.316442
4898.000000;1.311824
4897.000000;1.307669
4896.000000;1.304257
4895.000000;1.301176
4894.000000;1.297994
4893.000000;1.294628
4892.000000;1.291103
4891.000000;1.287316
4890.000000;1.283194
4889.000000;1.278872
4888.000000;1.274622
4887.000000;1.270695
4886.000000;1.267176
4885.000000;1.263848
4884.000000;1.260297
4883.000000;1.256304
4882.000000;1.252081
4881.000000;1.247997
4880.000000;1.244159
4879.000000;1.240411
4878.000000;1.236629
4877.000000;1.232838
4876.000000;1.229098
4875.000000;1.225445
4874.000000;1.221893
4873.000000;1.218384
4872.000000;1.214779
4871.000000;1.211032
4870.000000;1.207274
4869.000000;1.203624
4868.000000;1.199995
4867.000000;1.196227
4866.000000;1.192329
4865.000000;1.188430
4864.000000;1.184562
4863.000000;1.180628
4862.000000;1.176566
4861.000000;1.172419
4860.000000;1.168269
4859.000000;1.164200
4858.000000;1.160294
4857.000000;1.156584
4856.000000;1.153042
4855.000000;1.149614
4854.000000;1.146225
4853.000000;1.142713
4852.000000;1.138902
4851.000000;1.134788
4850.000000;1.130576
4849.000000;1.126472
4848.000000;1.122530
4847.000000;1.118745
4846.000000;1.115131
4845.000000;1.111629
4844.000000;1.108072
4843.000000;1.104367
4842.000000;1.100636
4841.000000;1.097065
4840.000000;1.093694
4839.000000;1.090413
4838.000000;1.087075
4837.000000;1.083548
4836.000000;1.079737
4835.000000;1.075657
4834.000000;1.071444
4833.000000;1.067252
4832.000000;1.063191
4831.000000;1.059360
4830.000000;1.055813
4829.000000;1.052469
4828.000000;1.049160
4827.000000;1.045819
4826.000000;1.042479
4825.000000;1.039072
4824.000000;1.035420
4823.000000;1.031496
4822.000000;1.027551
4821.000000;1.023842
4820.000000;1.020368
4819.000000;1.016954
4818.000000;1.013479
4817.000000;1.009924
4816.000000;1.006325
4815.000000;1.002790
4814.000000;0.999440
4813.000000;0.996213
4812.000000;0.992820
4811.000000;0.989049
4810.000000;0.985039
4809.000000;0.981146
4808.000000;0.977596
4807.000000;0.974355
4806.000000;0.971243
4805.000000;0.968049
4804.000000;0.964597
4803.000000;0.960891
4802.000000;0.957156
4801.000000;0.953646
4800.000000;0.950385
4799.000000;0.947177
4798.000000;0.943839
4797.000000;0.940346
4796.000000;0.936782
4795.000000;0.933267
4794.000000;0.929918
4793.000000;0.926778
4792.000000;0.923738
4791.000000;0.920589
4790.000000;0.917220
4789.000000;0.913741
4788.000000;0.910403
4787.000000;0.907359
4786.000000;0.904511
4785.000000;0.901577
4784.000000;0.898345
4783.000000;0.894865
4782.000000;0.891377
4781.000000;0.888074
4780.000000;0.884967
4779.000000;0.881945
4778.000000;0.878886
4777.000000;0.875716
4776.000000;0.872424
4775.000000;0.869066
4774.000000;0.865711
4773.000000;0.862395
4772.000000;0.859166
4771.000000;0.856108
4770.000000;0.853242
4769.000000;0.850432
4768.000000;0.847491
4767.000000;0.844387
4766.000000;0.841245
4765.000000;0.838163
4764.000000;0.835155
4763.000000;0.832269
4762.000000;0.829591
4761.000000;0.827066
4760.000000;0.824442
4759.000000;0.821507
4758.000000;0.818315
4757.000000;0.815126
4756.000000;0.812157
4755.000000;0.809449
4754.000000;0.806876
4753.000000;0.804236
4752.000000;0.801380
4751.000000;0.798334
4750.000000;0.795279
4749.000000;0.792389
4748.000000;0.789715
4747.000000;0.787198
4746.000000;0.784706
4745.000000;0.782068
4744.000000;0.779183
4743.000000;0.776136
4742.000000;0.773141
4741.000000;0.770335
4740.000000;0.767690
4739.000000;0.765133
4738.000000;0.762636
4737.000000;0.760152
4736.000000;0.757589
4735.000000;0.754914
4734.000000;0.752211
4733.000000;0.749564
4732.000000;0.746957
4731.000000;0.744344
4730.000000;0.741732
4729.000000;0.739137
4728.000000;0.736516
4727.000000;0.733851
4726.000000;0.731241
4725.000000;0.728828
4724.000000;0.726630
4723.000000;0.724517
4722.000000;0.722326
4721.000000;0.719977
4720.000000;0.717508
4719.000000;0.715053
4718.000000;0.712751
4717.000000;0.710626
4716.000000;0.708572
4715.000000;0.706478
4714.000000;0.704312
4713.000000;0.702084
4712.000000;0.699786
4711.000000;0.697434
4710.000000;0.695116
4709.000000;0.692942
4708.000000;0.690932
4707.000000;0.688988
4706.000000;0.686949
4705.000000;0.684709
4704.000000;0.682321
4703.000000;0.679993
4702.000000;0.677895
4701.000000;0.675968
4700.000000;0.673993
4699.000000;0.671861
4698.000000;0.669705
4697.000000;0.667718
4696.000000;0.665923
4695.000000;0.664198
4694.000000;0.662440
4693.000000;0.660635
4692.000000;0.658811
4691.000000;0.657007
4690.000000;0.655259
4689.000000;0.653553
4688.000000;0.651824
4687.000000;0.650019
4686.000000;0.648156
4685.000000;0.646271
4684.000000;0.644370
4683.000000;0.642467
4682.000000;0.640617
4681.000000;0.638862
4680.000000;0.637174
4679.000000;0.635505
4678.000000;0.633857
4677.000000;0.632253
4676.000000;0.630668
4675.000000;0.629068
4674.000000;0.627464
4673.000000;0.625892
4672.000000;0.624333
4671.000000;0.622739
4670.000000;0.621111
4669.000000;0.619497
4668.000000;0.617911
4667.000000;0.616313
4666.000000;0.614671
4665.000000;0.613014
4664.000000;0.611431
4663.000000;0.610008
4662.000000;0.608769
4661.000000;0.607639
4660.000000;0.606489
4659.000000;0.605233
4658.000000;0.603867
4657.000000;0.602413
4656.000000;0.600883
4655.000000;0.599312
4654.000000;0.597790
4653.000000;0.596386
4652.000000;0.595063
4651.000000;0.593738
4650.000000;0.592400
4649.000000;0.591132
4648.000000;0.589998
4647.000000;0.588948
4646.000000;0.587854
4645.000000;0.586643
4644.000000;0.585361
4643.000000;0.584115
4642.000000;0.582954
4641.000000;0.581835
4640.000000;0.580709
4639.000000;0.579603
4638.000000;0.578578
4637.000000;0.577617
4636.000000;0.576618
4635.000000;0.575501
4634.000000;0.574288
4633.000000;0.573062
4632.000000;0.571881
4631.000000;0.570761
4630.000000;0.569687
4629.000000;0.568643
4628.000000;0.567647
4627.000000;0.566733
4626.000000;0.565886
4625.000000;0.564994
4624.000000;0.563974
4623.000000;0.562915
4622.000000;0.562019
4621.000000;0.561354
4620.000000;0.560730
4619.000000;0.559897
4618.000000;0.558805
4617.000000;0.557635
4616.000000;0.556603
4615.000000;0.555796
4614.000000;0.555144
4613.000000;0.554499
4612.000000;0.553739
4611.000000;0.552863
4610.000000;0.551992
4609.000000;0.551252
4608.000000;0.550650
4607.000000;0.550079
4606.000000;0.549405
4605.000000;0.548579
4604.000000;0.547675
4603.000000;0.546849
4602.000000;0.546221
4601.000000;0.545773
4600.000000;0.545370
4599.000000;0.544901
4598.000000;0.544361
4597.000000;0.543795
4596.000000;0.543220
4595.000000;0.542635
4594.000000;0.542066
4593.000000;0.541561
4592.000000;0.541134
4591.000000;0.540758
4590.000000;0.540380
4589.000000;0.539946
4588.000000;0.539443
4587.000000;0.538935
4586.000000;0.538516
4585.000000;0.538208
4584.000000;0.537937
4583.000000;0.537633
4582.000000;0.537300
4581.000000;0.536977
4580.000000;0.536676
4579.000000;0.536389
4578.000000;0.536121
4577.000000;0.535861
4576.000000;0.535571
4575.000000;0.535250
4574.000000;0.534978
4573.000000;0.534854
4572.000000;0.534878
4571.000000;0.534939
4570.000000;0.534915
4569.000000;0.534756
4568.000000;0.534502
4567.000000;0.534234
4566.000000;0.534029
4565.000000;0.533937
4564.000000;0.533986
4563.000000;0.534177
4562.000000;0.534448
4561.000000;0.534668
4560.000000;0.534736
4559.000000;0.534688
4558.000000;0.534669
4557.000000;0.534780
4556.000000;0.535000
4555.000000;0.535255
4554.000000;0.535504
4553.000000;0.535736
4552.000000;0.535948
4551.000000;0.536169
4550.000000;0.536463
4549.000000;0.536860
4548.000000;0.537317
4547.000000;0.537780
4546.000000;0.538239
4545.000000;0.538697
4544.000000;0.539122
4543.000000;0.539478
4542.000000;0.539777
4541.000000;0.540070
4540.000000;0.540402
4539.000000;0.540791
4538.000000;0.541238
4537.000000;0.541715
4536.000000;0.542199
4535.000000;0.542713
4534.000000;0.543298
4533.000000;0.543910
4532.000000;0.544411
4531.000000;0.544711
4530.000000;0.544883
4529.000000;0.545082
4528.000000;0.545375
4527.000000;0.545713
4526.000000;0.546053
4525.000000;0.546436
4524.000000;0.546935
4523.000000;0.547544
4522.000000;0.548153
4521.000000;0.548627
4520.000000;0.548940
4519.000000;0.549194
4518.000000;0.549520
4517.000000;0.549972
4516.000000;0.550533
4515.000000;0.551179
4514.000000;0.551866
4513.000000;0.552474
4512.000000;0.552892
4511.000000;0.553170
4510.000000;0.553500
4509.000000;0.553986
4508.000000;0.554535
4507.000000;0.555017
4506.000000;0.555451
4505.000000;0.555954
4504.000000;0.556561
4503.000000;0.557200
4502.000000;0.557814
4501.000000;0.558422
4500.000000;0.559062
4499.000000;0.559753
4498.000000;0.560499
4497.000000;0.561294
4496.000000;0.562109
4495.000000;0.562913
4494.000000;0.563712
4493.000000;0.564517
4492.000000;0.565302
4491.000000;0.566024
4490.000000;0.566697
4489.000000;0.567395
4488.000000;0.568192
4487.000000;0.569091
4486.000000;0.570012
4485.000000;0.570854
4484.000000;0.571601
4483.000000;0.572369
4482.000000;0.573317
4481.000000;0.574483
4480.000000;0.575735
4479.000000;0.576913
4478.000000;0.577976
4477.000000;0.579008
4476.000000;0.580109
4475.000000;0.581315
4474.000000;0.582578
4473.000000;0.583802
4472.000000;0.584917
4471.000000;0.585958
4470.000000;0.587045
4469.000000;0.588286
4468.000000;0.589682
4467.000000;0.591152
4466.000000;0.592597
4465.000000;0.593958
4464.000000;0.595251
4463.000000;0.596541
4462.000000;0.597868
4461.000000;0.599196
4460.000000;0.600489
4459.000000;0.601805
4458.000000;0.603237
4457.000000;0.604787
4456.000000;0.606385
4455.000000;0.608025
4454.000000;0.609751
4453.000000;0.611510
4452.000000;0.613144
4451.000000;0.614604
4450.000000;0.616053
4449.000000;0.617692
4448.000000;0.619558
4447.000000;0.621551
4446.000000;0.623552
4445.000000;0.625450
4444.000000;0.627155
4443.000000;0.628685
4442.000000;0.630202
4441.000000;0.631866
4440.000000;0.633695
4439.000000;0.635594
4438.000000;0.637455
4437.000000;0.639173
4436.000000;0.640683
4435.000000;0.642107
4434.000000;0.643760
4433.000000;0.645879
4432.000000;0.648348
4431.000000;0.650815
4430.000000;0.653046
4429.000000;0.655083
4428.000000;0.657078
4427.000000;0.659088
4426.000000;0.661061
4425.000000;0.662948
4424.000000;0.664799
4423.000000;0.666747
4422.000000;0.668888
4421.000000;0.671173
4420.000000;0.673472
4419.000000;0.675756
4418.000000;0.678112
4417.000000;0.680562
4416.000000;0.682967
4415.000000;0.685218
4414.000000;0.687398
4413.000000;0.689662
4412.000000;0.692027
4411.000000;0.694407
4410.000000;0.696771
4409.000000;0.699141
4408.000000;0.701505
4407.000000;0.703871
4406.000000;0.706355
4405.000000;0.709062
4404.000000;0.711901
4403.000000;0.714658
4402.000000;0.717276
4401.000000;0.719912
4400.000000;0.722688
4399.000000;0.725498
4398.000000;0.728120
4397.000000;0.730453
4396.000000;0.732637
4395.000000;0.734947
4394.000000;0.737575
4393.000000;0.740453
4392.000000;0.743343
4391.000000;0.746115
4390.000000;0.748875
4389.000000;0.751748
4388.000000;0.754664
4387.000000;0.757459
4386.000000;0.760140
4385.000000;0.762877
4384.000000;0.765777
4383.000000;0.768807
4382.000000;0.771888
4381.000000;0.774957
4380.000000;0.777949
4379.000000;0.780872
4378.000000;0.783881
4377.000000;0.787120
4376.000000;0.790492
4375.000000;0.793747
4374.000000;0.796794
4373.000000;0.799774
4372.000000;0.802813
4371.000000;0.805883
4370.000000;0.808996
4369.000000;0.812332
4368.000000;0.816039
4367.000000;0.819985
4366.000000;0.823840
4365.000000;0.827367
4364.000000;0.830583
4363.000000;0.833667
4362.000000;0.836806
4361.000000;0.840118
4360.000000;0.843648
4359.000000;0.847386
4358.000000;0.851277
4357.000000;0.855192
4356.000000;0.858973
4355.000000;0.862550
4354.000000;0.866017
4353.000000;0.869519
4352.000000;0.873111
4351.000000;0.876788
4350.000000;0.880605
4349.000000;0.884651
4348.000000;0.888875
4347.000000;0.893062
4346.000000;0.897028
4345.000000;0.900794
4344.000000;0.904547
4343.000000;0.908468
4342.000000;0.912612
4341.000000;0.916884
4340.000000;0.921114
4339.000000;0.925203
4338.000000;0.929182
4337.000000;0.933100
4336.000000;0.936890
4335.000000;0.940448
4334.000000;0.943866
4333.000000;0.947466
4332.000000;0.951554
4331.000000;0.956171
4330.000000;0.961101
4329.000000;0.966066
4328.000000;0.970883
4327.000000;0.975505
4326.000000;0.979982
4325.000000;0.984405
4324.000000;0.988842
4323.000000;0.993282
4322.000000;0.997605
4321.000000;1.001645
4320.000000;1.005370
4319.000000;1.009037
4318.000000;1.013068
4317.000000;1.017703
4316.000000;1.022844
4315.000000;1.028234
4314.000000;1.033694
4313.000000;1.039087
4312.000000;1.044185
4311.000000;1.048774
4310.000000;1.052896
4309.000000;1.056873
4308.000000;1.061061
4307.000000;1.065593
4306.000000;1.070314
4305.000000;1.074914
4304.000000;1.079171
4303.000000;1.083201
4302.000000;1.087428
4301.000000;1.092272
4300.000000;1.097867
4299.000000;1.104071
4298.000000;1.110597
4297.000000;1.117027
4296.000000;1.122837
4295.000000;1.127681
4294.000000;1.131748
4293.000000;1.135745
4292.000000;1.140418
4291.000000;1.146021
4290.000000;1.152160
4289.000000;1.158093
4288.000000;1.163247
4287.000000;1.167537
4286.000000;1.171254
4285.000000;1.174828
4284.000000;1.178789
4283.000000;1.183748
4282.000000;1.190017
4281.000000;1.197137
4280.000000;1.204048
4279.000000;1.209945
4278.000000;1.214835
4277.000000;1.219217
4276.000000;1.223518
4275.000000;1.228033
4274.000000;1.233030
4273.000000;1.238533
4272.000000;1.244133
4271.000000;1.249409
4270.000000;1.254535
4269.000000;1.260205
4268.000000;1.266860
4267.000000;1.274112
4266.000000;1.281019
4265.000000;1.286942
4264.000000;1.292157
4263.000000;1.297518
4262.000000;1.303494
4261.000000;1.309615
4260.000000;1.315073
4259.000000;1.319782
4258.000000;1.324400
4257.000000;1.329254
4256.000000;1.333866
4255.000000;1.337936
4254.000000;1.342312
4253.000000;1.348329
4252.000000;1.356355
4251.000000;1.365203
4250.000000;1.373400
4249.000000;1.380103
4248.000000;1.385237
4247.000000;1.389067
4246.000000;1.392075
4245.000000;1.395097
4244.000000;1.399239
4243.000000;1.405313
4242.000000;1.413106
4241.000000;1.421282
4240.000000;1.428473
4239.000000;1.434563
4238.000000;1.440472
4237.000000;1.446761
4236.000000;1.453150
4235.000000;1.459494
4234.000000;1.466368
4233.000000;1.474005
4232.000000;1.481316
4231.000000;1.486885
4230.000000;1.490631
4229.000000;1.493611
4228.000000;1.496601
4227.000000;1.499966
4226.000000;1.504607
4225.000000;1.511594
4224.000000;1.520565
4223.000000;1.529645
4222.000000;1.537543
4221.000000;1.544852
4220.000000;1.552655
4219.000000;1.560689
4218.000000;1.567711
4217.000000;1.573036
4216.000000;1.576961
4215.000000;1.580245
4214.000000;1.584182
4213.000000;1.590669
4212.000000;1.600663
4211.000000;1.612393
4210.000000;1.622279
4209.000000;1.628428
4208.000000;1.632495
4207.000000;1.637200
4206.000000;1.643186
4205.000000;1.649033
4204.000000;1.653529
4203.000000;1.657072
4202.000000;1.660803
4201.000000;1.665219
4200.000000;1.670137
4199.000000;1.675561
4198.000000;1.681979
4197.000000;1.689696
4196.000000;1.698032
4195.000000;1.705448
4194.000000;1.710888
4193.000000;1.715120
4192.000000;1.720304
4191.000000;1.727509
4190.000000;1.735091
4189.000000;1.740880
4188.000000;1.745341
4187.000000;1.751040
4186.000000;1.759176
4185.000000;1.767995
4184.000000;1.775054
4183.000000;1.779761
4182.000000;1.783097
4181.000000;1.786383
4180.000000;1.791332
4179.000000;1.799662
4178.000000;1.811048
4177.000000;1.822301
4176.000000;1.830043
4175.000000;1.834014
4174.000000;1.836619
4173.000000;1.839916
4172.000000;1.844359
4171.000000;1.849228
4170.000000;1.852896
4169.000000;1.854453
4168.000000;1.856223
4167.000000;1.862815
4166.000000;1.875976
4165.000000;1.891092
4164.000000;1.901093
4163.000000;1.904094
4162.000000;1.904386
4161.000000;1.906308
4160.000000;1.910847
4159.000000;1.917583
4158.000000;1.926808
4157.000000;1.938368
4156.000000;1.949746
4155.000000;1.957768
4154.000000;1.961373
4153.000000;1.961050
4152.000000;1.958392
4151.000000;1.957262
4150.000000;1.961693
4149.000000;1.971615
4148.000000;1.981968
4147.000000;1.986944
4146.000000;1.986044
4145.000000;1.985155
4144.000000;1.991371
4143.000000;2.006767
4142.000000;2.025195
4141.000000;2.035772
4140.000000;2.034157
4139.000000;2.028467
4138.000000;2.029176
4137.000000;2.037591
4136.000000;2.047290
4135.000000;2.053173
4134.000000;2.055381
4133.000000;2.055426
4132.000000;2.052811
4131.000000;2.048375
4130.000000;2.047850
4129.000000;2.057292
4128.000000;2.076285
4127.000000;2.096857
4126.000000;2.108799
4125.000000;2.108153
4124.000000;2.100606
4123.000000;2.095834
4122.000000;2.099444
4121.000000;2.110004
4120.000000;2.123387
4119.000000;2.138120
4118.000000;2.152353
4117.000000;2.158306
4116.000000;2.149435
4115.000000;2.133036
4114.000000;2.124350
4113.000000;2.129435
4112.000000;2.141807
4111.000000;2.155152
4110.000000;2.171387
4109.000000;2.192887
4108.000000;2.215198
4107.000000;2.231981
4106.000000;2.242292
4105.000000;2.247928
4104.000000;2.249447
4103.000000;2.249559
4102.000000;2.252616
4101.000000;2.255469
4100.000000;2.246699
4099.000000;2.224553
4098.000000;2.204336
4097.000000;2.199677
4096.000000;2.209922
4095.000000;2.226579
4094.000000;2.242957
4093.000000;2.254306
4092.000000;2.257435
4091.000000;2.256886
4090.000000;2.263750
4089.000000;2.283185
4088.000000;2.305568
4087.000000;2.313290
4086.000000;2.302175
4085.000000;2.287752
4084.000000;2.283720
4083.000000;2.290694
4082.000000;2.303182
4081.000000;2.315838
4080.000000;2.324450
4079.000000;2.329446
4078.000000;2.338945
4077.000000;2.357809
4076.000000;2.376480
4075.000000;2.380302
4074.000000;2.364416
4073.000000;2.337666
4072.000000;2.312308
4071.000000;2.296049
4070.000000;2.294089
4069.000000;2.307029
4068.000000;2.328011
4067.000000;2.346118
4066.000000;2.358717
4065.000000;2.376512
4064.000000;2.407478
4063.000000;2.441735
4062.000000;2.457572
4061.000000;2.446350
4060.000000;2.417759
4059.000000;2.379695
4058.000000;2.337870
4057.000000;2.304141
4056.000000;2.290838
4055.000000;2.305476
4054.000000;2.348797
4053.000000;2.408510
4052.000000;2.456054
4051.000000;2.468942
4050.000000;2.461353
4049.000000;2.462831
4048.000000;2.482663
4047.000000;2.506497
4046.000000;2.513088
4045.000000;2.495992
4044.000000;2.468158
4043.000000;2.446468
4042.000000;2.436468
4041.000000;2.431169
4040.000000;2.423572
4039.000000;2.416282
4038.000000;2.414749
4037.000000;2.417680
4036.000000;2.420911
4035.000000;2.425548
4034.000000;2.437747
4033.000000;2.459234
4032.000000;2.479967
4031.000000;2.491098
4030.000000;2.502875
4029.000000;2.534060
4028.000000;2.576055
4027.000000;2.587320
4026.000000;2.553855
4025.000000;2.502375
4024.000000;2.459036
4023.000000;2.440923
4022.000000;2.449745
4021.000000;2.467889
4020.000000;2.471229
4019.000000;2.455405
4018.000000;2.440238
4017.000000;2.441199
4016.000000;2.450115
4015.000000;2.449807
4014.000000;2.437909
4013.000000;2.424231
4012.000000;2.415996
4011.000000;2.414368
4010.000000;2.417643
4009.000000;2.421852
4008.000000;2.424350
4007.000000;2.429415
4006.000000;2.441955
4005.000000;2.460180
4004.000000;2.478917
4003.000000;2.495139
4002.000000;2.509762
4001.000000;2.517474
4000.000000;2.502997
3999.000000;2.464700
3998.000000;2.422197
3997.000000;2.393985
3996.000000;2.388132
3995.000000;2.408503
3994.000000;2.453153
3993.000000;2.501383
3992.000000;2.528544
3991.000000;2.541918
3990.000000;2.567597
3989.000000;2.613019
3988.000000;2.646091
3987.000000;2.626077
3986.000000;2.563763
3985.000000;2.494131
3984.000000;2.439830
3983.000000;2.410678
3982.000000;2.407969
3981.000000;2.432923
3980.000000;2.484078
3979.000000;2.551603
3978.000000;2.627252
3977.000000;2.702557
3976.000000;2.742804
3975.000000;2.715301
3974.000000;2.653691
3973.000000;2.609550
3972.000000;2.595723
3971.000000;2.593020
3970.000000;2.585969
3969.000000;2.582659
3968.000000;2.594598
3967.000000;2.636852
3966.000000;2.711667
3965.000000;2.767217
3964.000000;2.756759
3963.000000;2.702736
3962.000000;2.659742
3961.000000;2.665605
3960.000000;2.697911
3959.000000;2.719987
3958.000000;2.750538
3957.000000;2.786028
3956.000000;2.749967
3955.000000;2.611042
3954.000000;2.458951
3953.000000;2.374253
3952.000000;2.382237
3951.000000;2.461268
3950.000000;2.545605
3949.000000;2.571496
3948.000000;2.548696
3947.000000;2.541946
3946.000000;2.606227
3945.000000;2.748711
3944.000000;2.912199
3943.000000;2.992797
3942.000000;2.950423
3941.000000;2.915895
3940.000000;2.991851
3939.000000;2.987509
3938.000000;2.740437
3937.000000;2.527577
3936.000000;2.445049
3935.000000;2.477016
3934.000000;2.572695
3933.000000;2.674974
3932.000000;2.773325
3931.000000;2.887020
3930.000000;3.040816
3929.000000;3.192931
3928.000000;3.113803
3927.000000;2.940470
3926.000000;2.804310
3925.000000;2.694217
3924.000000;2.604363
3923.000000;2.531327
3922.000000;2.476274
3921.000000;2.446822
3920.000000;2.467472
3919.000000;2.550998
3918.000000;2.678912
3917.000000;2.816010
3916.000000;2.945501
3915.000000;3.002825
3914.000000;2.946262
3913.000000;2.921085
3912.000000;2.924205
3911.000000;2.843068
3910.000000;2.698360
3909.000000;2.580278
3908.000000;2.561579
3907.000000;2.661685
3906.000000;2.845436
3905.000000;3.086243
3904.000000;3.259043
3903.000000;3.180785
3902.000000;3.165900
3901.000000;3.267134
3900.000000;3.265994
3899.000000;3.192159
3898.000000;3.105895
3897.000000;2.925820
3896.000000;2.777072
3895.000000;2.752353
3894.000000;2.842393
3893.000000;3.007206
3892.000000;3.308390
3891.000000;3.685066
3890.000000;3.492887
3889.000000;3.447612
3888.000000;3.268895
3887.000000;3.065420
3886.000000;2.952225
3885.000000;2.934346
3884.000000;3.175596
3883.000000;3.505077
3882.000000;3.280535
3881.000000;3.101661
3880.000000;3.034251
3879.000000;3.067980
3878.000000;3.237624
3877.000000;3.334241
3876.000000;3.201476
3875.000000;3.038485
3874.000000;2.880403
3873.000000;2.766555
3872.000000;2.772466
3871.000000;2.871234
3870.000000;3.072739
3869.000000;3.483000
3868.000000;3.460652
3867.000000;3.298340
3866.000000;3.325623
3865.000000;3.201805
3864.000000;3.035685
3863.000000;2.969493
3862.000000;2.979022
3861.000000;3.028245
3860.000000;3.139606
3859.000000;3.400820
3858.000000;3.409857
3857.000000;3.109749
3856.000000;3.043387
3855.000000;3.128366
3854.000000;3.247280
3853.000000;3.410133
3852.000000;3.689317
3851.000000;3.742891
3850.000000;3.441255
3849.000000;3.372035
3848.000000;3.347482
3847.000000;3.277930
3846.000000;3.318113
3845.000000;3.609014
3844.000000;4.100350
3843.000000;3.818330
3842.000000;3.664235
3841.000000;3.579957
3840.000000;3.509293
3839.000000;3.454942
3838.000000;3.379313
3837.000000;3.315479
3836.000000;3.217631
3835.000000;3.099794
3834.000000;3.055661
3833.000000;3.122462
3832.000000;3.203591
3831.000000;3.207067
3830.000000;3.261015
3829.000000;3.468990
3828.000000;3.562058
3827.000000;3.326236
3826.000000;3.177592
3825.000000;3.182517
3824.000000;3.277186
3823.000000;3.344517
3822.000000;3.295343
3821.000000;3.192513
3820.000000;3.206456
3819.000000;3.428631
3818.000000;3.652511
3817.000000;3.558009
3816.000000;3.334428
3815.000000;3.162812
3814.000000;3.080029
3813.000000;3.257612
3812.000000;3.702631
3811.000000;3.294543
3810.000000;3.099785
3809.000000;3.192111
3808.000000;3.362065
3807.000000;3.574753
3806.000000;3.719030
3805.000000;3.804246
3804.000000;3.848581
3803.000000;3.948005
3802.000000;4.434091
3801.000000;3.832135
3800.000000;3.663545
3799.000000;3.437284
3798.000000;3.023100
3797.000000;2.849596
3796.000000;2.846663
3795.000000;2.987593
3794.000000;3.226982
3793.000000;3.275529
3792.000000;3.311083
3791.000000;3.674578
3790.000000;3.624882
3789.000000;3.280451
3788.000000;3.572296
3787.000000;3.687325
3786.000000;3.102797
3785.000000;3.022451
3784.000000;3.240181
3783.000000;3.455408
3782.000000;3.300010
3781.000000;3.484097
3780.000000;3.370008
3779.000000;3.063900
3778.000000;2.994703
3777.000000;3.039687
3776.000000;3.561865
3775.000000;3.547953
3774.000000;3.148799
3773.000000;3.170508
3772.000000;3.226435
3771.000000;3.287862
3770.000000;3.233658
3769.000000;3.009274
3768.000000;2.833641
3767.000000;2.791309
3766.000000;2.852395
3765.000000;2.963790
3764.000000;3.037912
3763.000000;3.078296
3762.000000;3.124566
3761.000000;3.136280
3760.000000;3.141585
3759.000000;3.190704
3758.000000;3.324800
3757.000000;3.680951
3756.000000;4.327714
3755.000000;4.079389
3754.000000;3.844080
3753.000000;3.708771
3752.000000;3.723632
3751.000000;3.690845
3750.000000;3.724030
3749.000000;3.160640
3748.000000;3.006974
3747.000000;3.061444
3746.000000;2.989093
3745.000000;3.018024
3744.000000;3.076850
3743.000000;3.121524
3742.000000;3.071857
3741.000000;2.824388
3740.000000;2.628177
3739.000000;2.603896
3738.000000;2.736367
3737.000000;2.942849
3736.000000;3.262620
3735.000000;3.350585
3734.000000;2.870436
3733.000000;2.642197
3732.000000;2.514992
3731.000000;2.596868
3730.000000;2.707416
3729.000000;2.579747
3728.000000;2.589303
3727.000000;2.702811
3726.000000;2.883385
3725.000000;3.031284
3724.000000;2.938210
3723.000000;2.839826
3722.000000;2.740339
3721.000000;2.744685
3720.000000;2.974121
3719.000000;2.739417
3718.000000;2.477873
3717.000000;2.518866
3716.000000;2.734497
3715.000000;2.957591
3714.000000;3.083947
3713.000000;3.139263
3712.000000;3.224130
3711.000000;3.332657
3710.000000;3.315069
3709.000000;3.248747
3708.000000;2.941203
3707.000000;2.673795
3706.000000;2.534724
3705.000000;2.452256
3704.000000;2.411838
3703.000000;2.420203
3702.000000;2.498268
3701.000000;2.705913
3700.000000;2.867015
3699.000000;2.787654
3698.000000;2.827808
3697.000000;2.994499
3696.000000;3.196647
3695.000000;3.255753
3694.000000;3.164999
3693.000000;3.032582
3692.000000;2.909451
3691.000000;2.832668
3690.000000;2.910425
3689.000000;3.295905
3688.000000;2.913586
3687.000000;2.562231
3686.000000;2.518631
3685.000000;2.710993
3684.000000;2.923848
3683.000000;2.829840
3682.000000;2.861852
3681.000000;3.024394
3680.000000;3.390017
3679.000000;4.145233
3678.000000;4.337004
3677.000000;3.905067
3676.000000;3.545238
3675.000000;3.624599
3674.000000;3.507782
3673.000000;3.716097
3672.000000;3.290254
3671.000000;2.744293
3670.000000;2.605790
3669.000000;2.675806
3668.000000;2.902216
3667.000000;2.831182
3666.000000;2.530834
3665.000000;2.386036
3664.000000;2.372458
3663.000000;2.442854
3662.000000;2.487229
3661.000000;2.426309
3660.000000;2.372094
3659.000000;2.447199
3658.000000;2.615248
3657.000000;2.702211
3656.000000;2.629723
3655.000000;2.524437
3654.000000;2.508424
3653.000000;2.589136
3652.000000;2.688941
3651.000000;2.792778
3650.000000;2.805714
3649.000000;2.649045
3648.000000;2.516679
3647.000000;2.419972
3646.000000;2.363777
3645.000000;2.414493
3644.000000;2.578736
3643.000000;2.726483
3642.000000;2.696092
3641.000000;2.630137
3640.000000;2.621912
3639.000000;2.609331
3638.000000;2.629506
3637.000000;2.650424
3636.000000;2.684930
3635.000000;2.591848
3634.000000;2.639647
3633.000000;2.800572
3632.000000;2.374164
3631.000000;2.227704
3630.000000;2.279019
3629.000000;2.334548
3628.000000;2.409570
3627.000000;2.403372
3626.000000;2.338644
3625.000000;2.323375
3624.000000;2.366026
3623.000000;2.341740
3622.000000;2.273588
3621.000000;2.241958
3620.000000;2.262522
3619.000000;2.303452
3618.000000;2.306861
3617.000000;2.217843
3616.000000;2.227184
3615.000000;2.381239
3614.000000;2.353205
3613.000000;2.404462
3612.000000;2.223564
3611.000000;1.965552
3610.000000;1.930181
3609.000000;1.970663
3608.000000;2.054305
3607.000000;2.200934
3606.000000;2.436140
3605.000000;2.638923
3604.000000;2.745206
3603.000000;2.812982
3602.000000;2.618861
3601.000000;2.537357
3600.000000;2.617074
3599.000000;2.422810
3598.000000;2.234364
3597.000000;2.169064
3596.000000;2.056070
3595.000000;1.893005
3594.000000;1.753736
3593.000000;1.673022
3592.000000;1.741972
3591.000000;1.990358
3590.000000;2.018957
3589.000000;1.897682
3588.000000;1.912791
3587.000000;1.970220
3586.000000;2.047532
3585.000000;2.084998
3584.000000;2.091202
3583.000000;2.108726
3582.000000;2.251695
3581.000000;2.636613
3580.000000;2.467987
3579.000000;2.232504
3578.000000;2.216710
3577.000000;2.252219
3576.000000;2.238925
3575.000000;2.172031
3574.000000;2.109425
3573.000000;1.992604
3572.000000;1.919357
3571.000000;2.199714
3570.000000;2.692549
3569.000000;2.469328
3568.000000;2.484004
3567.000000;2.275082
3566.000000;2.171682
3565.000000;2.178650
3564.000000;2.295259
3563.000000;2.481846
3562.000000;2.431653
3561.000000;2.268874
3560.000000;2.189400
3559.000000;2.193874
3558.000000;2.248496
3557.000000;2.266309
3556.000000;2.150285
3555.000000;2.030426
3554.000000;2.007774
3553.000000;2.126446
3552.000000;2.495076
3551.000000;2.884523
3550.000000;2.728400
3549.000000;2.448460
3548.000000;2.174130
3547.000000;2.075341
3546.000000;2.096804
3545.000000;2.105171
3544.000000;1.998479
3543.000000;1.879774
3542.000000;1.821345
3541.000000;1.833338
3540.000000;1.952529
3539.000000;2.064815
3538.000000;1.953483
3537.000000;1.870032
3536.000000;1.915097
3535.000000;2.013058
3534.000000;2.088563
3533.000000;2.123924
3532.000000;2.127745
3531.000000;2.093212
3530.000000;2.019211
3529.000000;1.940830
3528.000000;1.942461
3527.000000;2.034786
3526.000000;2.111111
3525.000000;2.155151
3524.000000;2.183665
3523.000000;2.151479
3522.000000;2.106602
3521.000000;2.082137
3520.000000;2.074216
3519.000000;2.063131
3518.000000;2.067453
3517.000000;2.131878
3516.000000;2.216760
3515.000000;2.168207
3514.000000;2.182931
3513.000000;2.574654
3512.000000;2.355235
3511.000000;1.969260
3510.000000;1.870587
3509.000000;1.826225
3508.000000;1.830203
3507.000000;1.896325
3506.000000;2.056598
3505.000000;2.374955
3504.000000;2.719021
3503.000000;2.772084
3502.000000;2.697486
3501.000000;2.520951
3500.000000;2.455292
3499.000000;2.577551
3498.000000;2.595519
3497.000000;2.350199
3496.000000;2.149027
3495.000000;2.030423
3494.000000;1.998304
3493.000000;2.068719
3492.000000;2.218855
3491.000000;2.494986
3490.000000;2.747006
3489.000000;2.436638
3488.000000;2.311035
3487.000000;2.392690
3486.000000;2.659371
3485.000000;2.962474
3484.000000;2.563040
3483.000000;2.240021
3482.000000;2.108178
3481.000000;2.119925
3480.000000;2.254869
3479.000000;2.505398
3478.000000;2.621467
3477.000000;2.370671
3476.000000;2.231742
3475.000000;2.220786
3474.000000;2.238163
3473.000000;2.282145
3472.000000;2.339508
3471.000000;2.403642
3470.000000;2.454964
3469.000000;2.382858
3468.000000;2.278974
3467.000000;2.245368
3466.000000;2.248113
3465.000000;2.227568
3464.000000;2.228048
3463.000000;2.283001
3462.000000;2.378482
3461.000000;2.463383
3460.000000;2.407704
3459.000000;2.330237
3458.000000;2.371573
3457.000000;2.482972
3456.000000;2.510890
3455.000000;2.398110
3454.000000;2.274707
3453.000000;2.233915
3452.000000;2.272351
3451.000000;2.338004
3450.000000;2.420599
3449.000000;2.503098
3448.000000;2.650017
3447.000000;2.931157
3446.000000;2.665427
3445.000000;2.497233
3444.000000;2.698948
3443.000000;2.765951
3442.000000;2.374238
3441.000000;2.333320
3440.000000;2.574778
3439.000000;2.633584
3438.000000;2.307112
3437.000000;2.162816
3436.000000;2.131779
3435.000000;2.171853
3434.000000;2.284454
3433.000000;2.418295
3432.000000;2.396110
3431.000000;2.266392
3430.000000;2.184375
3429.000000;2.149954
3428.000000;2.150200
3427.000000;2.195773
3426.000000;2.201528
3425.000000;2.116087
3424.000000;2.084748
3423.000000;2.182803
3422.000000;2.389160
3421.000000;2.498443
3420.000000;2.384242
3419.000000;2.221760
3418.000000;2.111466
3417.000000;2.084013
3416.000000;2.138604
3415.000000;2.246055
3414.000000;2.360117
3413.000000;2.513057
3412.000000;2.728021
3411.000000;2.792683
3410.000000;2.750391
3409.000000;2.839718
3408.000000;3.007185
3407.000000;2.858551
3406.000000;2.529598
3405.000000;2.331624
3404.000000;2.293089
3403.000000;2.362488
3402.000000;2.415106
3401.000000;2.395619
3400.000000;2.425840
3399.000000;2.547792
3398.000000;2.519362
3397.000000;2.436925
3396.000000;2.486868
3395.000000;2.509959
3394.000000;2.420989
3393.000000;2.538170
3392.000000;2.873223
3391.000000;2.432873
3390.000000;2.304760
3389.000000;2.431939
3388.000000;2.752334
3387.000000;2.746741
3386.000000;2.595184
3385.000000;2.711901
3384.000000;2.937943
3383.000000;2.688250
3382.000000;2.518336
3381.000000;2.497511
3380.000000;2.517467
3379.000000;2.561476
3378.000000;2.621313
3377.000000;2.597941
3376.000000;2.503249
3375.000000;2.452162
3374.000000;2.612152
3373.000000;2.946654
3372.000000;2.576376
3371.000000;2.403707
3370.000000;2.467413
3369.000000;2.598642
3368.000000;2.790219
3367.000000;2.773657
3366.000000;2.595252
3365.000000;2.506520
3364.000000;2.476305
3363.000000;2.562029
3362.000000;2.933735
3361.000000;2.975114
3360.000000;2.641013
3359.000000;2.547203
3358.000000;2.511158
3357.000000;2.492799
3356.000000;2.483463
3355.000000;2.470331
3354.000000;2.418592
3353.000000;2.377322
3352.000000;2.407379
3351.000000;2.617734
3350.000000;2.797705
3349.000000;2.501866
3348.000000;2.361063
3347.000000;2.390645
3346.000000;2.501676
3345.000000;2.521125
3344.000000;2.432271
3343.000000;2.443728
3342.000000;2.720697
3341.000000;2.807789
3340.000000;2.655412
3339.000000;2.911152
3338.000000;3.256452
3337.000000;3.048017
3336.000000;3.557687
3335.000000;3.055457
3334.000000;2.906491
3333.000000;2.796915
3332.000000;2.426352
3331.000000;2.246530
3330.000000;2.242333
3329.000000;2.384346
3328.000000;2.642883
3327.000000;2.954475
3326.000000;3.131463
3325.000000;3.051236
3324.000000;2.777640
3323.000000;2.581095
3322.000000;2.580872
3321.000000;2.765272
3320.000000;2.932629
3319.000000;3.480836
3318.000000;3.228370
3317.000000;2.936824
3316.000000;3.474526
3315.000000;3.061086
3314.000000;2.711009
3313.000000;2.499829
3312.000000;2.368446
3311.000000;2.327397
3310.000000;2.304539
3309.000000;2.299887
3308.000000;2.381247
3307.000000;2.570329
3306.000000;2.710090
3305.000000;2.742698
3304.000000;2.677966
3303.000000;2.447882
3302.000000;2.325430
3301.000000;2.343401
3300.000000;2.522571
3299.000000;2.880028
3298.000000;2.903414
3297.000000;2.589864
3296.000000;2.427392
3295.000000;2.390336
3294.000000;2.439434
3293.000000;2.484728
3292.000000;2.446391
3291.000000;2.391118
3290.000000;2.414870
3289.000000;2.488815
3288.000000;2.506434
3287.000000;2.471332
3286.000000;2.413955
3285.000000;2.338004
3284.000000;2.293281
3283.000000;2.340558
3282.000000;2.539981
3281.000000;2.765872
3280.000000;2.566141
3279.000000;2.522110
3278.000000;2.632032
3277.000000;2.729421
3276.000000;2.719310
3275.000000;2.851747
3274.000000;2.919950
3273.000000;2.662747
3272.000000;2.523905
3271.000000;2.456092
3270.000000;2.474317
3269.000000;2.566508
3268.000000;2.575508
3267.000000;2.568977
3266.000000;2.681403
3265.000000;2.889074
3264.000000;2.801465
3263.000000;2.494975
3262.000000;2.294812
3261.000000;2.205136
3260.000000;2.213085
3259.000000;2.311257
3258.000000;2.499008
3257.000000;2.750169
3256.000000;2.897478
3255.000000;3.054512
3254.000000;3.055205
3253.000000;2.857922
3252.000000;2.714667
3251.000000;2.564867
3250.000000;2.490273
3249.000000;2.490508
3248.000000;2.574921
3247.000000;2.741940
3246.000000;2.847134
3245.000000;2.934293
3244.000000;2.955441
3243.000000;2.805911
3242.000000;2.742061
3241.000000;3.279017
3240.000000;3.130436
3239.000000;2.633267
3238.000000;2.592413
3237.000000;2.667560
3236.000000;2.806318
3235.000000;2.807941
3234.000000;2.693784
3233.000000;2.654137
3232.000000;2.771018
3231.000000;3.051643
3230.000000;3.461721
3229.000000;4.143815
3228.000000;3.169270
3227.000000;2.870756
3226.000000;2.878036
3225.000000;3.014882
3224.000000;2.766145
3223.000000;2.666977
3222.000000;2.819931
3221.000000;3.296060
3220.000000;2.981600
3219.000000;2.774517
3218.000000;2.750576
3217.000000;2.736043
3216.000000;2.785532
3215.000000;2.989409
3214.000000;3.038915
3213.000000;2.938608
3212.000000;2.939731
3211.000000;2.773740
3210.000000;2.644789
3209.000000;2.514541
3208.000000;2.357285
3207.000000;2.303736
3206.000000;2.412832
3205.000000;2.664196
3204.000000;2.628757
3203.000000;2.767385
3202.000000;3.146145
3201.000000;2.571731
3200.000000;2.509042
3199.000000;2.437109
3198.000000;2.305199
3197.000000;2.296038
3196.000000;2.390000
3195.000000;2.462766
3194.000000;2.449236
3193.000000;2.398604
3192.000000;2.430167
3191.000000;2.666949
3190.000000;3.062413
3189.000000;3.208549
3188.000000;2.695422
3187.000000;2.427850
3186.000000;2.458126
3185.000000;2.750343
3184.000000;2.636581
3183.000000;2.415959
3182.000000;2.380015
3181.000000;2.422154
3180.000000;2.572738
3179.000000;2.813243
3178.000000;2.859149
3177.000000;2.597056
3176.000000;2.478221
3175.000000;2.541033
3174.000000;2.670745
3173.000000;2.670554
3172.000000;2.670188
3171.000000;2.641998
3170.000000;2.546903
3169.000000;2.531343
3168.000000;2.676539
3167.000000;2.783148
3166.000000;2.632162
3165.000000;2.537115
3164.000000;2.501986
3163.000000;2.535344
3162.000000;2.570581
3161.000000;2.564028
3160.000000;2.563324
3159.000000;2.576927
3158.000000;2.714723
3157.000000;2.840869
3156.000000;2.568439
3155.000000;2.461652
3154.000000;2.573831
3153.000000;2.795576
3152.000000;2.689072
3151.000000;2.514099
3150.000000;2.456057
3149.000000;2.472903
3148.000000;2.500857
3147.000000;2.455249
3146.000000;2.351515
3145.000000;2.294985
3144.000000;2.342265
3143.000000;2.504831
3142.000000;2.746260
3141.000000;2.790062
3140.000000;2.714305
3139.000000;2.673496
3138.000000;2.599063
3137.000000;2.678134
3136.000000;2.830833
3135.000000;2.709163
3134.000000;2.576899
3133.000000;2.579469
3132.000000;2.690514
3131.000000;2.926143
3130.000000;2.823729
3129.000000;2.659031
3128.000000;2.628412
3127.000000;2.581717
3126.000000;2.636846
3125.000000;2.980383
3124.000000;2.822508
3123.000000;2.848533
3122.000000;2.778149
3121.000000;2.505925
3120.000000;2.418330
3119.000000;2.425789
3118.000000;2.504442
3117.000000;2.703702
3116.000000;3.123280
3115.000000;3.137392
3114.000000;2.679126
3113.000000;2.443287
3112.000000;2.374179
3111.000000;2.475520
3110.000000;2.623451
3109.000000;2.648988
3108.000000;2.766465
3107.000000;2.834421
3106.000000;2.740779
3105.000000;2.971426
3104.000000;3.182328
3103.000000;2.743213
3102.000000;2.564263
3101.000000;2.591382
3100.000000;2.774948
3099.000000;2.741959
3098.000000;2.611936
3097.000000;2.543630
3096.000000;2.493740
3095.000000;2.508922
3094.000000;2.625181
3093.000000;2.728442
3092.000000;2.653242
3091.000000;2.617489
3090.000000;2.769785
3089.000000;3.276378
3088.000000;2.984051
3087.000000;2.784824
3086.000000;2.857900
3085.000000;3.013673
3084.000000;3.103412
3083.000000;2.933889
3082.000000;2.778529
3081.000000;2.888189
3080.000000;2.802733
3079.000000;2.532593
3078.000000;2.445230
3077.000000;2.407620
3076.000000;2.327115
3075.000000;2.256637
3074.000000;2.267164
3073.000000;2.398725
3072.000000;2.712321
3071.000000;3.110505
3070.000000;3.077310
3069.000000;3.035046
3068.000000;3.009100
3067.000000;2.938693
3066.000000;2.939895
3065.000000;3.144576
3064.000000;3.329354
3063.000000;2.730849
3062.000000;2.530509
3061.000000;2.539180
3060.000000;2.870805
3059.000000;2.951674
3058.000000;2.522591
3057.000000;2.547772
3056.000000;2.846613
3055.000000;2.736690
3054.000000;2.478992
3053.000000;2.496019
3052.000000;2.595050
3051.000000;2.752544
3050.000000;2.860130
3049.000000;2.863031
3048.000000;2.761652
3047.000000;2.614366
3046.000000;2.558730
3045.000000;2.651178
3044.000000;2.901905
3043.000000;3.293358
3042.000000;3.816138
3041.000000;3.129706
3040.000000;2.872274
3039.000000;2.737929
3038.000000;2.665283
3037.000000;2.666811
3036.000000;2.722709
3035.000000;2.730360
3034.000000;2.611971
3033.000000;2.497420
3032.000000;2.493184
3031.000000;2.731510
3030.000000;2.935166
3029.000000;2.649596
3028.000000;2.578536
3027.000000;2.603483
3026.000000;2.889425
3025.000000;2.948112
3024.000000;2.674757
3023.000000;2.815049
3022.000000;2.956118
3021.000000;2.773957
3020.000000;2.952666
3019.000000;3.101737
3018.000000;2.774755
3017.000000;2.714898
3016.000000;2.676686
3015.000000;2.608782
3014.000000;2.732352
3013.000000;3.285788
3012.000000;2.915028
3011.000000;2.757706
3010.000000;2.893529
3009.000000;3.100022
3008.000000;2.934992
3007.000000;2.929712
3006.000000;3.288473
3005.000000;3.056296
3004.000000;2.723498
3003.000000;2.635797
3002.000000;2.554528
3001.000000;2.525510
3000.000000;2.570173
2999.000000;2.680799
2998.000000;2.834763
2997.000000;2.868944
2996.000000;2.663781
2995.000000;2.469287
2994.000000;2.407892
2993.000000;2.458794
2992.000000;2.531062
2991.000000;2.541305
2990.000000;2.520521
2989.000000;2.481128
2988.000000;2.404281
2987.000000;2.356446
2986.000000;2.401344
2985.000000;2.646697
2984.000000;3.150921
2983.000000;2.712230
2982.000000;2.575311
2981.000000;2.659754
2980.000000;2.868102
2979.000000;2.824358
2978.000000;2.755477
2977.000000;2.772558
2976.000000;2.652276
2975.000000;2.642053
2974.000000;2.859696
2973.000000;3.234825
2972.000000;3.268041
2971.000000;3.033627
2970.000000;2.835283
2969.000000;2.637103
2968.000000;2.509534
2967.000000;2.493655
2966.000000;2.609766
2965.000000;2.849235
2964.000000;2.698455
2963.000000;2.505039
2962.000000;2.477830
2961.000000;2.561305
2960.000000;2.660345
2959.000000;2.587485
2958.000000;2.452461
2957.000000;2.370600
2956.000000;2.367671
2955.000000;2.458607
2954.000000;2.665172
2953.000000;3.019056
2952.000000;3.059775
2951.000000;2.805362
2950.000000;2.799280
2949.000000;2.905925
2948.000000;2.995455
2947.000000;2.897641
2946.000000;2.705690
2945.000000;2.721054
2944.000000;2.643095
2943.000000;2.468043
2942.000000;2.461910
2941.000000;2.591202
2940.000000;2.768160
2939.000000;2.870465
2938.000000;2.879962
2937.000000;2.790489
2936.000000;2.619335
2935.000000;2.517749
2934.000000;2.557446
2933.000000;2.742557
2932.000000;2.700377
2931.000000;2.522585
2930.000000;2.508678
2929.000000;2.655556
2928.000000;2.861902
2927.000000;2.774168
2926.000000;2.653154
2925.000000;2.642471
2924.000000;2.686045
2923.000000;2.725497
2922.000000;2.655534
2921.000000;2.533744
2920.000000;2.441415
2919.000000;2.360664
2918.000000;2.316053
2917.000000;2.368379
2916.000000;2.602535
2915.000000;2.893092
2914.000000;2.713539
2913.000000;2.566807
2912.000000;2.491395
2911.000000;2.464514
2910.000000;2.524545
2909.000000;2.740204
2908.000000;3.492450
2907.000000;2.913137
2906.000000;2.579239
2905.000000;2.466572
2904.000000;2.436782
2903.000000;2.465817
2902.000000;2.505433
2901.000000;2.556080
2900.000000;2.592000
2899.000000;2.622611
2898.000000;2.712397
2897.000000;3.080278
2896.000000;3.307841
2895.000000;2.854192
2894.000000;2.694095
2893.000000;2.443053
2892.000000;2.268521
2891.000000;2.231910
2890.000000;2.392505
2889.000000;2.999029
2888.000000;2.705924
2887.000000;2.446928
2886.000000;2.621502
2885.000000;3.192375
2884.000000;3.288802
2883.000000;3.039188
2882.000000;2.707036
2881.000000;2.467572
2880.000000;2.435526
2879.000000;2.611635
2878.000000;2.862591
2877.000000;2.596784
2876.000000;2.415215
2875.000000;2.373181
2874.000000;2.439589
2873.000000;2.633951
2872.000000;2.772170
2871.000000;2.735827
2870.000000;2.831252
2869.000000;3.016495
2868.000000;3.013208
2867.000000;3.013224
2866.000000;2.740373
2865.000000;2.445407
2864.000000;2.349944
2863.000000;2.382224
2862.000000;2.376556
2861.000000;2.328882
2860.000000;2.395066
2859.000000;2.708464
2858.000000;3.082595
2857.000000;2.702002
2856.000000;2.524192
2855.000000;2.471796
2854.000000;2.413323
2853.000000;2.426910
2852.000000;2.617088
2851.000000;2.845187
2850.000000;2.751795
2849.000000;2.791298
2848.000000;2.795502
2847.000000;2.680224
2846.000000;2.662832
2845.000000;2.818146
2844.000000;3.263642
2843.000000;2.972369
2842.000000;2.809750
2841.000000;2.892635
2840.000000;2.510617
2839.000000;2.264126
2838.000000;2.228594
2837.000000;2.332947
2836.000000;2.493262
2835.000000;2.727697
2834.000000;3.185633
2833.000000;2.746144
2832.000000;2.498800
2831.000000;2.508223
2830.000000;2.552811
2829.000000;2.625819
2828.000000;2.813685
2827.000000;2.802073
2826.000000;2.527637
2825.000000;2.391347
2824.000000;2.402716
2823.000000;2.478304
2822.000000;2.697793
2821.000000;3.195268
2820.000000;2.658505
2819.000000;2.358395
2818.000000;2.302194
2817.000000;2.447322
2816.000000;2.717809
2815.000000;2.503475
2814.000000;2.326675
2813.000000;2.325975
2812.000000;2.407322
2811.000000;2.607345
2810.000000;2.782855
2809.000000;2.605847
2808.000000;2.537973
2807.000000;2.844255
2806.000000;3.067533
2805.000000;2.746620
2804.000000;2.731585
2803.000000;2.752113
2802.000000;2.613883
2801.000000;2.518459
2800.000000;2.371034
2799.000000;2.208500
2798.000000;2.143921
2797.000000;2.211701
2796.000000;2.381724
2795.000000;2.440274
2794.000000;2.374989
2793.000000;2.493375
2792.000000;2.944669
2791.000000;2.830828
2790.000000;2.540008
2789.000000;2.602267
2788.000000;3.025741
2787.000000;3.101277
2786.000000;2.642753
2785.000000;2.477823
2784.000000;2.386749
2783.000000;2.323926
2782.000000;2.322894
2781.000000;2.375390
2780.000000;2.590838
2779.000000;3.307195
2778.000000;2.949977
2777.000000;2.720677
2776.000000;2.691033
2775.000000;2.509219
2774.000000;2.466399
2773.000000;2.540239
2772.000000;2.651964
2771.000000;2.619300
2770.000000;2.458807
2769.000000;2.315888
2768.000000;2.224531
2767.000000;2.215297
2766.000000;2.286829
2765.000000;2.324109
2764.000000;2.265815
2763.000000;2.256523
2762.000000;2.468107
2761.000000;2.573764
2760.000000;2.283112
2759.000000;2.187447
2758.000000;2.223720
2757.000000;2.275289
2756.000000;2.330029
2755.000000;2.432129
2754.000000;2.728728
2753.000000;3.259859
2752.000000;2.757042
2751.000000;2.419262
2750.000000;2.299264
2749.000000;2.302247
2748.000000;2.435216
2747.000000;2.644512
2746.000000;2.876025
2745.000000;2.680025
2744.000000;2.378930
2743.000000;2.251218
2742.000000;2.228324
2741.000000;2.248562
2740.000000;2.275634
2739.000000;2.356863
2738.000000;2.537726
2737.000000;2.550025
2736.000000;2.417433
2735.000000;2.466205
2734.000000;2.628305
2733.000000;2.628382
2732.000000;2.579649
2731.000000;2.682766
2730.000000;3.005391
2729.000000;3.602675
2728.000000;3.483200
2727.000000;3.404361
2726.000000;3.249528
2725.000000;2.882466
2724.000000;2.665585
2723.000000;2.666673
2722.000000;2.869798
2721.000000;2.705284
2720.000000;2.477430
2719.000000;2.432589
2718.000000;2.457532
2717.000000;2.443115
2716.000000;2.430105
2715.000000;2.499723
2714.000000;2.769332
2713.000000;3.355426
2712.000000;3.044846
2711.000000;2.853819
2710.000000;2.899864
2709.000000;2.931335
2708.000000;2.776276
2707.000000;2.519834
2706.000000;2.344186
2705.000000;2.267772
2704.000000;2.286206
2703.000000;2.384289
2702.000000;2.598860
2701.000000;2.738948
2700.000000;2.513184
2699.000000;2.313047
2698.000000;2.200638
2697.000000;2.153029
2696.000000;2.200504
2695.000000;2.364411
2694.000000;2.750017
2693.000000;3.273484
2692.000000;3.008291
2691.000000;2.829665
2690.000000;2.647652
2689.000000;2.543347
2688.000000;2.629478
2687.000000;2.751584
2686.000000;2.600541
2685.000000;2.450303
2684.000000;2.413063
2683.000000;2.419771
2682.000000;2.489505
2681.000000;2.601632
2680.000000;2.914916
2679.000000;3.157988
2678.000000;2.833752
2677.000000;3.229434
2676.000000;3.115333
2675.000000;2.522340
2674.000000;2.382732
2673.000000;2.367762
2672.000000;2.442497
2671.000000;2.592031
2670.000000;2.881276
2669.000000;3.103906
2668.000000;3.039124
2667.000000;3.309574
2666.000000;3.310316
2665.000000;2.961222
2664.000000;2.706317
2663.000000;2.467492
2662.000000;2.314352
2661.000000;2.250483
2660.000000;2.236652
2659.000000;2.225608
2658.000000;2.238421
2657.000000;2.326685
2656.000000;2.554693
2655.000000;2.924093
2654.000000;2.776225
2653.000000;2.512049
2652.000000;2.442411
2651.000000;2.472657
2650.000000;2.559601
2649.000000;2.698380
2648.000000;2.771375
2647.000000;2.659539
2646.000000;2.572987
2645.000000;2.609271
2644.000000;2.657279
2643.000000;2.656815
2642.000000;2.599606
2641.000000;2.653254
2640.000000;3.013924
2639.000000;2.837668
2638.000000;2.535791
2637.000000;2.542172
2636.000000;2.829086
2635.000000;2.861557
2634.000000;2.498359
2633.000000;2.394238
2632.000000;2.410386
2631.000000;2.474654
2630.000000;2.498400
2629.000000;2.421146
2628.000000;2.327976
2627.000000;2.311092
2626.000000;2.593065
2625.000000;2.769334
2624.000000;2.381764
2623.000000;2.292680
2622.000000;2.527759
2621.000000;2.853576
2620.000000;2.455120
2619.000000;2.275193
2618.000000;2.266550
2617.000000;2.175734
2616.000000;2.046969
2615.000000;1.980200
2614.000000;1.990365
2613.000000;2.039336
2612.000000;2.103569
2611.000000;2.243393
2610.000000;2.509173
2609.000000;2.491849
2608.000000;2.257696
2607.000000;2.148083
2606.000000;2.143915
2605.000000;2.245695
2604.000000;2.454670
2603.000000;2.612456
2602.000000;2.876005
2601.000000;3.258046
2600.000000;2.659115
2599.000000;2.416580
2598.000000;2.337668
2597.000000;2.260695
2596.000000;2.199394
2595.000000;2.201117
2594.000000;2.326524
2593.000000;2.582051
2592.000000;2.628675
2591.000000;2.436926
2590.000000;2.287553
2589.000000;2.170484
2588.000000;2.149629
2587.000000;2.240484
2586.000000;2.465459
2585.000000;2.802841
2584.000000;2.778806
2583.000000;2.634165
2582.000000;2.641903
2581.000000;2.700755
2580.000000;2.840157
2579.000000;3.094858
2578.000000;2.797474
2577.000000;2.468662
2576.000000;2.332659
2575.000000;2.277077
2574.000000;2.247080
2573.000000;2.212264
2572.000000;2.191978
2571.000000;2.223788
2570.000000;2.339665
2569.000000;2.603077
2568.000000;2.946897
2567.000000;2.852134
2566.000000;2.734738
2565.000000;2.740062
2564.000000;2.749968
2563.000000;3.034086
2562.000000;3.117576
2561.000000;2.590934
2560.000000;2.390793
2559.000000;2.389903
2558.000000;2.528942
2557.000000;2.816304
2556.000000;3.158125
2555.000000;3.002018
2554.000000;2.707551
2553.000000;2.612154
2552.000000;2.637627
2551.000000;2.820723
2550.000000;3.188355
2549.000000;3.046182
2548.000000;2.818843
2547.000000;2.696258
2546.000000;2.568491
2545.000000;2.499191
2544.000000;2.472857
2543.000000;2.444929
2542.000000;2.407572
2541.000000;2.404711
2540.000000;2.465911
2539.000000;2.592804
2538.000000;2.744856
2537.000000;2.844492
2536.000000;2.856293
2535.000000;2.905339
2534.000000;3.130126
2533.000000;2.972919
2532.000000;2.614801
2531.000000;2.445932
2530.000000;2.420452
2529.000000;2.554706
2528.000000;2.930318
2527.000000;3.480275
2526.000000;3.409626
2525.000000;2.844163
2524.000000;2.525855
2523.000000;2.477892
2522.000000;2.674121
2521.000000;3.061465
2520.000000;3.096280
2519.000000;3.110462
2518.000000;3.389751
2517.000000;3.167689
2516.000000;2.768534
2515.000000;2.560702
2514.000000;2.547350
2513.000000;2.810681
2512.000000;3.202968
2511.000000;3.081344
2510.000000;2.920425
2509.000000;2.797100
2508.000000;2.773524
2507.000000;3.019201
2506.000000;3.587585
2505.000000;3.013353
2504.000000;2.803431
2503.000000;2.886749
2502.000000;3.144696
2501.000000;3.681977
2500.000000;4.088980
2499.000000;3.381783
2498.000000;2.973338
2497.000000;2.732328
2496.000000;2.580574
2495.000000;2.546231
2494.000000;2.646726
2493.000000;2.701864
2492.000000;2.613671
2491.000000;2.634153
2490.000000;2.857546
2489.000000;3.283731
2488.000000;3.181611
2487.000000;2.986598
2486.000000;3.011639
2485.000000;2.906308
2484.000000;2.745791
2483.000000;2.702546
2482.000000;2.793632
2481.000000;3.003874
2480.000000;3.294542
2479.000000;3.478046
2478.000000;3.221808
2477.000000;2.932259
2476.000000;2.819404
2475.000000;2.865810
2474.000000;2.973089
2473.000000;3.127420
2472.000000;3.271679
2471.000000;2.884500
2470.000000;2.637982
2469.000000;2.598676
2468.000000;2.618871
2467.000000;2.604332
2466.000000;2.625079
2465.000000;2.974912
2464.000000;3.349194
2463.000000;2.783331
2462.000000;2.622035
2461.000000;2.591549
2460.000000;2.659942
2459.000000;2.791077
2458.000000;2.905900
2457.000000;3.325619
2456.000000;3.266709
2455.000000;2.820748
2454.000000;2.675534
2453.000000;2.646625
2452.000000;2.685378
2451.000000;2.776830
2450.000000;2.909426
2449.000000;3.034672
2448.000000;2.965662
2447.000000;2.803010
2446.000000;2.740872
2445.000000;2.819041
2444.000000;3.164997
2443.000000;3.550882
2442.000000;3.176630
2441.000000;3.266371
2440.000000;3.386592
2439.000000;3.103801
2438.000000;2.862818
2437.000000;2.675166
2436.000000;2.561873
2435.000000;2.523828
2434.000000;2.538498
2433.000000;2.572444
2432.000000;2.586767
2431.000000;2.584564
2430.000000;2.597806
2429.000000;2.692174
2428.000000;2.811916
2427.000000;2.786075
2426.000000;2.707256
2425.000000;2.823521
2424.000000;3.508047
2423.000000;3.045185
2422.000000;2.794234
2421.000000;2.855298
2420.000000;2.863197
2419.000000;2.707362
2418.000000;2.597983
2417.000000;2.607704
2416.000000;2.731192
2415.000000;2.963505
2414.000000;3.027947
2413.000000;2.861034
2412.000000;2.747301
2411.000000;2.699173
2410.000000;2.710583
2409.000000;2.936878
2408.000000;3.304201
2407.000000;2.866788
2406.000000;2.639657
2405.000000;2.632149
2404.000000;2.697295
2403.000000;2.801388
2402.000000;2.967958
2401.000000;3.166643
2400.000000;3.284356
2399.000000;3.278878
2398.000000;2.951337
2397.000000;2.694688
2396.000000;2.575163
2395.000000;2.568849
2394.000000;2.678011
2393.000000;2.865626
2392.000000;2.955272
2391.000000;2.833924
2390.000000;2.704197
2389.000000;2.654105
2388.000000;2.662962
2387.000000;2.724106
2386.000000;2.824419
2385.000000;2.887152
2384.000000;2.921189
2383.000000;3.016484
2382.000000;3.113126
2381.000000;3.074638
2380.000000;2.951514
2379.000000;2.877738
2378.000000;2.903033
2377.000000;3.005425
2376.000000;3.068039
2375.000000;3.021312
2374.000000;2.978204
2373.000000;2.994664
2372.000000;3.072888
2371.000000;3.207038
2370.000000;3.367143
2369.000000;3.517154
2368.000000;3.608744
2367.000000;3.513490
2366.000000;3.342613
2365.000000;3.236627
2364.000000;3.191751
2363.000000;3.145484
2362.000000;3.076785
2361.000000;3.045680
2360.000000;3.095791
2359.000000;3.239563
2358.000000;3.429046
2357.000000;3.748665
2356.000000;4.136042
2355.000000;3.640172
2354.000000;3.401362
2353.000000;3.334373
2352.000000;3.302190
2351.000000;3.282229
2350.000000;3.312294
2349.000000;3.398335
2348.000000;3.592225
2347.000000;4.140703
2346.000000;3.548227
2345.000000;3.160762
2344.000000;3.029498
2343.000000;3.049907
2342.000000;3.254024
2341.000000;3.822370
2340.000000;3.651614
2339.000000;3.368417
2338.000000;3.330468
2337.000000;3.396530
2336.000000;3.437918
2335.000000;3.297714
2334.000000;3.210603
2333.000000;3.230062
2332.000000;3.363795
2331.000000;3.544429
2330.000000;3.465052
2329.000000;3.296762
2328.000000;3.209920
2327.000000;3.212221
2326.000000;3.311301
2325.000000;3.214693
2324.000000;3.037379
2323.000000;3.000492
2322.000000;3.101589
2321.000000;3.272274
2320.000000;3.173632
2319.000000;3.022853
2318.000000;2.979313
2317.000000;2.996841
2316.000000;3.074416
2315.000000;3.224269
2314.000000;3.580227
2313.000000;3.397929
2312.000000;3.111368
2311.000000;3.175682
2310.000000;3.249364
2309.000000;2.949174
2308.000000;2.827079
2307.000000;2.842811
2306.000000;2.918576
2305.000000;2.948514
2304.000000;2.928403
2303.000000;2.939354
2302.000000;2.994456
2301.000000;3.306499
2300.000000;3.451763
2299.000000;3.030992
2298.000000;2.941932
2297.000000;3.053909
2296.000000;3.691342
2295.000000;3.143921
2294.000000;2.743438
2293.000000;2.619037
2292.000000;2.587931
2291.000000;2.643523
2290.000000;2.773302
2289.000000;2.890127
2288.000000;2.753546
2287.000000;2.590728
2286.000000;2.501146
2285.000000;2.470315
2284.000000;2.511491
2283.000000;2.584790
2282.000000;2.722486
2281.000000;3.009191
2280.000000;2.665850
2279.000000;2.394994
2278.000000;2.343128
2277.000000;2.412012
2276.000000;2.552784
2275.000000;2.645577
2274.000000;2.638455
2273.000000;2.648916
2272.000000;2.756962
2271.000000;3.268138
2270.000000;3.104398
2269.000000;2.815986
2268.000000;3.089551
2267.000000;3.175311
2266.000000;2.902009
2265.000000;2.826280
2264.000000;2.570005
2263.000000;2.319061
2262.000000;2.200965
2261.000000;2.206455
2260.000000;2.337111
2259.000000;2.615019
2258.000000;2.971327
2257.000000;3.012509
2256.000000;2.882578
2255.000000;2.589366
2254.000000;2.454399
2253.000000;2.492629
2252.000000;2.912876
2251.000000;3.598671
2250.000000;2.775633
2249.000000;2.787066
2248.000000;2.784116
2247.000000;2.634017
2246.000000;2.460277
2245.000000;2.404086
2244.000000;2.452240
2243.000000;2.675627
2242.000000;3.062733
2241.000000;2.828275
2240.000000;2.720424
2239.000000;3.166661
2238.000000;2.817735
2237.000000;2.422035
2236.000000;2.276776
2235.000000;2.268571
2234.000000;2.382302
2233.000000;2.627581
2232.000000;3.055049
2231.000000;3.004184
2230.000000;2.816006
2229.000000;2.584251
2228.000000;2.336380
2227.000000;2.242174
2226.000000;2.331362
2225.000000;2.717340
2224.000000;2.687164
2223.000000;2.371460
2222.000000;2.373922
2221.000000;2.717450
2220.000000;3.005446
2219.000000;2.482605
2218.000000;2.367986
2217.000000;2.372211
2216.000000;2.480121
2215.000000;2.840116
2214.000000;2.981899
2213.000000;2.534025
2212.000000;2.315726
2211.000000;2.287012
2210.000000;2.480223
2209.000000;2.625795
2208.000000;2.408544
2207.000000;2.352553
2206.000000;2.458783
2205.000000;2.666546
2204.000000;2.511805
2203.000000;2.356339
2202.000000;2.407522
2201.000000;2.778529
2200.000000;3.365726
2199.000000;2.809305
2198.000000;2.685469
2197.000000;2.439402
2196.000000;2.307675
2195.000000;2.291315
2194.000000;2.419833
2193.000000;2.788166
2192.000000;3.104620
2191.000000;3.219477
2190.000000;2.758400
2189.000000;2.426048
2188.000000;2.375425
2187.000000;2.459560
2186.000000;2.578819
2185.000000;2.645728
2184.000000;2.836272
2183.000000;3.029558
2182.000000;2.899996
2181.000000;2.995681
2180.000000;3.182126
2179.000000;2.770351
2178.000000;2.593626
2177.000000;2.556775
2176.000000;2.545690
2175.000000;2.473670
2174.000000;2.572374
2173.000000;2.904121
2172.000000;2.436116
2171.000000;2.203170
2170.000000;2.188113
2169.000000;2.375500
2168.000000;2.729311
2167.000000;2.660310
2166.000000;2.564402
2165.000000;3.083650
2164.000000;2.864411
2163.000000;2.469598
2162.000000;2.442182
2161.000000;2.509555
2160.000000;2.702934
2159.000000;2.887763
2158.000000;2.986650
2157.000000;2.796113
2156.000000;2.571064
2155.000000;2.491147
2154.000000;2.512066
2153.000000;2.555032
2152.000000;2.569618
2151.000000;2.605146
2150.000000;2.793297
2149.000000;3.504020
2148.000000;2.618045
2147.000000;2.372989
2146.000000;2.301675
2145.000000;2.333767
2144.000000;2.365623
2143.000000;2.374423
2142.000000;2.426193
2141.000000;2.577731
2140.000000;2.681492
2139.000000;2.569598
2138.000000;2.493143
2137.000000;2.508475
2136.000000;2.564431
2135.000000;2.632543
2134.000000;2.753690
2133.000000;3.077408
2132.000000;3.038922
2131.000000;2.822645
2130.000000;2.705267
2129.000000;2.600314
2128.000000;2.561938
2127.000000;2.605862
2126.000000;2.674548
2125.000000;2.714381
2124.000000;2.778060
2123.000000;2.871739
2122.000000;2.937658
2121.000000;2.935493
2120.000000;2.819152
2119.000000;2.692741
2118.000000;2.662540
2117.000000;2.816997
2116.000000;3.209557
2115.000000;2.937368
2114.000000;2.692482
2113.000000;2.730646
2112.000000;3.040418
2111.000000;3.224058
2110.000000;3.021738
2109.000000;3.010580
2108.000000;2.884462
2107.000000;2.781284
2106.000000;2.770974
2105.000000;2.865854
2104.000000;3.138428
2103.000000;2.877959
2102.000000;2.681971
2101.000000;2.685940
2100.000000;2.813668
2099.000000;2.949584
2098.000000;3.176372
2097.000000;2.763304
2096.000000;2.431052
2095.000000;2.322755
2094.000000;2.366815
2093.000000;2.498199
2092.000000;2.563195
2091.000000;2.526892
2090.000000;2.543325
2089.000000;2.668973
2088.000000;3.176130
2087.000000;3.134300
2086.000000;2.664951
2085.000000;2.632939
2084.000000;2.772081
2083.000000;2.993263
2082.000000;2.732029
2081.000000;2.544429
2080.000000;2.492075
2079.000000;2.505156
2078.000000;2.566751
2077.000000;2.645952
2076.000000;2.614466
2075.000000;2.464372
2074.000000;2.374752
2073.000000;2.414792
2072.000000;2.637710
2071.000000;2.801676
2070.000000;2.540041
2069.000000;2.468646
2068.000000;2.537360
2067.000000;2.716075
2066.000000;2.948146
2065.000000;2.883406
2064.000000;2.631356
2063.000000;2.641918
2062.000000;2.840954
2061.000000;2.551142
2060.000000;2.285369
2059.000000;2.248598
2058.000000;2.368872
2057.000000;2.683180
2056.000000;2.808996
2055.000000;2.733523
2054.000000;2.690660
2053.000000;2.495077
2052.000000;2.359660
2051.000000;2.315766
2050.000000;2.362517
2049.000000;2.482732
2048.000000;3.030622
2047.000000;2.690760
2046.000000;2.300356
2045.000000;2.191017
2044.000000;2.216150
2043.000000;2.234708
2042.000000;2.179438
2041.000000;2.199923
2040.000000;2.346392
2039.000000;2.468739
2038.000000;2.494773
2037.000000;2.871529
2036.000000;2.799640
2035.000000;2.330374
2034.000000;2.293013
2033.000000;2.415133
2032.000000;2.995952
2031.000000;2.930433
2030.000000;2.634724
2029.000000;3.112852
2028.000000;2.647439
2027.000000;2.391856
2026.000000;2.434489
2025.000000;2.841528
2024.000000;2.679624
2023.000000;2.338572
2022.000000;2.287921
2021.000000;2.451894
2020.000000;3.043190
2019.000000;2.438767
2018.000000;2.273746
2017.000000;2.335468
2016.000000;2.480572
2015.000000;2.479181
2014.000000;2.472101
2013.000000;2.418483
2012.000000;2.211169
2011.000000;2.110402
2010.000000;2.166365
2009.000000;2.523322
2008.000000;2.633090
2007.000000;2.241709
2006.000000;2.276374
2005.000000;2.319309
2004.000000;2.128150
2003.000000;1.990070
2002.000000;2.003263
2001.000000;2.149818
2000.000000;2.210851
1999.000000;2.047496
1998.000000;1.963349
1997.000000;2.019909
1996.000000;2.221845
1995.000000;2.416253
1994.000000;2.297171
1993.000000;2.209265
1992.000000;2.209228
1991.000000;2.247348
1990.000000;2.305682
1989.000000;2.387730
1988.000000;2.343409
1987.000000;2.183222
1986.000000;2.139704
1985.000000;2.304169
1984.000000;2.601910
1983.000000;2.445479
1982.000000;2.356108
1981.000000;2.643217
1980.000000;2.938523
1979.000000;2.455094
1978.000000;2.358184
1977.000000;2.479821
1976.000000;3.040258
1975.000000;2.748685
1974.000000;2.449636
1973.000000;2.408968
1972.000000;2.289956
1971.000000;2.204467
1970.000000;2.178908
1969.000000;2.181189
1968.000000;2.190579
1967.000000;2.226975
1966.000000;2.311898
1965.000000;2.471827
1964.000000;2.743205
1963.000000;2.775656
1962.000000;2.635749
1961.000000;2.831045
1960.000000;3.663530
1959.000000;2.876382
1958.000000;2.971038
1957.000000;2.796135
1956.000000;2.492697
1955.000000;2.447314
1954.000000;2.594984
1953.000000;3.028604
1952.000000;2.845420
1951.000000;2.543785
1950.000000;2.809955
1949.000000;2.897347
1948.000000;2.455393
1947.000000;2.338001
1946.000000;2.345644
1945.000000;2.314138
1944.000000;2.234296
1943.000000;2.205472
1942.000000;2.261979
1941.000000;2.377928
1940.000000;2.472769
1939.000000;2.461372
1938.000000;2.395757
1937.000000;2.373382
1936.000000;2.458609
1935.000000;2.536333
1934.000000;2.359141
1933.000000;2.211219
1932.000000;2.173318
1931.000000;2.215594
1930.000000;2.298749
1929.000000;2.509934
1928.000000;2.628167
1927.000000;2.355723
1926.000000;2.279147
1925.000000;2.421591
1924.000000;2.625666
1923.000000;2.627384
1922.000000;2.608702
1921.000000;2.359605
1920.000000;2.140196
1919.000000;2.095691
1918.000000;2.208468
1917.000000;2.551866
1916.000000;2.462534
1915.000000;2.275760
1914.000000;2.377549
1913.000000;2.463632
1912.000000;2.297447
1911.000000;2.293832
1910.000000;2.617385
1909.000000;2.961508
1908.000000;2.535043
1907.000000;2.557461
1906.000000;2.719315
1905.000000;2.580305
1904.000000;2.405353
1903.000000;2.332016
1902.000000;2.379562
1901.000000;2.800975
1900.000000;2.971781
1899.000000;2.431763
1898.000000;2.508810
1897.000000;2.480131
1896.000000;2.133265
1895.000000;1.963580
1894.000000;2.006711
1893.000000;2.279280
1892.000000;2.131648
1891.000000;1.919258
1890.000000;1.954487
1889.000000;2.192818
1888.000000;2.505953
1887.000000;2.330463
1886.000000;2.398290
1885.000000;2.814204
1884.000000;2.398716
1883.000000;2.293849
1882.000000;2.580382
1881.000000;2.600734
1880.000000;2.169022
1879.000000;2.070839
1878.000000;2.158707
1877.000000;2.147208
1876.000000;1.937804
1875.000000;1.845291
1874.000000;1.910586
1873.000000;2.196827
1872.000000;2.355148
1871.000000;2.090723
1870.000000;2.117089
1869.000000;2.521406
1868.000000;2.188473
1867.000000;1.838678
1866.000000;1.795209
1865.000000;1.937318
1864.000000;2.212068
1863.000000;2.128544
1862.000000;2.081230
1861.000000;2.254886
1860.000000;2.259477
1859.000000;2.186298
1858.000000;2.326897
1857.000000;2.545299
1856.000000;2.275722
1855.000000;2.149531
1854.000000;2.179047
1853.000000;2.155848
1852.000000;2.029987
1851.000000;1.977558
1850.000000;2.049186
1849.000000;2.300667
1848.000000;2.768185
1847.000000;2.482811
1846.000000;2.179288
1845.000000;2.102316
1844.000000;2.141905
1843.000000;2.278316
1842.000000;2.357476
1841.000000;2.297047
1840.000000;2.292230
1839.000000;2.346357
1838.000000;2.327405
1837.000000;2.264891
1836.000000;2.252305
1835.000000;2.281549
1834.000000;2.283926
1833.000000;2.244244
1832.000000;2.218111
1831.000000;2.290675
1830.000000;2.452348
1829.000000;2.541019
1828.000000;2.563934
1827.000000;2.372183
1826.000000;2.116663
1825.000000;2.002155
1824.000000;2.017989
1823.000000;2.103066
1822.000000;2.412082
1821.000000;2.801053
1820.000000;2.182081
1819.000000;1.908263
1818.000000;1.775904
1817.000000;1.722047
1816.000000;1.737018
1815.000000;1.801425
1814.000000;1.898392
1813.000000;2.002708
1812.000000;2.109225
1811.000000;2.160581
1810.000000;2.172672
1809.000000;2.231827
1808.000000;2.349456
1807.000000;2.414967
1806.000000;2.556224
1805.000000;2.649321
1804.000000;2.699545
1803.000000;2.995947
1802.000000;2.376855
1801.000000;2.087113
1800.000000;2.007015
1799.000000;2.052902
1798.000000;2.251966
1797.000000;2.596431
1796.000000;3.025326
1795.000000;2.476829
1794.000000;2.023313
1793.000000;1.860461
1792.000000;1.848240
1791.000000;1.953594
1790.000000;2.185047
1789.000000;2.399676
1788.000000;2.239398
1787.000000;2.028575
1786.000000;1.951832
1785.000000;2.040364
1784.000000;2.347318
1783.000000;2.261351
1782.000000;2.004596
1781.000000;1.964391
1780.000000;2.016307
1779.000000;2.096208
1778.000000;2.160282
1777.000000;2.378062
1776.000000;3.101829
1775.000000;2.506754
1774.000000;2.417642
1773.000000;2.712890
1772.000000;2.617188
1771.000000;2.659845
1770.000000;2.337948
1769.000000;1.964736
1768.000000;1.857116
1767.000000;1.950951
1766.000000;2.235952
1765.000000;2.187137
1764.000000;1.965239
1763.000000;1.967585
1762.000000;2.142032
1761.000000;2.548229
1760.000000;2.535254
1759.000000;2.280844
1758.000000;2.142766
1757.000000;2.012496
1756.000000;1.938551
1755.000000;1.931275
1754.000000;2.007066
1753.000000;2.265543
1752.000000;2.702807
1751.000000;2.369406
1750.000000;2.174297
1749.000000;2.067576
1748.000000;1.986018
1747.000000;1.997586
1746.000000;2.290602
1745.000000;2.488972
1744.000000;1.959892
1743.000000;1.821131
1742.000000;1.849137
1741.000000;1.940302
1740.000000;1.947591
1739.000000;1.880394
1738.000000;1.886317
1737.000000;1.942229
1736.000000;2.059654
1735.000000;2.198954
1734.000000;2.313529
1733.000000;2.344150
1732.000000;2.294426
1731.000000;2.235818
1730.000000;2.249977
1729.000000;2.411458
1728.000000;2.347770
1727.000000;2.042266
1726.000000;1.940956
1725.000000;1.968679
1724.000000;2.022285
1723.000000;2.015903
1722.000000;2.171757
1721.000000;2.738790
1720.000000;2.201685
1719.000000;1.944643
1718.000000;1.998910
1717.000000;2.288796
1716.000000;2.403353
1715.000000;2.153750
1714.000000;2.308485
1713.000000;2.341908
1712.000000;2.075916
1711.000000;2.092620
1710.000000;2.470936
1709.000000;2.655587
1708.000000;2.291389
1707.000000;2.152144
1706.000000;2.059290
1705.000000;2.082615
1704.000000;2.360736
1703.000000;2.627397
1702.000000;2.157381
1701.000000;1.943709
1700.000000;1.905870
1699.000000;1.906820
1698.000000;1.943411
1697.000000;1.904748
1696.000000;1.851528
1695.000000;1.867478
1694.000000;1.948046
1693.000000;2.064602
1692.000000;2.077827
1691.000000;2.018401
1690.000000;2.018366
1689.000000;2.046503
1688.000000;2.061635
1687.000000;2.067801
1686.000000;2.091690
1685.000000;2.143589
1684.000000;2.148027
1683.000000;2.069759
1682.000000;2.009267
1681.000000;2.057756
1680.000000;2.106515
1679.000000;1.991423
1678.000000;1.909015
1677.000000;1.954994
1676.000000;2.202557
1675.000000;2.887519
1674.000000;3.380990
1673.000000;2.567158
1672.000000;2.024418
1671.000000;1.781197
1670.000000;1.745713
1669.000000;1.824833
1668.000000;1.936281
1667.000000;1.983321
1666.000000;2.025425
1665.000000;2.148342
1664.000000;2.233923
1663.000000;2.181509
1662.000000;2.187889
1661.000000;2.215662
1660.000000;2.081714
1659.000000;1.975749
1658.000000;2.056115
1657.000000;2.125001
1656.000000;1.917778
1655.000000;1.789677
1654.000000;1.857178
1653.000000;1.957748
1652.000000;1.940575
1651.000000;2.029584
1650.000000;2.219557
1649.000000;1.933932
1648.000000;1.724331
1647.000000;1.729989
1646.000000;1.734782
1645.000000;1.739098
1644.000000;1.749998
1643.000000;1.993892
1642.000000;2.624908
1641.000000;1.970303
1640.000000;1.804857
1639.000000;1.854000
1638.000000;1.899617
1637.000000;2.033193
1636.000000;2.205679
1635.000000;2.400681
1634.000000;2.280747
1633.000000;1.900065
1632.000000;1.655322
1631.000000;1.552729
1630.000000;1.562370
1629.000000;1.638402
1628.000000;1.704219
1627.000000;1.740745
1626.000000;1.831904
1625.000000;2.208942
1624.000000;2.166256
1623.000000;1.816051
1622.000000;1.756596
1621.000000;1.821058
1620.000000;2.034627
1619.000000;2.482569
1618.000000;2.623475
1617.000000;2.228179
1616.000000;2.027567
1615.000000;1.928537
1614.000000;1.979756
1613.000000;2.357389
1612.000000;2.146899
1611.000000;1.807079
1610.000000;1.759112
1609.000000;2.006156
1608.000000;2.593024
1607.000000;2.134710
1606.000000;2.020512
1605.000000;2.397481
1604.000000;2.081156
1603.000000;1.682645
1602.000000;1.605335
1601.000000;1.685327
1600.000000;1.892286
1599.000000;2.231875
1598.000000;2.275466
1597.000000;2.044169
1596.000000;1.909822
1595.000000;2.033597
1594.000000;2.277393
1593.000000;2.046325
1592.000000;1.933896
1591.000000;2.179176
1590.000000;2.357970
1589.000000;1.951485
1588.000000;1.738345
1587.000000;1.659729
1586.000000;1.646530
1585.000000;1.686324
1584.000000;1.757539
1583.000000;1.854429
1582.000000;1.922624
1581.000000;1.878282
1580.000000;1.758777
1579.000000;1.680291
1578.000000;1.693145
1577.000000;2.019251
1576.000000;2.484898
1575.000000;2.003221
1574.000000;1.859785
1573.000000;1.741844
1572.000000;1.603178
1571.000000;1.567114
1570.000000;1.675496
1569.000000;2.060329
1568.000000;2.299386
1567.000000;1.971320
1566.000000;2.159021
1565.000000;2.297566
1564.000000;1.905706
1563.000000;1.843223
1562.000000;2.017020
1561.000000;2.276143
1560.000000;2.057849
1559.000000;1.949314
1558.000000;1.968161
1557.000000;1.957504
1556.000000;1.982451
1555.000000;2.025373
1554.000000;2.097727
1553.000000;2.110683
1552.000000;2.027546
1551.000000;1.938818
1550.000000;1.904816
1549.000000;1.868650
1548.000000;1.842423
1547.000000;1.882019
1546.000000;2.016954
1545.000000;2.222356
1544.000000;2.522002
1543.000000;3.038266
1542.000000;2.517630
1541.000000;2.197182
1540.000000;2.167849
1539.000000;2.180370
1538.000000;1.997371
1537.000000;1.775617
1536.000000;1.677689
1535.000000;1.726914
1534.000000;1.882754
1533.000000;1.969258
1532.000000;1.957104
1531.000000;2.019578
1530.000000;2.076399
1529.000000;1.945244
1528.000000;1.855335
1527.000000;1.916923
1526.000000;2.154083
1525.000000;2.479209
1524.000000;2.270301
1523.000000;1.996017
1522.000000;1.908350
1521.000000;1.955741
1520.000000;2.022329
1519.000000;2.038816
1518.000000;2.288628
1517.000000;2.458888
1516.000000;2.037051
1515.000000;1.849593
1514.000000;1.815002
1513.000000;1.790403
1512.000000;1.758684
1511.000000;1.785449
1510.000000;1.955579
1509.000000;2.147124
1508.000000;1.969217
1507.000000;1.843501
1506.000000;1.961419
1505.000000;2.319633
1504.000000;2.018968
1503.000000;1.845783
1502.000000;1.985378
1501.000000;1.869407
1500.000000;1.696199
1499.000000;1.725119
1498.000000;1.968499
1497.000000;2.151253
1496.000000;1.963924
1495.000000;1.989013
1494.000000;2.376527
1493.000000;2.100726
1492.000000;1.791156
1491.000000;1.787299
1490.000000;1.918976
1489.000000;2.096090
1488.000000;2.078385
1487.000000;1.867219
1486.000000;1.652517
1485.000000;1.499205
1484.000000;1.471027
1483.000000;1.570276
1482.000000;1.847326
1481.000000;2.201394
1480.000000;2.181464
1479.000000;2.140824
1478.000000;1.779095
1477.000000;1.494955
1476.000000;1.401306
1475.000000;1.431727
1474.000000;1.599184
1473.000000;1.852629
1472.000000;1.886735
1471.000000;1.715708
1470.000000;1.608807
1469.000000;1.906956
1468.000000;2.033878
1467.000000;1.537859
1466.000000;1.477141
1465.000000;1.599540
1464.000000;1.948322
1463.000000;2.399268
1462.000000;2.342725
1461.000000;2.564582
1460.000000;1.975954
1459.000000;1.715881
1458.000000;1.725849
1457.000000;1.956603
1456.000000;1.993109
1455.000000;1.597059
1454.000000;1.493083
1453.000000;1.524717
1452.000000;1.320908
1451.000000;1.133290
1450.000000;1.080168
1449.000000;1.163019
1448.000000;1.495064
1447.000000;1.650630
1446.000000;1.336379
1445.000000;1.359254
1444.000000;1.563711
1443.000000;1.671703
1442.000000;1.581510
1441.000000;1.517104
1440.000000;1.700337
1439.000000;1.836877
1438.000000;1.558160
1437.000000;1.392407
1436.000000;1.387369
1435.000000;1.467486
1434.000000;1.490682
1433.000000;1.481497
1432.000000;1.586321
1431.000000;1.653826
1430.000000;1.577083
1429.000000;1.523973
1428.000000;1.494206
1427.000000;1.477280
1426.000000;1.549656
1425.000000;1.800292
1424.000000;1.953704
1423.000000;1.750048
1422.000000;1.713997
1421.000000;1.822328
1420.000000;2.019449
1419.000000;2.182094
1418.000000;2.059820
1417.000000;1.877682
1416.000000;1.801634
1415.000000;1.907595
1414.000000;2.243957
1413.000000;2.325076
1412.000000;2.115563
1411.000000;2.035009
1410.000000;2.033283
1409.000000;2.074159
1408.000000;2.159335
1407.000000;2.522096
1406.000000;2.508514
1405.000000;2.197750
1404.000000;2.102374
1403.000000;2.044400
1402.000000;2.082522
1401.000000;2.244017
1400.000000;2.607336
1399.000000;3.634298
1398.000000;2.919540
1397.000000;2.679495
1396.000000;2.564620
1395.000000;2.408052
1394.000000;2.243152
1393.000000;2.089572
1392.000000;1.998200
1391.000000;1.984399
1390.000000;2.040522
1389.000000;2.131899
1388.000000;2.226826
1387.000000;2.309907
1386.000000;2.392402
1385.000000;2.499417
1384.000000;2.712029
1383.000000;2.665905
1382.000000;2.345482
1381.000000;2.172412
1380.000000;2.114770
1379.000000;2.136568
1378.000000;2.196204
1377.000000;2.242661
1376.000000;2.298231
1375.000000;2.447580
1374.000000;2.702871
1373.000000;2.688724
1372.000000;2.558966
1371.000000;2.570907
1370.000000;2.645558
1369.000000;2.665891
1368.000000;2.635753
1367.000000;2.632936
1366.000000;2.842482
1365.000000;3.268241
1364.000000;2.886168
1363.000000;2.655797
1362.000000;2.613627
1361.000000;2.502454
1360.000000;2.384897
1359.000000;2.364701
1358.000000;2.516654
1357.000000;2.998942
1356.000000;2.648638
1355.000000;2.314337
1354.000000;2.328690
1353.000000;2.702023
1352.000000;2.712626
1351.000000;2.400170
1350.000000;2.389455
1349.000000;2.497386
1348.000000;2.676947
1347.000000;2.830673
1346.000000;2.615864
1345.000000;2.312243
1344.000000;2.120574
1343.000000;2.062036
1342.000000;2.128872
1341.000000;2.266959
1340.000000;2.334792
1339.000000;2.342302
1338.000000;2.501630
1337.000000;2.676201
1336.000000;2.453944
1335.000000;2.326790
1334.000000;2.330524
1333.000000;2.314755
1332.000000;2.241964
1331.000000;2.208041
1330.000000;2.287547
1329.000000;2.637904
1328.000000;3.103295
1327.000000;2.926793
1326.000000;2.615541
1325.000000;2.330844
1324.000000;2.290452
1323.000000;2.518264
1322.000000;2.697113
1321.000000;2.517925
1320.000000;2.665175
1319.000000;3.376038
1318.000000;2.685276
1317.000000;2.633948
1316.000000;2.943054
1315.000000;3.572839
1314.000000;3.248520
1313.000000;2.686510
1312.000000;2.383537
1311.000000;2.215805
1310.000000;2.181713
1309.000000;2.275940
1308.000000;2.634643
1307.000000;3.094819
1306.000000;2.685925
1305.000000;2.602231
1304.000000;2.611417
1303.000000;2.567719
1302.000000;2.595154
1301.000000;2.820340
1300.000000;3.033326
1299.000000;2.773413
1298.000000;2.575359
1297.000000;2.504475
1296.000000;2.561094
1295.000000;2.702985
1294.000000;2.712430
1293.000000;2.733153
1292.000000;2.962891
1291.000000;3.375802
1290.000000;3.097059
1289.000000;2.678057
1288.000000;2.402171
1287.000000;2.264006
1286.000000;2.292299
1285.000000;2.446546
1284.000000;2.471936
1283.000000;2.437480
1282.000000;2.601368
1281.000000;2.952948
1280.000000;2.841567
1279.000000;2.563339
1278.000000;2.423648
1277.000000;2.325366
1276.000000;2.309453
1275.000000;2.419627
1274.000000;2.545181
1273.000000;2.397369
1272.000000;2.247820
1271.000000;2.217488
1270.000000;2.253900
1269.000000;2.292524
1268.000000;2.283673
1267.000000;2.282121
1266.000000;2.363200
1265.000000;2.321201
1264.000000;2.087334
1263.000000;1.958153
1262.000000;1.974427
1261.000000;2.162145
1260.000000;2.636779
1259.000000;4.205686
1258.000000;2.963723
1257.000000;2.463328
1256.000000;2.361280
1255.000000;2.520354
1254.000000;2.520530
1253.000000;2.234678
1252.000000;2.097843
1251.000000;2.084204
1250.000000;2.250928
1249.000000;2.539094
1248.000000;2.365763
1247.000000;2.220938
1246.000000;2.269507
1245.000000;2.362518
1244.000000;2.377977
1243.000000;2.286127
1242.000000;2.188809
1241.000000;2.109805
1240.000000;2.071339
1239.000000;2.126705
1238.000000;2.428557
1237.000000;2.639243
1236.000000;2.102835
1235.000000;1.953988
1234.000000;1.973160
1233.000000;2.120526
1232.000000;2.235678
1231.000000;2.124154
1230.000000;2.235541
1229.000000;2.507028
1228.000000;2.040220
1227.000000;1.805366
1226.000000;1.783906
1225.000000;1.909846
1224.000000;2.104540
1223.000000;2.134917
1222.000000;2.139707
1221.000000;2.252370
1220.000000;2.133316
1219.000000;1.961952
1218.000000;1.908552
1217.000000;1.925109
1216.000000;1.987861
1215.000000;2.079828
1214.000000;2.210328
1213.000000;2.447576
1212.000000;2.258518
1211.000000;2.016570
1210.000000;1.924773
1209.000000;1.917418
1208.000000;1.988388
1207.000000;2.153566
1206.000000;2.327519
1205.000000;2.273470
1204.000000;2.066513
1203.000000;1.912514
1202.000000;1.873774
1201.000000;1.906359
1200.000000;1.936376
