Criado como novo conjunto de dados;"0307_DANIEL.spp","32583.4 Secs"
cm-1;Abs
10000.000000;1.092022
9999.000000;1.090760
9998.000000;1.089752
9997.000000;1.088584
9996.000000;1.086967
9995.000000;1.085230
9994.000000;1.083745
9993.000000;1.082515
9992.000000;1.081312
9991.000000;1.080181
9990.000000;1.079321
9989.000000;1.078697
9988.000000;1.078031
9987.000000;1.077132
9986.000000;1.075967
9985.000000;1.074474
9984.000000;1.072631
9983.000000;1.070714
9982.000000;1.069219
9981.000000;1.068418
9980.000000;1.068096
9979.000000;1.067743
9978.000000;1.066912
9977.000000;1.065445
9976.000000;1.063535
9975.000000;1.061622
9974.000000;1.060111
9973.000000;1.059095
9972.000000;1.058361
9971.000000;1.057619
9970.000000;1.056651
9969.000000;1.055342
9968.000000;1.053734
9967.000000;1.052048
9966.000000;1.050513
9965.000000;1.049164
9964.000000;1.047874
9963.000000;1.046529
9962.000000;1.045070
9961.000000;1.043457
9960.000000;1.041765
9959.000000;1.040309
9958.000000;1.039401
9957.000000;1.038909
9956.000000;1.038258
9955.000000;1.037023
9954.000000;1.035391
9953.000000;1.033897
9952.000000;1.032801
9951.000000;1.031891
9950.000000;1.030847
9949.000000;1.029576
9948.000000;1.028177
9947.000000;1.026784
9946.000000;1.025565
9945.000000;1.024681
9944.000000;1.024063
9943.000000;1.023300
9942.000000;1.021994
9941.000000;1.020230
9940.000000;1.018498
9939.000000;1.017107
9938.000000;1.015854
9937.000000;1.014362
9936.000000;1.012556
9935.000000;1.010684
9934.000000;1.009016
9933.000000;1.007678
9932.000000;1.006645
9931.000000;1.005745
9930.000000;1.004736
9929.000000;1.003565
9928.000000;1.002469
9927.000000;1.001653
9926.000000;1.000946
9925.000000;0.999974
9924.000000;0.998578
9923.000000;0.996885
9922.000000;0.995037
9921.000000;0.993165
9920.000000;0.991580
9919.000000;0.990611
9918.000000;0.990125
9917.000000;0.989462
9916.000000;0.988028
9915.000000;0.985860
9914.000000;0.983507
9913.000000;0.981505
9912.000000;0.980055
9911.000000;0.978987
9910.000000;0.977927
9909.000000;0.976618
9908.000000;0.975170
9907.000000;0.973872
9906.000000;0.972771
9905.000000;0.971653
9904.000000;0.970455
9903.000000;0.969402
9902.000000;0.968592
9901.000000;0.967726
9900.000000;0.966492
9899.000000;0.964997
9898.000000;0.963582
9897.000000;0.962354
9896.000000;0.961151
9895.000000;0.959846
9894.000000;0.958412
9893.000000;0.956753
9892.000000;0.954758
9891.000000;0.952537
9890.000000;0.950423
9889.000000;0.948716
9888.000000;0.947551
9887.000000;0.946931
9886.000000;0.946690
9885.000000;0.946425
9884.000000;0.945690
9883.000000;0.944365
9882.000000;0.942737
9881.000000;0.941166
9880.000000;0.939785
9879.000000;0.938491
9878.000000;0.937113
9877.000000;0.935522
9876.000000;0.933714
9875.000000;0.931842
9874.000000;0.930115
9873.000000;0.928601
9872.000000;0.927196
9871.000000;0.925771
9870.000000;0.924298
9869.000000;0.922814
9868.000000;0.921354
9867.000000;0.919956
9866.000000;0.918631
9865.000000;0.917304
9864.000000;0.915846
9863.000000;0.914223
9862.000000;0.912538
9861.000000;0.910896
9860.000000;0.909300
9859.000000;0.907765
9858.000000;0.906478
9857.000000;0.905659
9856.000000;0.905221
9855.000000;0.904674
9854.000000;0.903469
9853.000000;0.901462
9852.000000;0.899041
9851.000000;0.896822
9850.000000;0.895229
9849.000000;0.894240
9848.000000;0.893421
9847.000000;0.892274
9846.000000;0.890651
9845.000000;0.888820
9844.000000;0.887079
9843.000000;0.885395
9842.000000;0.883589
9841.000000;0.881753
9840.000000;0.880220
9839.000000;0.879081
9838.000000;0.878022
9837.000000;0.876766
9836.000000;0.875417
9835.000000;0.874142
9834.000000;0.872736
9833.000000;0.870868
9832.000000;0.868660
9831.000000;0.866682
9830.000000;0.865303
9829.000000;0.864288
9828.000000;0.863115
9827.000000;0.861501
9826.000000;0.859540
9825.000000;0.857499
9824.000000;0.855642
9823.000000;0.854149
9822.000000;0.853048
9821.000000;0.852172
9820.000000;0.851211
9819.000000;0.849865
9818.000000;0.848047
9817.000000;0.845985
9816.000000;0.844048
9815.000000;0.842395
9814.000000;0.840887
9813.000000;0.839366
9812.000000;0.837876
9811.000000;0.836474
9810.000000;0.835009
9809.000000;0.833308
9808.000000;0.831482
9807.000000;0.829781
9806.000000;0.828198
9805.000000;0.826506
9804.000000;0.824665
9803.000000;0.822895
9802.000000;0.821300
9801.000000;0.819704
9800.000000;0.817961
9799.000000;0.816222
9798.000000;0.814725
9797.000000;0.813470
9796.000000;0.812235
9795.000000;0.810793
9794.000000;0.809048
9793.000000;0.807063
9792.000000;0.805033
9791.000000;0.803135
9790.000000;0.801348
9789.000000;0.799539
9788.000000;0.797754
9787.000000;0.796246
9786.000000;0.795142
9785.000000;0.794257
9784.000000;0.793346
9783.000000;0.792389
9782.000000;0.791473
9781.000000;0.790472
9780.000000;0.789012
9779.000000;0.786802
9778.000000;0.783975
9777.000000;0.781102
9776.000000;0.778838
9775.000000;0.777402
9774.000000;0.776361
9773.000000;0.775025
9772.000000;0.773107
9771.000000;0.770925
9770.000000;0.768966
9769.000000;0.767408
9768.000000;0.766061
9767.000000;0.764611
9766.000000;0.762830
9765.000000;0.760740
9764.000000;0.758644
9763.000000;0.756859
9762.000000;0.755349
9761.000000;0.753766
9760.000000;0.751913
9759.000000;0.749970
9758.000000;0.748138
9757.000000;0.746276
9756.000000;0.744133
9755.000000;0.741827
9754.000000;0.739841
9753.000000;0.738506
9752.000000;0.737664
9751.000000;0.736845
9750.000000;0.735669
9749.000000;0.734042
9748.000000;0.732082
9747.000000;0.729951
9746.000000;0.727780
9745.000000;0.725701
9744.000000;0.723855
9743.000000;0.722281
9742.000000;0.720823
9741.000000;0.719246
9740.000000;0.717463
9739.000000;0.715570
9738.000000;0.713660
9737.000000;0.711712
9736.000000;0.709721
9735.000000;0.707791
9734.000000;0.706034
9733.000000;0.704400
9732.000000;0.702719
9731.000000;0.700877
9730.000000;0.698893
9729.000000;0.696870
9728.000000;0.694877
9727.000000;0.692897
9726.000000;0.690859
9725.000000;0.688768
9724.000000;0.686765
9723.000000;0.684989
9722.000000;0.683399
9721.000000;0.681798
9720.000000;0.680044
9719.000000;0.678157
9718.000000;0.676203
9717.000000;0.674181
9716.000000;0.672098
9715.000000;0.670086
9714.000000;0.668332
9713.000000;0.666892
9712.000000;0.665573
9711.000000;0.664068
9710.000000;0.662219
9709.000000;0.660155
9708.000000;0.658135
9707.000000;0.656258
9706.000000;0.654405
9705.000000;0.652463
9704.000000;0.650436
9703.000000;0.648323
9702.000000;0.646050
9701.000000;0.643661
9700.000000;0.641405
9699.000000;0.639459
9698.000000;0.637668
9697.000000;0.635767
9696.000000;0.633779
9695.000000;0.631970
9694.000000;0.630443
9693.000000;0.628990
9692.000000;0.627333
9691.000000;0.625355
9690.000000;0.623099
9689.000000;0.620736
9688.000000;0.618526
9687.000000;0.616627
9686.000000;0.614914
9685.000000;0.613116
9684.000000;0.611106
9683.000000;0.608906
9682.000000;0.606540
9681.000000;0.604094
9680.000000;0.601873
9679.000000;0.600184
9678.000000;0.598935
9677.000000;0.597689
9676.000000;0.596141
9675.000000;0.594297
9674.000000;0.592167
9673.000000;0.589631
9672.000000;0.586743
9671.000000;0.583887
9670.000000;0.581408
9669.000000;0.579245
9668.000000;0.577088
9667.000000;0.574729
9666.000000;0.572180
9665.000000;0.569598
9664.000000;0.567265
9663.000000;0.565475
9662.000000;0.564249
9661.000000;0.563189
9660.000000;0.561749
9659.000000;0.559654
9658.000000;0.557050
9657.000000;0.554325
9656.000000;0.551836
9655.000000;0.549707
9654.000000;0.547808
9653.000000;0.545951
9652.000000;0.544056
9651.000000;0.542074
9650.000000;0.539891
9649.000000;0.537497
9648.000000;0.535175
9647.000000;0.533231
9646.000000;0.531557
9645.000000;0.529753
9644.000000;0.527682
9643.000000;0.525595
9642.000000;0.523626
9641.000000;0.521541
9640.000000;0.519136
9639.000000;0.516578
9638.000000;0.514110
9637.000000;0.511732
9636.000000;0.509407
9635.000000;0.507337
9634.000000;0.505697
9633.000000;0.504234
9632.000000;0.502446
9631.000000;0.500065
9630.000000;0.497171
9629.000000;0.493986
9628.000000;0.490820
9627.000000;0.488102
9626.000000;0.486078
9625.000000;0.484466
9624.000000;0.482666
9623.000000;0.480399
9622.000000;0.477940
9621.000000;0.475694
9620.000000;0.473724
9619.000000;0.471777
9618.000000;0.469595
9617.000000;0.467084
9616.000000;0.464303
9615.000000;0.461433
9614.000000;0.458741
9613.000000;0.456481
9612.000000;0.454717
9611.000000;0.453184
9610.000000;0.451375
9609.000000;0.448912
9608.000000;0.445909
9607.000000;0.442922
9606.000000;0.440448
9605.000000;0.438531
9604.000000;0.436828
9603.000000;0.434933
9602.000000;0.432609
9601.000000;0.429867
9600.000000;0.426963
9599.000000;0.424264
9598.000000;0.421959
9597.000000;0.419903
9596.000000;0.417808
9595.000000;0.415547
9594.000000;0.413224
9593.000000;0.410999
9592.000000;0.408936
9591.000000;0.406951
9590.000000;0.404822
9589.000000;0.402328
9588.000000;0.399493
9587.000000;0.396652
9586.000000;0.394170
9585.000000;0.392072
9584.000000;0.390030
9583.000000;0.387715
9582.000000;0.385092
9581.000000;0.382392
9580.000000;0.379886
9579.000000;0.377698
9578.000000;0.375766
9577.000000;0.373885
9576.000000;0.371831
9575.000000;0.369506
9574.000000;0.367026
9573.000000;0.364628
9572.000000;0.362431
9571.000000;0.360296
9570.000000;0.357972
9569.000000;0.355418
9568.000000;0.352883
9567.000000;0.350622
9566.000000;0.348603
9565.000000;0.346596
9564.000000;0.344437
9563.000000;0.342122
9562.000000;0.339687
9561.000000;0.337156
9560.000000;0.334556
9559.000000;0.331893
9558.000000;0.329159
9557.000000;0.326454
9556.000000;0.323994
9555.000000;0.321838
9554.000000;0.319701
9553.000000;0.317281
9552.000000;0.314682
9551.000000;0.312282
9550.000000;0.310196
9549.000000;0.308167
9548.000000;0.306029
9547.000000;0.303959
9546.000000;0.302143
9545.000000;0.300456
9544.000000;0.298644
9543.000000;0.296632
9542.000000;0.294478
9541.000000;0.292175
9540.000000;0.289668
9539.000000;0.286991
9538.000000;0.284268
9537.000000;0.281659
9536.000000;0.279354
9535.000000;0.277471
9534.000000;0.275877
9533.000000;0.274214
9532.000000;0.272233
9531.000000;0.269992
9530.000000;0.267694
9529.000000;0.265480
9528.000000;0.263430
9527.000000;0.261584
9526.000000;0.259830
9525.000000;0.257939
9524.000000;0.255841
9523.000000;0.253713
9522.000000;0.251710
9521.000000;0.249752
9520.000000;0.247696
9519.000000;0.245540
9518.000000;0.243344
9517.000000;0.241111
9516.000000;0.238898
9515.000000;0.236869
9514.000000;0.235080
9513.000000;0.233354
9512.000000;0.231511
9511.000000;0.229538
9510.000000;0.227409
9509.000000;0.224984
9508.000000;0.222336
9507.000000;0.219933
9506.000000;0.218155
9505.000000;0.216759
9504.000000;0.215183
9503.000000;0.213301
9502.000000;0.211529
9501.000000;0.210166
9500.000000;0.209019
9499.000000;0.207767
9498.000000;0.206406
9497.000000;0.205148
9496.000000;0.204053
9495.000000;0.202933
9494.000000;0.201523
9493.000000;0.199702
9492.000000;0.197640
9491.000000;0.195753
9490.000000;0.194379
9489.000000;0.193455
9488.000000;0.192620
9487.000000;0.191613
9486.000000;0.190432
9485.000000;0.189126
9484.000000;0.187649
9483.000000;0.186017
9482.000000;0.184398
9481.000000;0.182934
9480.000000;0.181595
9479.000000;0.180307
9478.000000;0.179087
9477.000000;0.177947
9476.000000;0.176812
9475.000000;0.175657
9474.000000;0.174609
9473.000000;0.173768
9472.000000;0.173023
9471.000000;0.172193
9470.000000;0.171256
9469.000000;0.170284
9468.000000;0.169235
9467.000000;0.168031
9466.000000;0.166829
9465.000000;0.165991
9464.000000;0.165677
9463.000000;0.165608
9462.000000;0.165345
9461.000000;0.164733
9460.000000;0.163993
9459.000000;0.163435
9458.000000;0.163155
9457.000000;0.162957
9456.000000;0.162523
9455.000000;0.161688
9454.000000;0.160652
9453.000000;0.159860
9452.000000;0.159595
9451.000000;0.159690
9450.000000;0.159723
9449.000000;0.159491
9448.000000;0.159148
9447.000000;0.158914
9446.000000;0.158804
9445.000000;0.158725
9444.000000;0.158679
9443.000000;0.158687
9442.000000;0.158639
9441.000000;0.158401
9440.000000;0.158058
9439.000000;0.157878
9438.000000;0.157985
9437.000000;0.158201
9436.000000;0.158267
9435.000000;0.158142
9434.000000;0.158014
9433.000000;0.158103
9432.000000;0.158481
9431.000000;0.159041
9430.000000;0.159554
9429.000000;0.159813
9428.000000;0.159776
9427.000000;0.159583
9426.000000;0.159465
9425.000000;0.159627
9424.000000;0.160148
9423.000000;0.160886
9422.000000;0.161528
9421.000000;0.161832
9420.000000;0.161904
9419.000000;0.162128
9418.000000;0.162822
9417.000000;0.163955
9416.000000;0.165188
9415.000000;0.166120
9414.000000;0.166569
9413.000000;0.166739
9412.000000;0.167089
9411.000000;0.167919
9410.000000;0.169041
9409.000000;0.169966
9408.000000;0.170418
9407.000000;0.170571
9406.000000;0.170789
9405.000000;0.171304
9404.000000;0.172157
9403.000000;0.173273
9402.000000;0.174480
9401.000000;0.175554
9400.000000;0.176360
9399.000000;0.176940
9398.000000;0.177457
9397.000000;0.178110
9396.000000;0.179055
9395.000000;0.180257
9394.000000;0.181389
9393.000000;0.182110
9392.000000;0.182487
9391.000000;0.182994
9390.000000;0.183971
9389.000000;0.185271
9388.000000;0.186520
9387.000000;0.187571
9386.000000;0.188546
9385.000000;0.189559
9384.000000;0.190610
9383.000000;0.191675
9382.000000;0.192732
9381.000000;0.193720
9380.000000;0.194590
9379.000000;0.195395
9378.000000;0.196245
9377.000000;0.197216
9376.000000;0.198348
9375.000000;0.199621
9374.000000;0.200885
9373.000000;0.201946
9372.000000;0.202827
9371.000000;0.203811
9370.000000;0.205086
9369.000000;0.206484
9368.000000;0.207731
9367.000000;0.208803
9366.000000;0.209868
9365.000000;0.210970
9364.000000;0.212029
9363.000000;0.213094
9362.000000;0.214334
9361.000000;0.215760
9360.000000;0.217173
9359.000000;0.218442
9358.000000;0.219654
9357.000000;0.220933
9356.000000;0.222250
9355.000000;0.223485
9354.000000;0.224571
9353.000000;0.225527
9352.000000;0.226433
9351.000000;0.227419
9350.000000;0.228561
9349.000000;0.229761
9348.000000;0.230812
9347.000000;0.231633
9346.000000;0.232352
9345.000000;0.233156
9344.000000;0.234140
9343.000000;0.235344
9342.000000;0.236813
9341.000000;0.238503
9340.000000;0.240195
9339.000000;0.241604
9338.000000;0.242617
9337.000000;0.243397
9336.000000;0.244256
9335.000000;0.245399
9334.000000;0.246781
9333.000000;0.248193
9332.000000;0.249476
9331.000000;0.250639
9330.000000;0.251767
9329.000000;0.252893
9328.000000;0.254003
9327.000000;0.255090
9326.000000;0.256140
9325.000000;0.257130
9324.000000;0.258079
9323.000000;0.259047
9322.000000;0.260034
9321.000000;0.260974
9320.000000;0.261885
9319.000000;0.262942
9318.000000;0.264251
9317.000000;0.265638
9316.000000;0.266820
9315.000000;0.267758
9314.000000;0.268691
9313.000000;0.269828
9312.000000;0.271149
9311.000000;0.272530
9310.000000;0.273879
9309.000000;0.275136
9308.000000;0.276277
9307.000000;0.277384
9306.000000;0.278584
9305.000000;0.279859
9304.000000;0.281039
9303.000000;0.282049
9302.000000;0.283041
9301.000000;0.284179
9300.000000;0.285410
9299.000000;0.286592
9298.000000;0.287744
9297.000000;0.288986
9296.000000;0.290249
9295.000000;0.291239
9294.000000;0.291783
9293.000000;0.292098
9292.000000;0.292621
9291.000000;0.293610
9290.000000;0.294970
9289.000000;0.296427
9288.000000;0.297766
9287.000000;0.298919
9286.000000;0.299917
9285.000000;0.300845
9284.000000;0.301819
9283.000000;0.302913
9282.000000;0.304093
9281.000000;0.305251
9280.000000;0.306316
9279.000000;0.307304
9278.000000;0.308271
9277.000000;0.309271
9276.000000;0.310344
9275.000000;0.311510
9274.000000;0.312751
9273.000000;0.314015
9272.000000;0.315259
9271.000000;0.316449
9270.000000;0.317532
9269.000000;0.318478
9268.000000;0.319349
9267.000000;0.320267
9266.000000;0.321268
9265.000000;0.322246
9264.000000;0.323092
9263.000000;0.323840
9262.000000;0.324642
9261.000000;0.325596
9260.000000;0.326636
9259.000000;0.327592
9258.000000;0.328360
9257.000000;0.329032
9256.000000;0.329826
9255.000000;0.330845
9254.000000;0.331935
9253.000000;0.332859
9252.000000;0.333603
9251.000000;0.334412
9250.000000;0.335477
9249.000000;0.336705
9248.000000;0.337833
9247.000000;0.338667
9246.000000;0.339166
9245.000000;0.339427
9244.000000;0.339699
9243.000000;0.340306
9242.000000;0.341386
9241.000000;0.342699
9240.000000;0.343830
9239.000000;0.344603
9238.000000;0.345222
9237.000000;0.346019
9236.000000;0.347126
9235.000000;0.348403
9234.000000;0.349589
9233.000000;0.350512
9232.000000;0.351216
9231.000000;0.351909
9230.000000;0.352758
9229.000000;0.353739
9228.000000;0.354709
9227.000000;0.355576
9226.000000;0.356321
9225.000000;0.356920
9224.000000;0.357357
9223.000000;0.357710
9222.000000;0.358141
9221.000000;0.358752
9220.000000;0.359514
9219.000000;0.360368
9218.000000;0.361309
9217.000000;0.362348
9216.000000;0.363437
9215.000000;0.364496
9214.000000;0.365477
9213.000000;0.366364
9212.000000;0.367132
9211.000000;0.367747
9210.000000;0.368202
9209.000000;0.368551
9208.000000;0.368891
9207.000000;0.369304
9206.000000;0.369821
9205.000000;0.370422
9204.000000;0.371083
9203.000000;0.371811
9202.000000;0.372633
9201.000000;0.373559
9200.000000;0.374557
9199.000000;0.375545
9198.000000;0.376418
9197.000000;0.377128
9196.000000;0.377753
9195.000000;0.378417
9194.000000;0.379140
9193.000000;0.379805
9192.000000;0.380340
9191.000000;0.380853
9190.000000;0.381514
9189.000000;0.382320
9188.000000;0.383081
9187.000000;0.383649
9186.000000;0.384073
9185.000000;0.384533
9184.000000;0.385175
9183.000000;0.386032
9182.000000;0.387040
9181.000000;0.388069
9180.000000;0.388983
9179.000000;0.389712
9178.000000;0.390277
9177.000000;0.390732
9176.000000;0.391109
9175.000000;0.391427
9174.000000;0.391712
9173.000000;0.391987
9172.000000;0.392270
9171.000000;0.392622
9170.000000;0.393147
9169.000000;0.393904
9168.000000;0.394821
9167.000000;0.395742
9166.000000;0.396562
9165.000000;0.397295
9164.000000;0.398003
9163.000000;0.398704
9162.000000;0.399364
9161.000000;0.399941
9160.000000;0.400422
9159.000000;0.400832
9158.000000;0.401231
9157.000000;0.401689
9156.000000;0.402231
9155.000000;0.402848
9154.000000;0.403533
9153.000000;0.404289
9152.000000;0.405070
9151.000000;0.405752
9150.000000;0.406230
9149.000000;0.406516
9148.000000;0.406713
9147.000000;0.406918
9146.000000;0.407171
9145.000000;0.407486
9144.000000;0.407846
9143.000000;0.408231
9142.000000;0.408689
9141.000000;0.409350
9140.000000;0.410265
9139.000000;0.411261
9138.000000;0.412069
9137.000000;0.412599
9136.000000;0.412990
9135.000000;0.413380
9134.000000;0.413770
9133.000000;0.414126
9132.000000;0.414486
9131.000000;0.414898
9130.000000;0.415361
9129.000000;0.415891
9128.000000;0.416530
9127.000000;0.417198
9126.000000;0.417693
9125.000000;0.417946
9124.000000;0.418166
9123.000000;0.418575
9122.000000;0.419111
9121.000000;0.419541
9120.000000;0.419818
9119.000000;0.420115
9118.000000;0.420563
9117.000000;0.421130
9116.000000;0.421760
9115.000000;0.422444
9114.000000;0.423121
9113.000000;0.423648
9112.000000;0.423950
9111.000000;0.424107
9110.000000;0.424231
9109.000000;0.424341
9108.000000;0.424400
9107.000000;0.424430
9106.000000;0.424548
9105.000000;0.424921
9104.000000;0.425643
9103.000000;0.426597
9102.000000;0.427474
9101.000000;0.428045
9100.000000;0.428393
9099.000000;0.428802
9098.000000;0.429404
9097.000000;0.430061
9096.000000;0.430544
9095.000000;0.430744
9094.000000;0.430712
9093.000000;0.430628
9092.000000;0.430721
9091.000000;0.431084
9090.000000;0.431561
9089.000000;0.431939
9088.000000;0.432224
9087.000000;0.432586
9086.000000;0.433062
9085.000000;0.433492
9084.000000;0.433790
9083.000000;0.434079
9082.000000;0.434466
9081.000000;0.434882
9080.000000;0.435251
9079.000000;0.435669
9078.000000;0.436271
9077.000000;0.437011
9076.000000;0.437694
9075.000000;0.438165
9074.000000;0.438364
9073.000000;0.438293
9072.000000;0.438031
9071.000000;0.437773
9070.000000;0.437714
9069.000000;0.437920
9068.000000;0.438330
9067.000000;0.438836
9066.000000;0.439302
9065.000000;0.439595
9064.000000;0.439691
9063.000000;0.439728
9062.000000;0.439877
9061.000000;0.440184
9060.000000;0.440569
9059.000000;0.440932
9058.000000;0.441225
9057.000000;0.441462
9056.000000;0.441710
9055.000000;0.442030
9054.000000;0.442414
9053.000000;0.442815
9052.000000;0.443224
9051.000000;0.443651
9050.000000;0.444012
9049.000000;0.444179
9048.000000;0.444181
9047.000000;0.444223
9046.000000;0.444440
9045.000000;0.444735
9044.000000;0.444951
9043.000000;0.445097
9042.000000;0.445277
9041.000000;0.445492
9040.000000;0.445674
9039.000000;0.445842
9038.000000;0.446106
9037.000000;0.446504
9036.000000;0.446946
9035.000000;0.447319
9034.000000;0.447553
9033.000000;0.447604
9032.000000;0.447473
9031.000000;0.447260
9030.000000;0.447141
9029.000000;0.447262
9028.000000;0.447657
9027.000000;0.448229
9026.000000;0.448771
9025.000000;0.449103
9024.000000;0.449263
9023.000000;0.449488
9022.000000;0.449927
9021.000000;0.450408
9020.000000;0.450624
9019.000000;0.450514
9018.000000;0.450323
9017.000000;0.450281
9016.000000;0.450360
9015.000000;0.450422
9014.000000;0.450479
9013.000000;0.450677
9012.000000;0.451088
9011.000000;0.451611
9010.000000;0.452094
9009.000000;0.452468
9008.000000;0.452724
9007.000000;0.452833
9006.000000;0.452755
9005.000000;0.452524
9004.000000;0.452262
9003.000000;0.452091
9002.000000;0.452086
9001.000000;0.452298
9000.000000;0.452761
8999.000000;0.453388
8998.000000;0.453927
8997.000000;0.454119
8996.000000;0.453933
8995.000000;0.453564
8994.000000;0.453214
8993.000000;0.452946
8992.000000;0.452777
8991.000000;0.452776
8990.000000;0.453021
8989.000000;0.453471
8988.000000;0.453965
8987.000000;0.454316
8986.000000;0.454412
8985.000000;0.454266
8984.000000;0.454028
8983.000000;0.453926
8982.000000;0.454113
8981.000000;0.454551
8980.000000;0.455030
8979.000000;0.455311
8978.000000;0.455296
8977.000000;0.455099
8976.000000;0.454942
8975.000000;0.454944
8974.000000;0.455035
8973.000000;0.455112
8972.000000;0.455220
8971.000000;0.455498
8970.000000;0.455983
8969.000000;0.456565
8968.000000;0.457104
8967.000000;0.457501
8966.000000;0.457664
8965.000000;0.457570
8964.000000;0.457371
8963.000000;0.457274
8962.000000;0.457280
8961.000000;0.457181
8960.000000;0.456871
8959.000000;0.456544
8958.000000;0.456472
8957.000000;0.456706
8956.000000;0.457083
8955.000000;0.457427
8954.000000;0.457651
8953.000000;0.457749
8952.000000;0.457808
8951.000000;0.457944
8950.000000;0.458144
8949.000000;0.458230
8948.000000;0.458092
8947.000000;0.457876
8946.000000;0.457809
8945.000000;0.457900
8944.000000;0.457954
8943.000000;0.457852
8942.000000;0.457667
8941.000000;0.457532
8940.000000;0.457505
8939.000000;0.457595
8938.000000;0.457787
8937.000000;0.458031
8936.000000;0.458256
8935.000000;0.458431
8934.000000;0.458529
8933.000000;0.458466
8932.000000;0.458180
8931.000000;0.457786
8930.000000;0.457555
8929.000000;0.457658
8928.000000;0.457995
8927.000000;0.458286
8926.000000;0.458331
8925.000000;0.458154
8924.000000;0.457946
8923.000000;0.457892
8922.000000;0.458039
8921.000000;0.458297
8920.000000;0.458547
8919.000000;0.458725
8918.000000;0.458825
8917.000000;0.458872
8916.000000;0.458924
8915.000000;0.459044
8914.000000;0.459231
8913.000000;0.459400
8912.000000;0.459454
8911.000000;0.459355
8910.000000;0.459128
8909.000000;0.458860
8908.000000;0.458703
8907.000000;0.458771
8906.000000;0.458974
8905.000000;0.459055
8904.000000;0.458875
8903.000000;0.458585
8902.000000;0.458422
8901.000000;0.458427
8900.000000;0.458472
8899.000000;0.458476
8898.000000;0.458442
8897.000000;0.458337
8896.000000;0.458110
8895.000000;0.457841
8894.000000;0.457698
8893.000000;0.457728
8892.000000;0.457826
8891.000000;0.457915
8890.000000;0.458017
8889.000000;0.458119
8888.000000;0.458122
8887.000000;0.458024
8886.000000;0.457978
8885.000000;0.458091
8884.000000;0.458237
8883.000000;0.458208
8882.000000;0.457968
8881.000000;0.457653
8880.000000;0.457382
8879.000000;0.457188
8878.000000;0.457095
8877.000000;0.457143
8876.000000;0.457330
8875.000000;0.457600
8874.000000;0.457879
8873.000000;0.458073
8872.000000;0.458057
8871.000000;0.457778
8870.000000;0.457372
8869.000000;0.457099
8868.000000;0.457101
8867.000000;0.457262
8866.000000;0.457330
8865.000000;0.457183
8864.000000;0.456939
8863.000000;0.456828
8862.000000;0.456949
8861.000000;0.457166
8860.000000;0.457243
8859.000000;0.457074
8858.000000;0.456763
8857.000000;0.456483
8856.000000;0.456337
8855.000000;0.456358
8854.000000;0.456548
8853.000000;0.456819
8852.000000;0.456977
8851.000000;0.456872
8850.000000;0.456583
8849.000000;0.456365
8848.000000;0.456382
8847.000000;0.456547
8846.000000;0.456653
8845.000000;0.456586
8844.000000;0.456389
8843.000000;0.456176
8842.000000;0.456041
8841.000000;0.456029
8840.000000;0.456118
8839.000000;0.456239
8838.000000;0.456320
8837.000000;0.456325
8836.000000;0.456251
8835.000000;0.456118
8834.000000;0.455985
8833.000000;0.455934
8832.000000;0.456009
8831.000000;0.456154
8830.000000;0.456245
8829.000000;0.456173
8828.000000;0.455919
8827.000000;0.455575
8826.000000;0.455306
8825.000000;0.455241
8824.000000;0.455372
8823.000000;0.455564
8822.000000;0.455670
8821.000000;0.455648
8820.000000;0.455561
8819.000000;0.455514
8818.000000;0.455615
8817.000000;0.455915
8816.000000;0.456351
8815.000000;0.456758
8814.000000;0.457010
8813.000000;0.457120
8812.000000;0.457162
8811.000000;0.457131
8810.000000;0.456954
8809.000000;0.456633
8808.000000;0.456281
8807.000000;0.456016
8806.000000;0.455878
8805.000000;0.455878
8804.000000;0.456021
8803.000000;0.456256
8802.000000;0.456442
8801.000000;0.456427
8800.000000;0.456160
8799.000000;0.455708
8798.000000;0.455201
8797.000000;0.454794
8796.000000;0.454612
8795.000000;0.454669
8794.000000;0.454841
8793.000000;0.454963
8792.000000;0.454957
8791.000000;0.454877
8790.000000;0.454834
8789.000000;0.454906
8788.000000;0.455093
8787.000000;0.455330
8786.000000;0.455550
8785.000000;0.455729
8784.000000;0.455853
8783.000000;0.455873
8782.000000;0.455733
8781.000000;0.455471
8780.000000;0.455211
8779.000000;0.455052
8778.000000;0.454992
8777.000000;0.454992
8776.000000;0.455063
8775.000000;0.455231
8774.000000;0.455475
8773.000000;0.455736
8772.000000;0.455952
8771.000000;0.456055
8770.000000;0.455967
8769.000000;0.455676
8768.000000;0.455307
8767.000000;0.455073
8766.000000;0.455120
8765.000000;0.455415
8764.000000;0.455782
8763.000000;0.456035
8762.000000;0.456102
8761.000000;0.456065
8760.000000;0.456059
8759.000000;0.456147
8758.000000;0.456285
8757.000000;0.456387
8756.000000;0.456385
8755.000000;0.456245
8754.000000;0.455988
8753.000000;0.455702
8752.000000;0.455482
8751.000000;0.455337
8750.000000;0.455230
8749.000000;0.455191
8748.000000;0.455321
8747.000000;0.455653
8746.000000;0.456089
8745.000000;0.456510
8744.000000;0.456866
8743.000000;0.457128
8742.000000;0.457244
8741.000000;0.457222
8740.000000;0.457162
8739.000000;0.457121
8738.000000;0.457028
8737.000000;0.456805
8736.000000;0.456504
8735.000000;0.456225
8734.000000;0.455989
8733.000000;0.455800
8732.000000;0.455746
8731.000000;0.455895
8730.000000;0.456122
8729.000000;0.456207
8728.000000;0.456088
8727.000000;0.455899
8726.000000;0.455751
8725.000000;0.455648
8724.000000;0.455608
8723.000000;0.455719
8722.000000;0.455979
8721.000000;0.456224
8720.000000;0.456300
8719.000000;0.456225
8718.000000;0.456107
8717.000000;0.455996
8716.000000;0.455890
8715.000000;0.455808
8714.000000;0.455733
8713.000000;0.455546
8712.000000;0.455151
8711.000000;0.454657
8710.000000;0.454348
8709.000000;0.454395
8708.000000;0.454686
8707.000000;0.454956
8706.000000;0.455065
8705.000000;0.455083
8704.000000;0.455131
8703.000000;0.455208
8702.000000;0.455219
8701.000000;0.455135
8700.000000;0.455035
8699.000000;0.454989
8698.000000;0.454939
8697.000000;0.454767
8696.000000;0.454446
8695.000000;0.454088
8694.000000;0.453857
8693.000000;0.453834
8692.000000;0.453950
8691.000000;0.454012
8690.000000;0.453860
8689.000000;0.453544
8688.000000;0.453309
8687.000000;0.453328
8686.000000;0.453490
8685.000000;0.453501
8684.000000;0.453205
8683.000000;0.452725
8682.000000;0.452306
8681.000000;0.452106
8680.000000;0.452123
8679.000000;0.452254
8678.000000;0.452376
8677.000000;0.452413
8676.000000;0.452355
8675.000000;0.452188
8674.000000;0.451861
8673.000000;0.451368
8672.000000;0.450858
8671.000000;0.450546
8670.000000;0.450493
8669.000000;0.450542
8668.000000;0.450492
8667.000000;0.450291
8666.000000;0.450015
8665.000000;0.449721
8664.000000;0.449400
8663.000000;0.449042
8662.000000;0.448702
8661.000000;0.448467
8660.000000;0.448375
8659.000000;0.448348
8658.000000;0.448252
8657.000000;0.448031
8656.000000;0.447766
8655.000000;0.447572
8654.000000;0.447456
8653.000000;0.447329
8652.000000;0.447143
8651.000000;0.446941
8650.000000;0.446763
8649.000000;0.446577
8648.000000;0.446326
8647.000000;0.445997
8646.000000;0.445610
8645.000000;0.445178
8644.000000;0.444712
8643.000000;0.444240
8642.000000;0.443792
8641.000000;0.443394
8640.000000;0.443106
8639.000000;0.443013
8638.000000;0.443138
8637.000000;0.443339
8636.000000;0.443362
8635.000000;0.443018
8634.000000;0.442333
8633.000000;0.441525
8632.000000;0.440838
8631.000000;0.440402
8630.000000;0.440214
8629.000000;0.440200
8628.000000;0.440246
8627.000000;0.440213
8626.000000;0.440001
8625.000000;0.439639
8624.000000;0.439247
8623.000000;0.438888
8622.000000;0.438524
8621.000000;0.438122
8620.000000;0.437748
8619.000000;0.437474
8618.000000;0.437268
8617.000000;0.437047
8616.000000;0.436799
8615.000000;0.436574
8614.000000;0.436368
8613.000000;0.436107
8612.000000;0.435750
8611.000000;0.435346
8610.000000;0.434977
8609.000000;0.434684
8608.000000;0.434445
8607.000000;0.434180
8606.000000;0.433799
8605.000000;0.433298
8604.000000;0.432781
8603.000000;0.432351
8602.000000;0.432002
8601.000000;0.431668
8600.000000;0.431343
8599.000000;0.431062
8598.000000;0.430781
8597.000000;0.430395
8596.000000;0.429875
8595.000000;0.429320
8594.000000;0.428847
8593.000000;0.428488
8592.000000;0.428216
8591.000000;0.428002
8590.000000;0.427815
8589.000000;0.427635
8588.000000;0.427482
8587.000000;0.427364
8586.000000;0.427191
8585.000000;0.426822
8584.000000;0.426225
8583.000000;0.425537
8582.000000;0.424941
8581.000000;0.424530
8580.000000;0.424317
8579.000000;0.424267
8578.000000;0.424266
8577.000000;0.424132
8576.000000;0.423751
8575.000000;0.423194
8574.000000;0.422639
8573.000000;0.422185
8572.000000;0.421796
8571.000000;0.421397
8570.000000;0.420988
8569.000000;0.420632
8568.000000;0.420359
8567.000000;0.420103
8566.000000;0.419743
8565.000000;0.419217
8564.000000;0.418611
8563.000000;0.418102
8562.000000;0.417805
8561.000000;0.417681
8560.000000;0.417584
8559.000000;0.417387
8558.000000;0.417058
8557.000000;0.416644
8556.000000;0.416227
8555.000000;0.415873
8554.000000;0.415590
8553.000000;0.415308
8552.000000;0.414914
8551.000000;0.414354
8550.000000;0.413728
8549.000000;0.413234
8548.000000;0.412956
8547.000000;0.412754
8546.000000;0.412405
8545.000000;0.411861
8544.000000;0.411278
8543.000000;0.410792
8542.000000;0.410390
8541.000000;0.410028
8540.000000;0.409730
8539.000000;0.409502
8538.000000;0.409247
8537.000000;0.408896
8536.000000;0.408553
8535.000000;0.408345
8534.000000;0.408207
8533.000000;0.407942
8532.000000;0.407497
8531.000000;0.407015
8530.000000;0.406616
8529.000000;0.406276
8528.000000;0.405960
8527.000000;0.405722
8526.000000;0.405568
8525.000000;0.405345
8524.000000;0.404872
8523.000000;0.404175
8522.000000;0.403475
8521.000000;0.402971
8520.000000;0.402665
8519.000000;0.402397
8518.000000;0.402019
8517.000000;0.401538
8516.000000;0.401087
8515.000000;0.400771
8514.000000;0.400564
8513.000000;0.400386
8512.000000;0.400210
8511.000000;0.400040
8510.000000;0.399823
8509.000000;0.399503
8508.000000;0.399126
8507.000000;0.398800
8506.000000;0.398542
8505.000000;0.398272
8504.000000;0.397962
8503.000000;0.397675
8502.000000;0.397430
8501.000000;0.397148
8500.000000;0.396798
8499.000000;0.396468
8498.000000;0.396213
8497.000000;0.395927
8496.000000;0.395456
8495.000000;0.394798
8494.000000;0.394106
8493.000000;0.393539
8492.000000;0.393168
8491.000000;0.392973
8490.000000;0.392854
8489.000000;0.392655
8488.000000;0.392298
8487.000000;0.391869
8486.000000;0.391522
8485.000000;0.391297
8484.000000;0.391090
8483.000000;0.390793
8482.000000;0.390403
8481.000000;0.389999
8480.000000;0.389656
8479.000000;0.389400
8478.000000;0.389199
8477.000000;0.388979
8476.000000;0.388693
8475.000000;0.388355
8474.000000;0.387997
8473.000000;0.387629
8472.000000;0.387260
8471.000000;0.386947
8470.000000;0.386725
8469.000000;0.386498
8468.000000;0.386085
8467.000000;0.385429
8466.000000;0.384694
8465.000000;0.384108
8464.000000;0.383723
8463.000000;0.383400
8462.000000;0.383030
8461.000000;0.382680
8460.000000;0.382489
8459.000000;0.382471
8458.000000;0.382483
8457.000000;0.382383
8456.000000;0.382145
8455.000000;0.381836
8454.000000;0.381521
8453.000000;0.381240
8452.000000;0.381001
8451.000000;0.380762
8450.000000;0.380454
8449.000000;0.380052
8448.000000;0.379604
8447.000000;0.379135
8446.000000;0.378598
8445.000000;0.377967
8444.000000;0.377352
8443.000000;0.376918
8442.000000;0.376684
8441.000000;0.376487
8440.000000;0.376158
8439.000000;0.375698
8438.000000;0.375253
8437.000000;0.374955
8436.000000;0.374810
8435.000000;0.374699
8434.000000;0.374492
8433.000000;0.374185
8432.000000;0.373905
8431.000000;0.373741
8430.000000;0.373597
8429.000000;0.373287
8428.000000;0.372768
8427.000000;0.372199
8426.000000;0.371739
8425.000000;0.371389
8424.000000;0.371073
8423.000000;0.370764
8422.000000;0.370468
8421.000000;0.370151
8420.000000;0.369782
8419.000000;0.369412
8418.000000;0.369124
8417.000000;0.368921
8416.000000;0.368752
8415.000000;0.368603
8414.000000;0.368495
8413.000000;0.368380
8412.000000;0.368151
8411.000000;0.367802
8410.000000;0.367480
8409.000000;0.367309
8408.000000;0.367228
8407.000000;0.367060
8406.000000;0.366725
8405.000000;0.366317
8404.000000;0.365953
8403.000000;0.365642
8402.000000;0.365317
8401.000000;0.364927
8400.000000;0.364472
8399.000000;0.363976
8398.000000;0.363509
8397.000000;0.363194
8396.000000;0.363109
8395.000000;0.363171
8394.000000;0.363166
8393.000000;0.362945
8392.000000;0.362569
8391.000000;0.362215
8390.000000;0.361981
8389.000000;0.361804
8388.000000;0.361533
8387.000000;0.361074
8386.000000;0.360480
8385.000000;0.359936
8384.000000;0.359624
8383.000000;0.359574
8382.000000;0.359632
8381.000000;0.359605
8380.000000;0.359390
8379.000000;0.358988
8378.000000;0.358444
8377.000000;0.357848
8376.000000;0.357344
8375.000000;0.357040
8374.000000;0.356898
8373.000000;0.356780
8372.000000;0.356578
8371.000000;0.356273
8370.000000;0.355886
8369.000000;0.355439
8368.000000;0.354992
8367.000000;0.354634
8366.000000;0.354397
8365.000000;0.354217
8364.000000;0.354000
8363.000000;0.353723
8362.000000;0.353433
8361.000000;0.353184
8360.000000;0.352963
8359.000000;0.352695
8358.000000;0.352326
8357.000000;0.351911
8356.000000;0.351598
8355.000000;0.351460
8354.000000;0.351381
8353.000000;0.351172
8352.000000;0.350788
8351.000000;0.350369
8350.000000;0.350065
8349.000000;0.349881
8348.000000;0.349720
8347.000000;0.349503
8346.000000;0.349203
8345.000000;0.348839
8344.000000;0.348468
8343.000000;0.348157
8342.000000;0.347921
8341.000000;0.347712
8340.000000;0.347480
8339.000000;0.347221
8338.000000;0.346955
8337.000000;0.346696
8336.000000;0.346469
8335.000000;0.346286
8334.000000;0.346085
8333.000000;0.345761
8332.000000;0.345317
8331.000000;0.344931
8330.000000;0.344777
8329.000000;0.344817
8328.000000;0.344822
8327.000000;0.344615
8326.000000;0.344210
8325.000000;0.343739
8324.000000;0.343308
8323.000000;0.342965
8322.000000;0.342719
8321.000000;0.342534
8320.000000;0.342331
8319.000000;0.342047
8318.000000;0.341698
8317.000000;0.341358
8316.000000;0.341076
8315.000000;0.340820
8314.000000;0.340528
8313.000000;0.340180
8312.000000;0.339826
8311.000000;0.339551
8310.000000;0.339399
8309.000000;0.339332
8308.000000;0.339248
8307.000000;0.339056
8306.000000;0.338751
8305.000000;0.338419
8304.000000;0.338156
8303.000000;0.337993
8302.000000;0.337890
8301.000000;0.337806
8300.000000;0.337732
8299.000000;0.337664
8298.000000;0.337567
8297.000000;0.337380
8296.000000;0.337063
8295.000000;0.336624
8294.000000;0.336121
8293.000000;0.335639
8292.000000;0.335255
8291.000000;0.334996
8290.000000;0.334819
8289.000000;0.334644
8288.000000;0.334403
8287.000000;0.334074
8286.000000;0.333690
8285.000000;0.333314
8284.000000;0.333006
8283.000000;0.332799
8282.000000;0.332692
8281.000000;0.332659
8280.000000;0.332644
8279.000000;0.332559
8278.000000;0.332348
8277.000000;0.332050
8276.000000;0.331771
8275.000000;0.331570
8274.000000;0.331395
8273.000000;0.331175
8272.000000;0.330930
8271.000000;0.330735
8270.000000;0.330599
8269.000000;0.330417
8268.000000;0.330072
8267.000000;0.329560
8266.000000;0.329028
8265.000000;0.328666
8264.000000;0.328552
8263.000000;0.328587
8262.000000;0.328599
8261.000000;0.328517
8260.000000;0.328414
8259.000000;0.328363
8258.000000;0.328327
8257.000000;0.328227
8256.000000;0.328065
8255.000000;0.327914
8254.000000;0.327801
8253.000000;0.327683
8252.000000;0.327532
8251.000000;0.327364
8250.000000;0.327181
8249.000000;0.326942
8248.000000;0.326623
8247.000000;0.326264
8246.000000;0.325931
8245.000000;0.325658
8244.000000;0.325439
8243.000000;0.325248
8242.000000;0.325053
8241.000000;0.324834
8240.000000;0.324618
8239.000000;0.324445
8238.000000;0.324307
8237.000000;0.324135
8236.000000;0.323890
8235.000000;0.323617
8234.000000;0.323410
8233.000000;0.323314
8232.000000;0.323288
8231.000000;0.323244
8230.000000;0.323109
8229.000000;0.322862
8228.000000;0.322542
8227.000000;0.322219
8226.000000;0.321956
8225.000000;0.321770
8224.000000;0.321636
8223.000000;0.321514
8222.000000;0.321383
8221.000000;0.321247
8220.000000;0.321121
8219.000000;0.321002
8218.000000;0.320871
8217.000000;0.320722
8216.000000;0.320563
8215.000000;0.320378
8214.000000;0.320123
8213.000000;0.319786
8212.000000;0.319434
8211.000000;0.319163
8210.000000;0.318992
8209.000000;0.318851
8208.000000;0.318667
8207.000000;0.318441
8206.000000;0.318234
8205.000000;0.318107
8204.000000;0.318088
8203.000000;0.318175
8202.000000;0.318332
8201.000000;0.318495
8200.000000;0.318588
8199.000000;0.318550
8198.000000;0.318366
8197.000000;0.318065
8196.000000;0.317697
8195.000000;0.317298
8194.000000;0.316891
8193.000000;0.316532
8192.000000;0.316312
8191.000000;0.316283
8190.000000;0.316388
8189.000000;0.316502
8188.000000;0.316544
8187.000000;0.316511
8186.000000;0.316421
8185.000000;0.316260
8184.000000;0.316029
8183.000000;0.315791
8182.000000;0.315637
8181.000000;0.315601
8180.000000;0.315625
8179.000000;0.315608
8178.000000;0.315484
8177.000000;0.315252
8176.000000;0.314943
8175.000000;0.314589
8174.000000;0.314238
8173.000000;0.313982
8172.000000;0.313918
8171.000000;0.314058
8170.000000;0.314287
8169.000000;0.314444
8168.000000;0.314448
8167.000000;0.314325
8166.000000;0.314145
8165.000000;0.313949
8164.000000;0.313749
8163.000000;0.313548
8162.000000;0.313357
8161.000000;0.313183
8160.000000;0.313019
8159.000000;0.312833
8158.000000;0.312591
8157.000000;0.312311
8156.000000;0.312067
8155.000000;0.311922
8154.000000;0.311862
8153.000000;0.311817
8152.000000;0.311733
8151.000000;0.311612
8150.000000;0.311481
8149.000000;0.311362
8148.000000;0.311256
8147.000000;0.311146
8146.000000;0.311005
8145.000000;0.310835
8144.000000;0.310686
8143.000000;0.310610
8142.000000;0.310596
8141.000000;0.310572
8140.000000;0.310490
8139.000000;0.310369
8138.000000;0.310256
8137.000000;0.310162
8136.000000;0.310046
8135.000000;0.309849
8134.000000;0.309541
8133.000000;0.309162
8132.000000;0.308829
8131.000000;0.308685
8130.000000;0.308800
8129.000000;0.309097
8128.000000;0.309384
8127.000000;0.309469
8126.000000;0.309299
8125.000000;0.308986
8124.000000;0.308713
8123.000000;0.308590
8122.000000;0.308573
8121.000000;0.308544
8120.000000;0.308441
8119.000000;0.308310
8118.000000;0.308226
8117.000000;0.308203
8116.000000;0.308189
8115.000000;0.308129
8114.000000;0.308011
8113.000000;0.307861
8112.000000;0.307702
8111.000000;0.307540
8110.000000;0.307389
8109.000000;0.307277
8108.000000;0.307242
8107.000000;0.307300
8106.000000;0.307437
8105.000000;0.307596
8104.000000;0.307697
8103.000000;0.307672
8102.000000;0.307509
8101.000000;0.307258
8100.000000;0.306983
8099.000000;0.306706
8098.000000;0.306436
8097.000000;0.306221
8096.000000;0.306143
8095.000000;0.306241
8094.000000;0.306463
8093.000000;0.306708
8092.000000;0.306889
8091.000000;0.306936
8090.000000;0.306790
8089.000000;0.306445
8088.000000;0.305994
8087.000000;0.305606
8086.000000;0.305405
8085.000000;0.305371
8084.000000;0.305361
8083.000000;0.305248
8082.000000;0.305049
8081.000000;0.304908
8080.000000;0.304933
8079.000000;0.305071
8078.000000;0.305169
8077.000000;0.305147
8076.000000;0.305067
8075.000000;0.305035
8074.000000;0.305063
8073.000000;0.305088
8072.000000;0.305065
8071.000000;0.305008
8070.000000;0.304949
8069.000000;0.304886
8068.000000;0.304787
8067.000000;0.304642
8066.000000;0.304489
8065.000000;0.304383
8064.000000;0.304328
8063.000000;0.304269
8062.000000;0.304167
8061.000000;0.304058
8060.000000;0.304015
8059.000000;0.304052
8058.000000;0.304134
8057.000000;0.304231
8056.000000;0.304325
8055.000000;0.304352
8054.000000;0.304238
8053.000000;0.304005
8052.000000;0.303778
8051.000000;0.303636
8050.000000;0.303523
8049.000000;0.303363
8048.000000;0.303197
8047.000000;0.303134
8046.000000;0.303204
8045.000000;0.303326
8044.000000;0.303414
8043.000000;0.303437
8042.000000;0.303395
8041.000000;0.303301
8040.000000;0.303192
8039.000000;0.303114
8038.000000;0.303059
8037.000000;0.302971
8036.000000;0.302824
8035.000000;0.302669
8034.000000;0.302575
8033.000000;0.302563
8032.000000;0.302593
8031.000000;0.302610
8030.000000;0.302593
8029.000000;0.302569
8028.000000;0.302584
8027.000000;0.302648
8026.000000;0.302721
8025.000000;0.302754
8024.000000;0.302728
8023.000000;0.302650
8022.000000;0.302541
8021.000000;0.302445
8020.000000;0.302418
8019.000000;0.302476
8018.000000;0.302556
8017.000000;0.302565
8016.000000;0.302464
8015.000000;0.302287
8014.000000;0.302096
8013.000000;0.301942
8012.000000;0.301855
8011.000000;0.301842
8010.000000;0.301871
8009.000000;0.301888
8008.000000;0.301850
8007.000000;0.301740
8006.000000;0.301563
8005.000000;0.301352
8004.000000;0.301169
8003.000000;0.301078
8002.000000;0.301098
8001.000000;0.301200
8000.000000;0.301317
7999.000000;0.301384
7998.000000;0.301381
7997.000000;0.301358
7996.000000;0.301383
7995.000000;0.301443
7994.000000;0.301436
7993.000000;0.301292
7992.000000;0.301072
7991.000000;0.300908
7990.000000;0.300850
7989.000000;0.300847
7988.000000;0.300854
7987.000000;0.300895
7986.000000;0.300995
7985.000000;0.301098
7984.000000;0.301105
7983.000000;0.300988
7982.000000;0.300815
7981.000000;0.300678
7980.000000;0.300600
7979.000000;0.300538
7978.000000;0.300439
7977.000000;0.300300
7976.000000;0.300168
7975.000000;0.300093
7974.000000;0.300098
7973.000000;0.300169
7972.000000;0.300267
7971.000000;0.300353
7970.000000;0.300422
7969.000000;0.300498
7968.000000;0.300593
7967.000000;0.300675
7966.000000;0.300691
7965.000000;0.300626
7964.000000;0.300503
7963.000000;0.300364
7962.000000;0.300249
7961.000000;0.300195
7960.000000;0.300206
7959.000000;0.300236
7958.000000;0.300251
7957.000000;0.300282
7956.000000;0.300367
7955.000000;0.300462
7954.000000;0.300472
7953.000000;0.300374
7952.000000;0.300251
7951.000000;0.300177
7950.000000;0.300158
7949.000000;0.300177
7948.000000;0.300238
7947.000000;0.300300
7946.000000;0.300276
7945.000000;0.300154
7944.000000;0.300054
7943.000000;0.300091
7942.000000;0.300225
7941.000000;0.300322
7940.000000;0.300324
7939.000000;0.300281
7938.000000;0.300251
7937.000000;0.300247
7936.000000;0.300266
7935.000000;0.300300
7934.000000;0.300325
7933.000000;0.300324
7932.000000;0.300326
7931.000000;0.300365
7930.000000;0.300407
7929.000000;0.300372
7928.000000;0.300228
7927.000000;0.300030
7926.000000;0.299876
7925.000000;0.299845
7924.000000;0.299955
7923.000000;0.300133
7922.000000;0.300238
7921.000000;0.300183
7920.000000;0.300030
7919.000000;0.299917
7918.000000;0.299899
7917.000000;0.299925
7916.000000;0.299952
7915.000000;0.300001
7914.000000;0.300095
7913.000000;0.300181
7912.000000;0.300182
7911.000000;0.300080
7910.000000;0.299925
7909.000000;0.299786
7908.000000;0.299708
7907.000000;0.299692
7906.000000;0.299719
7905.000000;0.299787
7904.000000;0.299906
7903.000000;0.300058
7902.000000;0.300173
7901.000000;0.300197
7900.000000;0.300157
7899.000000;0.300123
7898.000000;0.300122
7897.000000;0.300130
7896.000000;0.300136
7895.000000;0.300152
7894.000000;0.300163
7893.000000;0.300112
7892.000000;0.299986
7891.000000;0.299857
7890.000000;0.299829
7889.000000;0.299939
7888.000000;0.300114
7887.000000;0.300229
7886.000000;0.300216
7885.000000;0.300140
7884.000000;0.300133
7883.000000;0.300235
7882.000000;0.300337
7881.000000;0.300317
7880.000000;0.300187
7879.000000;0.300058
7878.000000;0.299992
7877.000000;0.299969
7876.000000;0.299978
7875.000000;0.300055
7874.000000;0.300188
7873.000000;0.300277
7872.000000;0.300231
7871.000000;0.300071
7870.000000;0.299907
7869.000000;0.299833
7868.000000;0.299870
7867.000000;0.299982
7866.000000;0.300115
7865.000000;0.300233
7864.000000;0.300345
7863.000000;0.300474
7862.000000;0.300612
7861.000000;0.300706
7860.000000;0.300710
7859.000000;0.300632
7858.000000;0.300524
7857.000000;0.300455
7856.000000;0.300477
7855.000000;0.300591
7854.000000;0.300737
7853.000000;0.300844
7852.000000;0.300887
7851.000000;0.300889
7850.000000;0.300864
7849.000000;0.300800
7848.000000;0.300695
7847.000000;0.300584
7846.000000;0.300514
7845.000000;0.300519
7844.000000;0.300605
7843.000000;0.300749
7842.000000;0.300908
7841.000000;0.301046
7840.000000;0.301161
7839.000000;0.301266
7838.000000;0.301363
7837.000000;0.301443
7836.000000;0.301505
7835.000000;0.301552
7834.000000;0.301579
7833.000000;0.301585
7832.000000;0.301573
7831.000000;0.301538
7830.000000;0.301465
7829.000000;0.301381
7828.000000;0.301360
7827.000000;0.301428
7826.000000;0.301503
7825.000000;0.301483
7824.000000;0.301386
7823.000000;0.301332
7822.000000;0.301402
7821.000000;0.301561
7820.000000;0.301726
7819.000000;0.301843
7818.000000;0.301885
7817.000000;0.301835
7816.000000;0.301730
7815.000000;0.301659
7814.000000;0.301690
7813.000000;0.301812
7812.000000;0.301956
7811.000000;0.302062
7810.000000;0.302112
7809.000000;0.302126
7808.000000;0.302140
7807.000000;0.302172
7806.000000;0.302207
7805.000000;0.302241
7804.000000;0.302307
7803.000000;0.302430
7802.000000;0.302547
7801.000000;0.302562
7800.000000;0.302475
7799.000000;0.302411
7798.000000;0.302477
7797.000000;0.302650
7796.000000;0.302820
7795.000000;0.302911
7794.000000;0.302932
7793.000000;0.302937
7792.000000;0.302975
7791.000000;0.303063
7790.000000;0.303178
7789.000000;0.303275
7788.000000;0.303332
7787.000000;0.303371
7786.000000;0.303421
7785.000000;0.303480
7784.000000;0.303523
7783.000000;0.303528
7782.000000;0.303494
7781.000000;0.303451
7780.000000;0.303451
7779.000000;0.303528
7778.000000;0.303652
7777.000000;0.303751
7776.000000;0.303778
7775.000000;0.303749
7774.000000;0.303715
7773.000000;0.303728
7772.000000;0.303821
7771.000000;0.303981
7770.000000;0.304147
7769.000000;0.304267
7768.000000;0.304340
7767.000000;0.304403
7766.000000;0.304464
7765.000000;0.304525
7764.000000;0.304630
7763.000000;0.304827
7762.000000;0.305075
7761.000000;0.305253
7760.000000;0.305304
7759.000000;0.305299
7758.000000;0.305341
7757.000000;0.305442
7756.000000;0.305554
7755.000000;0.305655
7754.000000;0.305736
7753.000000;0.305761
7752.000000;0.305700
7751.000000;0.305609
7750.000000;0.305587
7749.000000;0.305668
7748.000000;0.305791
7747.000000;0.305898
7746.000000;0.306004
7745.000000;0.306160
7744.000000;0.306368
7743.000000;0.306567
7742.000000;0.306697
7741.000000;0.306765
7740.000000;0.306838
7739.000000;0.306974
7738.000000;0.307161
7737.000000;0.307326
7736.000000;0.307400
7735.000000;0.307374
7734.000000;0.307286
7733.000000;0.307195
7732.000000;0.307158
7731.000000;0.307220
7730.000000;0.307395
7729.000000;0.307651
7728.000000;0.307931
7727.000000;0.308191
7726.000000;0.308410
7725.000000;0.308584
7724.000000;0.308702
7723.000000;0.308749
7722.000000;0.308729
7721.000000;0.308687
7720.000000;0.308690
7719.000000;0.308782
7718.000000;0.308946
7717.000000;0.309146
7716.000000;0.309354
7715.000000;0.309528
7714.000000;0.309610
7713.000000;0.309589
7712.000000;0.309556
7711.000000;0.309618
7710.000000;0.309774
7709.000000;0.309932
7708.000000;0.310053
7707.000000;0.310191
7706.000000;0.310385
7705.000000;0.310570
7704.000000;0.310663
7703.000000;0.310680
7702.000000;0.310700
7701.000000;0.310759
7700.000000;0.310830
7699.000000;0.310904
7698.000000;0.311009
7697.000000;0.311151
7696.000000;0.311296
7695.000000;0.311419
7694.000000;0.311548
7693.000000;0.311714
7692.000000;0.311900
7691.000000;0.312059
7690.000000;0.312172
7689.000000;0.312265
7688.000000;0.312365
7687.000000;0.312471
7686.000000;0.312578
7685.000000;0.312714
7684.000000;0.312908
7683.000000;0.313138
7682.000000;0.313331
7681.000000;0.313448
7680.000000;0.313528
7679.000000;0.313624
7678.000000;0.313720
7677.000000;0.313769
7676.000000;0.313798
7675.000000;0.313902
7674.000000;0.314122
7673.000000;0.314390
7672.000000;0.314615
7671.000000;0.314781
7670.000000;0.314928
7669.000000;0.315085
7668.000000;0.315238
7667.000000;0.315365
7666.000000;0.315452
7665.000000;0.315510
7664.000000;0.315582
7663.000000;0.315728
7662.000000;0.315958
7661.000000;0.316218
7660.000000;0.316442
7659.000000;0.316618
7658.000000;0.316780
7657.000000;0.316959
7656.000000;0.317162
7655.000000;0.317380
7654.000000;0.317585
7653.000000;0.317747
7652.000000;0.317868
7651.000000;0.317981
7650.000000;0.318114
7649.000000;0.318268
7648.000000;0.318457
7647.000000;0.318710
7646.000000;0.319017
7645.000000;0.319299
7644.000000;0.319494
7643.000000;0.319632
7642.000000;0.319802
7641.000000;0.320038
7640.000000;0.320278
7639.000000;0.320449
7638.000000;0.320543
7637.000000;0.320612
7636.000000;0.320723
7635.000000;0.320913
7634.000000;0.321169
7633.000000;0.321438
7632.000000;0.321668
7631.000000;0.321844
7630.000000;0.321986
7629.000000;0.322115
7628.000000;0.322241
7627.000000;0.322366
7626.000000;0.322498
7625.000000;0.322652
7624.000000;0.322855
7623.000000;0.323122
7622.000000;0.323419
7621.000000;0.323678
7620.000000;0.323862
7619.000000;0.324008
7618.000000;0.324184
7617.000000;0.324418
7616.000000;0.324690
7615.000000;0.324977
7614.000000;0.325261
7613.000000;0.325521
7612.000000;0.325739
7611.000000;0.325923
7610.000000;0.326101
7609.000000;0.326302
7608.000000;0.326548
7607.000000;0.326863
7606.000000;0.327255
7605.000000;0.327675
7604.000000;0.328031
7603.000000;0.328253
7602.000000;0.328355
7601.000000;0.328420
7600.000000;0.328530
7599.000000;0.328711
7598.000000;0.328929
7597.000000;0.329153
7596.000000;0.329389
7595.000000;0.329649
7594.000000;0.329913
7593.000000;0.330154
7592.000000;0.330411
7591.000000;0.330756
7590.000000;0.331192
7589.000000;0.331615
7588.000000;0.331926
7587.000000;0.332123
7586.000000;0.332269
7585.000000;0.332398
7584.000000;0.332511
7583.000000;0.332639
7582.000000;0.332851
7581.000000;0.333178
7580.000000;0.333589
7579.000000;0.334019
7578.000000;0.334422
7577.000000;0.334783
7576.000000;0.335118
7575.000000;0.335455
7574.000000;0.335788
7573.000000;0.336067
7572.000000;0.336249
7571.000000;0.336374
7570.000000;0.336538
7569.000000;0.336803
7568.000000;0.337156
7567.000000;0.337544
7566.000000;0.337914
7565.000000;0.338230
7564.000000;0.338476
7563.000000;0.338685
7562.000000;0.338919
7561.000000;0.339216
7560.000000;0.339541
7559.000000;0.339823
7558.000000;0.340032
7557.000000;0.340219
7556.000000;0.340481
7555.000000;0.340856
7554.000000;0.341271
7553.000000;0.341614
7552.000000;0.341869
7551.000000;0.342139
7550.000000;0.342525
7549.000000;0.343005
7548.000000;0.343475
7547.000000;0.343879
7546.000000;0.344235
7545.000000;0.344569
7544.000000;0.344866
7543.000000;0.345110
7542.000000;0.345333
7541.000000;0.345578
7540.000000;0.345869
7539.000000;0.346202
7538.000000;0.346571
7537.000000;0.346974
7536.000000;0.347396
7535.000000;0.347813
7534.000000;0.348206
7533.000000;0.348575
7532.000000;0.348938
7531.000000;0.349309
7530.000000;0.349680
7529.000000;0.350042
7528.000000;0.350410
7527.000000;0.350805
7526.000000;0.351212
7525.000000;0.351592
7524.000000;0.351940
7523.000000;0.352289
7522.000000;0.352634
7521.000000;0.352915
7520.000000;0.353110
7519.000000;0.353308
7518.000000;0.353619
7517.000000;0.354048
7516.000000;0.354507
7515.000000;0.354933
7514.000000;0.355330
7513.000000;0.355720
7512.000000;0.356113
7511.000000;0.356513
7510.000000;0.356919
7509.000000;0.357309
7508.000000;0.357663
7507.000000;0.358005
7506.000000;0.358375
7505.000000;0.358775
7504.000000;0.359184
7503.000000;0.359607
7502.000000;0.360059
7501.000000;0.360510
7500.000000;0.360916
7499.000000;0.361249
7498.000000;0.361584
7497.000000;0.361946
7496.000000;0.362325
7495.000000;0.362747
7494.000000;0.363245
7493.000000;0.363789
7492.000000;0.364290
7491.000000;0.364702
7490.000000;0.365049
7489.000000;0.365369
7488.000000;0.365671
7487.000000;0.365984
7486.000000;0.366349
7485.000000;0.366756
7484.000000;0.367140
7483.000000;0.367479
7482.000000;0.367826
7481.000000;0.368220
7480.000000;0.368643
7479.000000;0.369077
7478.000000;0.369557
7477.000000;0.370101
7476.000000;0.370651
7475.000000;0.371135
7474.000000;0.371549
7473.000000;0.371936
7472.000000;0.372312
7471.000000;0.372671
7470.000000;0.373031
7469.000000;0.373420
7468.000000;0.373838
7467.000000;0.374263
7466.000000;0.374687
7465.000000;0.375110
7464.000000;0.375517
7463.000000;0.375900
7462.000000;0.376275
7461.000000;0.376665
7460.000000;0.377073
7459.000000;0.377492
7458.000000;0.377919
7457.000000;0.378341
7456.000000;0.378737
7455.000000;0.379105
7454.000000;0.379462
7453.000000;0.379808
7452.000000;0.380121
7451.000000;0.380407
7450.000000;0.380713
7449.000000;0.381078
7448.000000;0.381502
7447.000000;0.381967
7446.000000;0.382456
7445.000000;0.382944
7444.000000;0.383403
7443.000000;0.383837
7442.000000;0.384270
7441.000000;0.384701
7440.000000;0.385103
7439.000000;0.385477
7438.000000;0.385844
7437.000000;0.386198
7436.000000;0.386511
7435.000000;0.386814
7434.000000;0.387191
7433.000000;0.387660
7432.000000;0.388137
7431.000000;0.388557
7430.000000;0.388956
7429.000000;0.389394
7428.000000;0.389871
7427.000000;0.390362
7426.000000;0.390848
7425.000000;0.391279
7424.000000;0.391599
7423.000000;0.391863
7422.000000;0.392252
7421.000000;0.392867
7420.000000;0.393567
7419.000000;0.394114
7418.000000;0.394434
7417.000000;0.394665
7416.000000;0.394953
7415.000000;0.395297
7414.000000;0.395624
7413.000000;0.395922
7412.000000;0.396243
7411.000000;0.396596
7410.000000;0.396907
7409.000000;0.397116
7408.000000;0.397315
7407.000000;0.397694
7406.000000;0.398317
7405.000000;0.398998
7404.000000;0.399478
7403.000000;0.399688
7402.000000;0.399839
7401.000000;0.400221
7400.000000;0.400894
7399.000000;0.401644
7398.000000;0.402226
7397.000000;0.402605
7396.000000;0.402937
7395.000000;0.403299
7394.000000;0.403532
7393.000000;0.403470
7392.000000;0.403256
7391.000000;0.403262
7390.000000;0.403664
7389.000000;0.404264
7388.000000;0.404823
7387.000000;0.405373
7386.000000;0.405974
7385.000000;0.406459
7384.000000;0.406782
7383.000000;0.407392
7382.000000;0.408674
7381.000000;0.410063
7380.000000;0.410374
7379.000000;0.409333
7378.000000;0.408202
7377.000000;0.408434
7376.000000;0.410060
7375.000000;0.411764
7374.000000;0.412330
7373.000000;0.411708
7372.000000;0.410782
7371.000000;0.410512
7370.000000;0.411280
7369.000000;0.412678
7368.000000;0.413836
7367.000000;0.414211
7366.000000;0.413961
7365.000000;0.413552
7364.000000;0.413393
7363.000000;0.413863
7362.000000;0.415099
7361.000000;0.416477
7360.000000;0.416900
7359.000000;0.416082
7358.000000;0.415183
7357.000000;0.415593
7356.000000;0.417356
7355.000000;0.419227
7354.000000;0.420080
7353.000000;0.419801
7352.000000;0.419115
7351.000000;0.419017
7350.000000;0.420072
7349.000000;0.421774
7348.000000;0.422870
7347.000000;0.422766
7346.000000;0.422217
7345.000000;0.422095
7344.000000;0.422169
7343.000000;0.421926
7342.000000;0.421999
7341.000000;0.423410
7340.000000;0.425624
7339.000000;0.426809
7338.000000;0.426231
7337.000000;0.425165
7336.000000;0.425233
7335.000000;0.426730
7334.000000;0.428731
7333.000000;0.430032
7332.000000;0.429941
7331.000000;0.428958
7330.000000;0.428688
7329.000000;0.430213
7328.000000;0.432476
7327.000000;0.433251
7326.000000;0.432024
7325.000000;0.430752
7324.000000;0.431245
7323.000000;0.433007
7322.000000;0.434396
7321.000000;0.434934
7320.000000;0.435455
7319.000000;0.436634
7318.000000;0.438308
7317.000000;0.439868
7316.000000;0.440759
7315.000000;0.440899
7314.000000;0.441030
7313.000000;0.442132
7312.000000;0.443976
7311.000000;0.444951
7310.000000;0.444129
7309.000000;0.442827
7308.000000;0.443120
7307.000000;0.445172
7306.000000;0.447146
7305.000000;0.447635
7304.000000;0.447018
7303.000000;0.446521
7302.000000;0.447058
7301.000000;0.448938
7300.000000;0.451573
7299.000000;0.453388
7298.000000;0.453172
7297.000000;0.451830
7296.000000;0.451767
7295.000000;0.454102
7294.000000;0.457280
7293.000000;0.459059
7292.000000;0.459173
7291.000000;0.459230
7290.000000;0.460553
7289.000000;0.462967
7288.000000;0.465465
7287.000000;0.467243
7286.000000;0.468098
7285.000000;0.468423
7284.000000;0.468894
7283.000000;0.469901
7282.000000;0.471271
7281.000000;0.472605
7280.000000;0.473799
7279.000000;0.475036
7278.000000;0.476381
7277.000000;0.477748
7276.000000;0.479187
7275.000000;0.480884
7274.000000;0.482811
7273.000000;0.484632
7272.000000;0.486049
7271.000000;0.487162
7270.000000;0.488411
7269.000000;0.490156
7268.000000;0.492290
7267.000000;0.494274
7266.000000;0.495706
7265.000000;0.496848
7264.000000;0.498415
7263.000000;0.500690
7262.000000;0.503122
7261.000000;0.505011
7260.000000;0.506338
7259.000000;0.507634
7258.000000;0.509213
7257.000000;0.510981
7256.000000;0.512899
7255.000000;0.515189
7254.000000;0.517964
7253.000000;0.520812
7252.000000;0.523087
7251.000000;0.524751
7250.000000;0.526535
7249.000000;0.528993
7248.000000;0.531628
7247.000000;0.533395
7246.000000;0.534237
7245.000000;0.535587
7244.000000;0.538794
7243.000000;0.543285
7242.000000;0.546979
7241.000000;0.548756
7240.000000;0.549804
7239.000000;0.551964
7238.000000;0.555401
7237.000000;0.558675
7236.000000;0.560826
7235.000000;0.562704
7234.000000;0.565987
7233.000000;0.570966
7232.000000;0.575815
7231.000000;0.578477
7230.000000;0.578959
7229.000000;0.579356
7228.000000;0.581715
7227.000000;0.586186
7226.000000;0.591191
7225.000000;0.595065
7224.000000;0.597460
7223.000000;0.599385
7222.000000;0.602116
7221.000000;0.606094
7220.000000;0.610640
7219.000000;0.614653
7218.000000;0.617656
7217.000000;0.620226
7216.000000;0.623298
7215.000000;0.627150
7214.000000;0.631298
7213.000000;0.635280
7212.000000;0.639185
7211.000000;0.643321
7210.000000;0.647624
7209.000000;0.651752
7208.000000;0.655670
7207.000000;0.659808
7206.000000;0.664566
7205.000000;0.669773
7204.000000;0.674765
7203.000000;0.678982
7202.000000;0.682505
7201.000000;0.685998
7200.000000;0.690057
7199.000000;0.694661
7198.000000;0.699396
7197.000000;0.704116
7196.000000;0.709062
7195.000000;0.714305
7194.000000;0.719472
7193.000000;0.724269
7192.000000;0.728949
7191.000000;0.733915
7190.000000;0.739212
7189.000000;0.744720
7188.000000;0.750426
7187.000000;0.756079
7186.000000;0.761006
7185.000000;0.764937
7184.000000;0.768836
7183.000000;0.774096
7182.000000;0.780804
7181.000000;0.787477
7180.000000;0.792824
7179.000000;0.797189
7178.000000;0.801885
7177.000000;0.807724
7176.000000;0.814521
7175.000000;0.821546
7174.000000;0.828081
7173.000000;0.833850
7172.000000;0.839268
7171.000000;0.845043
7170.000000;0.851463
7169.000000;0.858288
7168.000000;0.865164
7167.000000;0.871722
7166.000000;0.877399
7165.000000;0.881855
7164.000000;0.885833
7163.000000;0.890896
7162.000000;0.897802
7161.000000;0.905522
7160.000000;0.912409
7159.000000;0.918097
7158.000000;0.923607
7157.000000;0.929837
7156.000000;0.936602
7155.000000;0.943191
7154.000000;0.949414
7153.000000;0.955795
7152.000000;0.962760
7151.000000;0.969949
7150.000000;0.976546
7149.000000;0.982215
7148.000000;0.987554
7147.000000;0.993549
7146.000000;1.000596
7145.000000;1.008077
7144.000000;1.014924
7143.000000;1.020635
7142.000000;1.025820
7141.000000;1.031608
7140.000000;1.038360
7139.000000;1.045221
7138.000000;1.051208
7137.000000;1.056536
7136.000000;1.062309
7135.000000;1.068957
7134.000000;1.075724
7133.000000;1.081905
7132.000000;1.087771
7131.000000;1.093919
7130.000000;1.100326
7129.000000;1.106640
7128.000000;1.112929
7127.000000;1.119490
7126.000000;1.126289
7125.000000;1.133140
7124.000000;1.140055
7123.000000;1.146814
7122.000000;1.152647
7121.000000;1.157182
7120.000000;1.161443
7119.000000;1.166908
7118.000000;1.173577
7117.000000;1.179913
7116.000000;1.184920
7115.000000;1.189346
7114.000000;1.194516
7113.000000;1.200796
7112.000000;1.207587
7111.000000;1.214172
7110.000000;1.220123
7109.000000;1.225407
7108.000000;1.230435
7107.000000;1.235653
7106.000000;1.240996
7105.000000;1.246041
7104.000000;1.250748
7103.000000;1.255657
7102.000000;1.261127
7101.000000;1.266797
7100.000000;1.272034
7099.000000;1.276631
7098.000000;1.280904
7097.000000;1.285299
7096.000000;1.289970
7095.000000;1.294584
7094.000000;1.298612
7093.000000;1.302026
7092.000000;1.305553
7091.000000;1.309893
7090.000000;1.314838
7089.000000;1.319624
7088.000000;1.324042
7087.000000;1.328628
7086.000000;1.333689
7085.000000;1.338716
7084.000000;1.343058
7083.000000;1.346780
7082.000000;1.350495
7081.000000;1.354573
7080.000000;1.358894
7079.000000;1.363240
7078.000000;1.367545
7077.000000;1.371718
7076.000000;1.375514
7075.000000;1.378756
7074.000000;1.381661
7073.000000;1.384730
7072.000000;1.388174
7071.000000;1.391586
7070.000000;1.394451
7069.000000;1.396993
7068.000000;1.400078
7067.000000;1.404099
7066.000000;1.408365
7065.000000;1.411890
7064.000000;1.414459
7063.000000;1.416578
7062.000000;1.418714
7061.000000;1.421023
7060.000000;1.423582
7059.000000;1.426388
7058.000000;1.429161
7057.000000;1.431589
7056.000000;1.433791
7055.000000;1.436182
7054.000000;1.438940
7053.000000;1.441889
7052.000000;1.444802
7051.000000;1.447481
7050.000000;1.449656
7049.000000;1.451242
7048.000000;1.452665
7047.000000;1.454573
7046.000000;1.457179
7045.000000;1.460145
7044.000000;1.463030
7043.000000;1.465590
7042.000000;1.467729
7041.000000;1.469466
7040.000000;1.470966
7039.000000;1.472387
7038.000000;1.473755
7037.000000;1.475144
7036.000000;1.476839
7035.000000;1.479042
7034.000000;1.481506
7033.000000;1.483733
7032.000000;1.485478
7031.000000;1.486875
7030.000000;1.488144
7029.000000;1.489411
7028.000000;1.490714
7027.000000;1.492025
7026.000000;1.493296
7025.000000;1.494519
7024.000000;1.495643
7023.000000;1.496495
7022.000000;1.497094
7021.000000;1.497985
7020.000000;1.499779
7019.000000;1.502250
7018.000000;1.504403
7017.000000;1.505637
7016.000000;1.506322
7015.000000;1.507000
7014.000000;1.507688
7013.000000;1.508372
7012.000000;1.509493
7011.000000;1.511304
7010.000000;1.513266
7009.000000;1.514707
7008.000000;1.515691
7007.000000;1.516639
7006.000000;1.517539
7005.000000;1.518252
7004.000000;1.519195
7003.000000;1.520854
7002.000000;1.522796
7001.000000;1.524000
7000.000000;1.524239
6999.000000;1.524380
6998.000000;1.525167
6997.000000;1.526288
6996.000000;1.526831
6995.000000;1.526329
6994.000000;1.525214
6993.000000;1.524444
6992.000000;1.524703
6991.000000;1.525813
6990.000000;1.526969
6989.000000;1.527634
6988.000000;1.527998
6987.000000;1.528429
6986.000000;1.528911
6985.000000;1.529330
6984.000000;1.529853
6983.000000;1.530578
6982.000000;1.531157
6981.000000;1.531230
6980.000000;1.530958
6979.000000;1.530669
6978.000000;1.530304
6977.000000;1.529686
6976.000000;1.529046
6975.000000;1.528791
6974.000000;1.528995
6973.000000;1.529553
6972.000000;1.530515
6971.000000;1.531757
6970.000000;1.532679
6969.000000;1.532871
6968.000000;1.532790
6967.000000;1.533113
6966.000000;1.533673
6965.000000;1.533742
6964.000000;1.533221
6963.000000;1.532809
6962.000000;1.532991
6961.000000;1.533514
6960.000000;1.533888
6959.000000;1.533857
6958.000000;1.533350
6957.000000;1.532501
6956.000000;1.531764
6955.000000;1.531540
6954.000000;1.531635
6953.000000;1.531516
6952.000000;1.531131
6951.000000;1.531014
6950.000000;1.531474
6949.000000;1.532092
6948.000000;1.532192
6947.000000;1.531522
6946.000000;1.530395
6945.000000;1.529394
6944.000000;1.529030
6943.000000;1.529412
6942.000000;1.530099
6941.000000;1.530413
6940.000000;1.529964
6939.000000;1.528862
6938.000000;1.527579
6937.000000;1.526686
6936.000000;1.526463
6935.000000;1.526557
6934.000000;1.526277
6933.000000;1.525455
6932.000000;1.524700
6931.000000;1.524532
6930.000000;1.524643
6929.000000;1.524421
6928.000000;1.523851
6927.000000;1.523348
6926.000000;1.523003
6925.000000;1.522587
6924.000000;1.522079
6923.000000;1.521547
6922.000000;1.520687
6921.000000;1.519190
6920.000000;1.517540
6919.000000;1.516731
6918.000000;1.517057
6917.000000;1.517704
6916.000000;1.517727
6915.000000;1.516951
6914.000000;1.515755
6913.000000;1.514480
6912.000000;1.513390
6911.000000;1.512859
6910.000000;1.513126
6909.000000;1.513907
6908.000000;1.514494
6907.000000;1.514294
6906.000000;1.513289
6905.000000;1.512086
6904.000000;1.511454
6903.000000;1.511612
6902.000000;1.511963
6901.000000;1.511675
6900.000000;1.510487
6899.000000;1.508798
6898.000000;1.507101
6897.000000;1.505649
6896.000000;1.504606
6895.000000;1.504116
6894.000000;1.504056
6893.000000;1.504001
6892.000000;1.503618
6891.000000;1.503029
6890.000000;1.502580
6889.000000;1.502311
6888.000000;1.501773
6887.000000;1.500474
6886.000000;1.498531
6885.000000;1.496728
6884.000000;1.495789
6883.000000;1.495661
6882.000000;1.495684
6881.000000;1.495377
6880.000000;1.494778
6879.000000;1.494106
6878.000000;1.493431
6877.000000;1.492746
6876.000000;1.491992
6875.000000;1.490945
6874.000000;1.489492
6873.000000;1.488104
6872.000000;1.487537
6871.000000;1.487800
6870.000000;1.487870
6869.000000;1.486827
6868.000000;1.484965
6867.000000;1.483315
6866.000000;1.482351
6865.000000;1.481651
6864.000000;1.480716
6863.000000;1.479644
6862.000000;1.478921
6861.000000;1.478805
6860.000000;1.479008
6859.000000;1.478899
6858.000000;1.478073
6857.000000;1.476779
6856.000000;1.475690
6855.000000;1.475161
6854.000000;1.474848
6853.000000;1.474114
6852.000000;1.472635
6851.000000;1.470570
6850.000000;1.468377
6849.000000;1.466574
6848.000000;1.465441
6847.000000;1.464786
6846.000000;1.464159
6845.000000;1.463339
6844.000000;1.462360
6843.000000;1.461117
6842.000000;1.459396
6841.000000;1.457376
6840.000000;1.455590
6839.000000;1.454195
6838.000000;1.452756
6837.000000;1.450985
6836.000000;1.449192
6835.000000;1.447652
6834.000000;1.446032
6833.000000;1.443928
6832.000000;1.441571
6831.000000;1.439465
6830.000000;1.437609
6829.000000;1.435636
6828.000000;1.433517
6827.000000;1.431593
6826.000000;1.429988
6825.000000;1.428445
6824.000000;1.426730
6823.000000;1.424830
6822.000000;1.422794
6821.000000;1.420688
6820.000000;1.418660
6819.000000;1.416792
6818.000000;1.414961
6817.000000;1.413058
6816.000000;1.411199
6815.000000;1.409447
6814.000000;1.407523
6813.000000;1.405116
6812.000000;1.402338
6811.000000;1.399567
6810.000000;1.396998
6809.000000;1.394658
6808.000000;1.392709
6807.000000;1.391331
6806.000000;1.390334
6805.000000;1.389170
6804.000000;1.387359
6803.000000;1.384732
6802.000000;1.381377
6801.000000;1.377612
6800.000000;1.373932
6799.000000;1.370695
6798.000000;1.367846
6797.000000;1.365108
6796.000000;1.362355
6795.000000;1.359646
6794.000000;1.357030
6793.000000;1.354511
6792.000000;1.352088
6791.000000;1.349638
6790.000000;1.346952
6789.000000;1.344055
6788.000000;1.341309
6787.000000;1.338958
6786.000000;1.336782
6785.000000;1.334432
6784.000000;1.331889
6783.000000;1.329307
6782.000000;1.326624
6781.000000;1.323715
6780.000000;1.320790
6779.000000;1.318234
6778.000000;1.316102
6777.000000;1.314092
6776.000000;1.311934
6775.000000;1.309495
6774.000000;1.306625
6773.000000;1.303272
6772.000000;1.299709
6771.000000;1.296310
6770.000000;1.293137
6769.000000;1.290047
6768.000000;1.287117
6767.000000;1.284571
6766.000000;1.282326
6765.000000;1.280002
6764.000000;1.277430
6763.000000;1.274794
6762.000000;1.272194
6761.000000;1.269445
6760.000000;1.266434
6759.000000;1.263344
6758.000000;1.260357
6757.000000;1.257415
6756.000000;1.254449
6755.000000;1.251617
6754.000000;1.249096
6753.000000;1.246809
6752.000000;1.244514
6751.000000;1.242054
6750.000000;1.239384
6749.000000;1.236499
6748.000000;1.233455
6747.000000;1.230402
6746.000000;1.227442
6745.000000;1.224534
6744.000000;1.221614
6743.000000;1.218734
6742.000000;1.215980
6741.000000;1.213328
6740.000000;1.210696
6739.000000;1.208082
6738.000000;1.205571
6737.000000;1.203194
6736.000000;1.200861
6735.000000;1.198420
6734.000000;1.195763
6733.000000;1.192889
6732.000000;1.189918
6731.000000;1.187011
6730.000000;1.184229
6729.000000;1.181481
6728.000000;1.178621
6727.000000;1.175634
6726.000000;1.172694
6725.000000;1.170028
6724.000000;1.167678
6723.000000;1.165429
6722.000000;1.162986
6721.000000;1.160230
6720.000000;1.157277
6719.000000;1.154311
6718.000000;1.151422
6717.000000;1.148625
6716.000000;1.145914
6715.000000;1.143279
6714.000000;1.140683
6713.000000;1.138043
6712.000000;1.135288
6711.000000;1.132395
6710.000000;1.129440
6709.000000;1.126654
6708.000000;1.124217
6707.000000;1.122037
6706.000000;1.119767
6705.000000;1.117244
6704.000000;1.114493
6703.000000;1.111671
6702.000000;1.108912
6701.000000;1.106245
6700.000000;1.103748
6699.000000;1.101403
6698.000000;1.099024
6697.000000;1.096416
6696.000000;1.093626
6695.000000;1.090887
6694.000000;1.088352
6693.000000;1.085968
6692.000000;1.083581
6691.000000;1.081057
6690.000000;1.078334
6689.000000;1.075453
6688.000000;1.072562
6687.000000;1.069829
6686.000000;1.067323
6685.000000;1.064998
6684.000000;1.062759
6683.000000;1.060516
6682.000000;1.058219
6681.000000;1.055882
6680.000000;1.053543
6679.000000;1.051171
6678.000000;1.048660
6677.000000;1.045955
6676.000000;1.043126
6675.000000;1.040298
6674.000000;1.037549
6673.000000;1.034948
6672.000000;1.032577
6671.000000;1.030441
6670.000000;1.028394
6669.000000;1.026233
6668.000000;1.023858
6667.000000;1.021299
6666.000000;1.018647
6665.000000;1.016023
6664.000000;1.013552
6663.000000;1.011273
6662.000000;1.009071
6661.000000;1.006782
6660.000000;1.004348
6659.000000;1.001862
6658.000000;0.999462
6657.000000;0.997224
6656.000000;0.995107
6655.000000;0.992978
6654.000000;0.990696
6653.000000;0.988220
6652.000000;0.985621
6651.000000;0.983012
6650.000000;0.980504
6649.000000;0.978211
6648.000000;0.976180
6647.000000;0.974290
6646.000000;0.972292
6645.000000;0.970027
6644.000000;0.967552
6643.000000;0.965020
6642.000000;0.962532
6641.000000;0.960146
6640.000000;0.957912
6639.000000;0.955803
6638.000000;0.953676
6637.000000;0.951413
6636.000000;0.949063
6635.000000;0.946775
6634.000000;0.944626
6633.000000;0.942581
6632.000000;0.940575
6631.000000;0.938549
6630.000000;0.936418
6629.000000;0.934126
6628.000000;0.931742
6627.000000;0.929423
6626.000000;0.927264
6625.000000;0.925212
6624.000000;0.923140
6623.000000;0.920966
6622.000000;0.918701
6621.000000;0.916436
6620.000000;0.914278
6619.000000;0.912267
6618.000000;0.910343
6617.000000;0.908396
6616.000000;0.906364
6615.000000;0.904274
6614.000000;0.902214
6613.000000;0.900256
6612.000000;0.898392
6611.000000;0.896533
6610.000000;0.894584
6609.000000;0.892511
6608.000000;0.890328
6607.000000;0.888068
6606.000000;0.885809
6605.000000;0.883700
6604.000000;0.881843
6603.000000;0.880147
6602.000000;0.878381
6601.000000;0.876396
6600.000000;0.874259
6599.000000;0.872142
6598.000000;0.870151
6597.000000;0.868275
6596.000000;0.866423
6595.000000;0.864493
6594.000000;0.862455
6593.000000;0.860399
6592.000000;0.858454
6591.000000;0.856636
6590.000000;0.854821
6589.000000;0.852896
6588.000000;0.850878
6587.000000;0.848874
6586.000000;0.846974
6585.000000;0.845198
6584.000000;0.843492
6583.000000;0.841758
6582.000000;0.839919
6581.000000;0.837999
6580.000000;0.836080
6579.000000;0.834200
6578.000000;0.832342
6577.000000;0.830507
6576.000000;0.828719
6575.000000;0.826941
6574.000000;0.825104
6573.000000;0.823225
6572.000000;0.821406
6571.000000;0.819686
6570.000000;0.817988
6569.000000;0.816256
6568.000000;0.814540
6567.000000;0.812894
6566.000000;0.811277
6565.000000;0.809621
6564.000000;0.807931
6563.000000;0.806241
6562.000000;0.804534
6561.000000;0.802769
6560.000000;0.800937
6559.000000;0.799065
6558.000000;0.797190
6557.000000;0.795383
6556.000000;0.793712
6555.000000;0.792148
6554.000000;0.790564
6553.000000;0.788879
6552.000000;0.787136
6551.000000;0.785401
6550.000000;0.783666
6549.000000;0.781911
6548.000000;0.780174
6547.000000;0.778501
6546.000000;0.776873
6545.000000;0.775252
6544.000000;0.773641
6543.000000;0.772038
6542.000000;0.770402
6541.000000;0.768720
6540.000000;0.767053
6539.000000;0.765468
6538.000000;0.763954
6537.000000;0.762473
6536.000000;0.761010
6535.000000;0.759539
6534.000000;0.758000
6533.000000;0.756390
6532.000000;0.754807
6531.000000;0.753311
6530.000000;0.751817
6529.000000;0.750222
6528.000000;0.748575
6527.000000;0.747026
6526.000000;0.745632
6525.000000;0.744313
6524.000000;0.742979
6523.000000;0.741592
6522.000000;0.740127
6521.000000;0.738560
6520.000000;0.736913
6519.000000;0.735254
6518.000000;0.733634
6517.000000;0.732074
6516.000000;0.730585
6515.000000;0.729165
6514.000000;0.727781
6513.000000;0.726400
6512.000000;0.725032
6511.000000;0.723690
6510.000000;0.722339
6509.000000;0.720933
6508.000000;0.719488
6507.000000;0.718068
6506.000000;0.716703
6505.000000;0.715382
6504.000000;0.714082
6503.000000;0.712771
6502.000000;0.711399
6501.000000;0.709945
6500.000000;0.708466
6499.000000;0.707044
6498.000000;0.705692
6497.000000;0.704358
6496.000000;0.703004
6495.000000;0.701645
6494.000000;0.700311
6493.000000;0.699017
6492.000000;0.697752
6491.000000;0.696464
6490.000000;0.695088
6489.000000;0.693620
6488.000000;0.692156
6487.000000;0.690803
6486.000000;0.689573
6485.000000;0.688395
6484.000000;0.687218
6483.000000;0.686038
6482.000000;0.684845
6481.000000;0.683601
6480.000000;0.682292
6479.000000;0.680943
6478.000000;0.679593
6477.000000;0.678265
6476.000000;0.676975
6475.000000;0.675726
6474.000000;0.674512
6473.000000;0.673322
6472.000000;0.672137
6471.000000;0.670924
6470.000000;0.669658
6469.000000;0.668364
6468.000000;0.667109
6467.000000;0.665926
6466.000000;0.664784
6465.000000;0.663640
6464.000000;0.662500
6463.000000;0.661371
6462.000000;0.660217
6461.000000;0.659004
6460.000000;0.657760
6459.000000;0.656547
6458.000000;0.655380
6457.000000;0.654221
6456.000000;0.653045
6455.000000;0.651862
6454.000000;0.650692
6453.000000;0.649544
6452.000000;0.648408
6451.000000;0.647264
6450.000000;0.646115
6449.000000;0.645008
6448.000000;0.643995
6447.000000;0.643047
6446.000000;0.642063
6445.000000;0.640975
6444.000000;0.639809
6443.000000;0.638626
6442.000000;0.637448
6441.000000;0.636295
6440.000000;0.635217
6439.000000;0.634235
6438.000000;0.633270
6437.000000;0.632225
6436.000000;0.631109
6435.000000;0.630011
6434.000000;0.628981
6433.000000;0.627983
6432.000000;0.626974
6431.000000;0.625943
6430.000000;0.624890
6429.000000;0.623811
6428.000000;0.622720
6427.000000;0.621656
6426.000000;0.620647
6425.000000;0.619688
6424.000000;0.618751
6423.000000;0.617791
6422.000000;0.616777
6421.000000;0.615722
6420.000000;0.614691
6419.000000;0.613727
6418.000000;0.612796
6417.000000;0.611839
6416.000000;0.610844
6415.000000;0.609835
6414.000000;0.608822
6413.000000;0.607796
6412.000000;0.606774
6411.000000;0.605784
6410.000000;0.604826
6409.000000;0.603883
6408.000000;0.602953
6407.000000;0.602034
6406.000000;0.601097
6405.000000;0.600116
6404.000000;0.599123
6403.000000;0.598180
6402.000000;0.597306
6401.000000;0.596461
6400.000000;0.595603
6399.000000;0.594727
6398.000000;0.593834
6397.000000;0.592918
6396.000000;0.591985
6395.000000;0.591066
6394.000000;0.590189
6393.000000;0.589359
6392.000000;0.588557
6391.000000;0.587755
6390.000000;0.586933
6389.000000;0.586083
6388.000000;0.585210
6387.000000;0.584313
6386.000000;0.583395
6385.000000;0.582491
6384.000000;0.581649
6383.000000;0.580867
6382.000000;0.580075
6381.000000;0.579208
6380.000000;0.578283
6379.000000;0.577363
6378.000000;0.576486
6377.000000;0.575645
6376.000000;0.574836
6375.000000;0.574063
6374.000000;0.573310
6373.000000;0.572549
6372.000000;0.571772
6371.000000;0.570991
6370.000000;0.570213
6369.000000;0.569426
6368.000000;0.568621
6367.000000;0.567807
6366.000000;0.567002
6365.000000;0.566223
6364.000000;0.565474
6363.000000;0.564730
6362.000000;0.563960
6361.000000;0.563161
6360.000000;0.562349
6359.000000;0.561524
6358.000000;0.560667
6357.000000;0.559808
6356.000000;0.559024
6355.000000;0.558352
6354.000000;0.557726
6353.000000;0.557047
6352.000000;0.556292
6351.000000;0.555510
6350.000000;0.554742
6349.000000;0.553997
6348.000000;0.553274
6347.000000;0.552570
6346.000000;0.551862
6345.000000;0.551126
6344.000000;0.550379
6343.000000;0.549654
6342.000000;0.548957
6341.000000;0.548265
6340.000000;0.547573
6339.000000;0.546897
6338.000000;0.546240
6337.000000;0.545587
6336.000000;0.544924
6335.000000;0.544245
6334.000000;0.543541
6333.000000;0.542814
6332.000000;0.542090
6331.000000;0.541397
6330.000000;0.540731
6329.000000;0.540074
6328.000000;0.539425
6327.000000;0.538793
6326.000000;0.538154
6325.000000;0.537469
6324.000000;0.536734
6323.000000;0.535999
6322.000000;0.535307
6321.000000;0.534646
6320.000000;0.533968
6319.000000;0.533260
6318.000000;0.532567
6317.000000;0.531947
6316.000000;0.531397
6315.000000;0.530850
6314.000000;0.530246
6313.000000;0.529600
6312.000000;0.528974
6311.000000;0.528395
6310.000000;0.527833
6309.000000;0.527262
6308.000000;0.526693
6307.000000;0.526126
6306.000000;0.525535
6305.000000;0.524912
6304.000000;0.524296
6303.000000;0.523724
6302.000000;0.523170
6301.000000;0.522583
6300.000000;0.521944
6299.000000;0.521276
6298.000000;0.520613
6297.000000;0.519990
6296.000000;0.519427
6295.000000;0.518901
6294.000000;0.518354
6293.000000;0.517755
6292.000000;0.517148
6291.000000;0.516594
6290.000000;0.516089
6289.000000;0.515580
6288.000000;0.515037
6287.000000;0.514484
6286.000000;0.513946
6285.000000;0.513417
6284.000000;0.512877
6283.000000;0.512316
6282.000000;0.511748
6281.000000;0.511196
6280.000000;0.510679
6279.000000;0.510186
6278.000000;0.509685
6277.000000;0.509169
6276.000000;0.508658
6275.000000;0.508161
6274.000000;0.507650
6273.000000;0.507109
6272.000000;0.506565
6271.000000;0.506046
6270.000000;0.505538
6269.000000;0.505019
6268.000000;0.504497
6267.000000;0.503995
6266.000000;0.503500
6265.000000;0.502975
6264.000000;0.502409
6263.000000;0.501833
6262.000000;0.501280
6261.000000;0.500772
6260.000000;0.500310
6259.000000;0.499869
6258.000000;0.499417
6257.000000;0.498954
6256.000000;0.498511
6255.000000;0.498098
6254.000000;0.497677
6253.000000;0.497220
6252.000000;0.496753
6251.000000;0.496310
6250.000000;0.495876
6249.000000;0.495405
6248.000000;0.494906
6247.000000;0.494431
6246.000000;0.494003
6245.000000;0.493582
6244.000000;0.493113
6243.000000;0.492575
6242.000000;0.491997
6241.000000;0.491435
6240.000000;0.490933
6239.000000;0.490479
6238.000000;0.490014
6237.000000;0.489510
6236.000000;0.489007
6235.000000;0.488563
6234.000000;0.488181
6233.000000;0.487811
6232.000000;0.487421
6231.000000;0.487011
6230.000000;0.486590
6229.000000;0.486160
6228.000000;0.485727
6227.000000;0.485303
6226.000000;0.484891
6225.000000;0.484498
6224.000000;0.484126
6223.000000;0.483755
6222.000000;0.483354
6221.000000;0.482917
6220.000000;0.482484
6219.000000;0.482080
6218.000000;0.481672
6217.000000;0.481231
6216.000000;0.480781
6215.000000;0.480365
6214.000000;0.479969
6213.000000;0.479544
6212.000000;0.479082
6211.000000;0.478622
6210.000000;0.478187
6209.000000;0.477771
6208.000000;0.477363
6207.000000;0.476970
6206.000000;0.476584
6205.000000;0.476186
6204.000000;0.475779
6203.000000;0.475391
6202.000000;0.475033
6201.000000;0.474683
6200.000000;0.474314
6199.000000;0.473919
6198.000000;0.473513
6197.000000;0.473126
6196.000000;0.472786
6195.000000;0.472480
6194.000000;0.472148
6193.000000;0.471744
6192.000000;0.471298
6191.000000;0.470881
6190.000000;0.470519
6189.000000;0.470177
6188.000000;0.469822
6187.000000;0.469464
6186.000000;0.469125
6185.000000;0.468804
6184.000000;0.468482
6183.000000;0.468147
6182.000000;0.467799
6181.000000;0.467441
6180.000000;0.467080
6179.000000;0.466722
6178.000000;0.466365
6177.000000;0.466012
6176.000000;0.465675
6175.000000;0.465359
6174.000000;0.465046
6173.000000;0.464708
6172.000000;0.464331
6171.000000;0.463922
6170.000000;0.463504
6169.000000;0.463108
6168.000000;0.462768
6167.000000;0.462486
6166.000000;0.462234
6165.000000;0.461983
6164.000000;0.461726
6163.000000;0.461449
6162.000000;0.461127
6161.000000;0.460755
6160.000000;0.460373
6159.000000;0.460019
6158.000000;0.459682
6157.000000;0.459332
6156.000000;0.458981
6155.000000;0.458662
6154.000000;0.458379
6153.000000;0.458098
6152.000000;0.457801
6151.000000;0.457501
6150.000000;0.457207
6149.000000;0.456900
6148.000000;0.456566
6147.000000;0.456219
6146.000000;0.455890
6145.000000;0.455595
6144.000000;0.455326
6143.000000;0.455061
6142.000000;0.454776
6141.000000;0.454470
6140.000000;0.454159
6139.000000;0.453849
6138.000000;0.453534
6137.000000;0.453211
6136.000000;0.452901
6135.000000;0.452613
6134.000000;0.452332
6133.000000;0.452041
6132.000000;0.451744
6131.000000;0.451458
6130.000000;0.451182
6129.000000;0.450908
6128.000000;0.450634
6127.000000;0.450364
6126.000000;0.450092
6125.000000;0.449819
6124.000000;0.449551
6123.000000;0.449286
6122.000000;0.449003
6121.000000;0.448698
6120.000000;0.448400
6119.000000;0.448131
6118.000000;0.447879
6117.000000;0.447627
6116.000000;0.447384
6115.000000;0.447150
6114.000000;0.446901
6113.000000;0.446616
6112.000000;0.446321
6111.000000;0.446054
6110.000000;0.445810
6109.000000;0.445549
6108.000000;0.445256
6107.000000;0.444951
6106.000000;0.444664
6105.000000;0.444410
6104.000000;0.444198
6103.000000;0.444012
6102.000000;0.443808
6101.000000;0.443554
6100.000000;0.443266
6099.000000;0.442980
6098.000000;0.442705
6097.000000;0.442435
6096.000000;0.442189
6095.000000;0.441991
6094.000000;0.441829
6093.000000;0.441656
6092.000000;0.441443
6091.000000;0.441190
6090.000000;0.440905
6089.000000;0.440608
6088.000000;0.440339
6087.000000;0.440122
6086.000000;0.439930
6085.000000;0.439715
6084.000000;0.439464
6083.000000;0.439201
6082.000000;0.438941
6081.000000;0.438685
6080.000000;0.438452
6079.000000;0.438272
6078.000000;0.438143
6077.000000;0.438018
6076.000000;0.437861
6075.000000;0.437673
6074.000000;0.437462
6073.000000;0.437228
6072.000000;0.436980
6071.000000;0.436737
6070.000000;0.436501
6069.000000;0.436254
6068.000000;0.435993
6067.000000;0.435750
6066.000000;0.435550
6065.000000;0.435388
6064.000000;0.435237
6063.000000;0.435079
6062.000000;0.434906
6061.000000;0.434715
6060.000000;0.434506
6059.000000;0.434286
6058.000000;0.434066
6057.000000;0.433856
6056.000000;0.433667
6055.000000;0.433499
6054.000000;0.433340
6053.000000;0.433173
6052.000000;0.432983
6051.000000;0.432767
6050.000000;0.432533
6049.000000;0.432306
6048.000000;0.432116
6047.000000;0.431971
6046.000000;0.431848
6045.000000;0.431721
6044.000000;0.431583
6043.000000;0.431434
6042.000000;0.431265
6041.000000;0.431077
6040.000000;0.430888
6039.000000;0.430713
6038.000000;0.430550
6037.000000;0.430392
6036.000000;0.430240
6035.000000;0.430095
6034.000000;0.429947
6033.000000;0.429799
6032.000000;0.429668
6031.000000;0.429559
6030.000000;0.429445
6029.000000;0.429307
6028.000000;0.429161
6027.000000;0.429023
6026.000000;0.428866
6025.000000;0.428659
6024.000000;0.428423
6023.000000;0.428212
6022.000000;0.428045
6021.000000;0.427890
6020.000000;0.427716
6019.000000;0.427535
6018.000000;0.427382
6017.000000;0.427272
6016.000000;0.427184
6015.000000;0.427080
6014.000000;0.426931
6013.000000;0.426754
6012.000000;0.426587
6011.000000;0.426453
6010.000000;0.426339
6009.000000;0.426233
6008.000000;0.426147
6007.000000;0.426085
6006.000000;0.426022
6005.000000;0.425931
6004.000000;0.425812
6003.000000;0.425683
6002.000000;0.425545
6001.000000;0.425409
6000.000000;0.425299
5999.000000;0.425232
5998.000000;0.425184
5997.000000;0.425124
5996.000000;0.425049
5995.000000;0.424971
5994.000000;0.424883
5993.000000;0.424775
5992.000000;0.424667
5991.000000;0.424583
5990.000000;0.424513
5989.000000;0.424429
5988.000000;0.424323
5987.000000;0.424205
5986.000000;0.424077
5985.000000;0.423942
5984.000000;0.423829
5983.000000;0.423763
5982.000000;0.423728
5981.000000;0.423681
5980.000000;0.423600
5979.000000;0.423493
5978.000000;0.423373
5977.000000;0.423257
5976.000000;0.423178
5975.000000;0.423152
5974.000000;0.423147
5973.000000;0.423118
5972.000000;0.423063
5971.000000;0.423015
5970.000000;0.422997
5969.000000;0.423000
5968.000000;0.423002
5967.000000;0.422983
5966.000000;0.422921
5965.000000;0.422823
5964.000000;0.422736
5963.000000;0.422699
5962.000000;0.422696
5961.000000;0.422688
5960.000000;0.422667
5959.000000;0.422655
5958.000000;0.422655
5957.000000;0.422642
5956.000000;0.422614
5955.000000;0.422588
5954.000000;0.422561
5953.000000;0.422507
5952.000000;0.422423
5951.000000;0.422333
5950.000000;0.422262
5949.000000;0.422217
5948.000000;0.422206
5947.000000;0.422236
5946.000000;0.422276
5945.000000;0.422284
5944.000000;0.422247
5943.000000;0.422192
5942.000000;0.422136
5941.000000;0.422076
5940.000000;0.422024
5939.000000;0.422017
5938.000000;0.422071
5937.000000;0.422148
5936.000000;0.422194
5935.000000;0.422190
5934.000000;0.422164
5933.000000;0.422153
5932.000000;0.422171
5931.000000;0.422193
5930.000000;0.422186
5929.000000;0.422144
5928.000000;0.422100
5927.000000;0.422079
5926.000000;0.422081
5925.000000;0.422097
5924.000000;0.422131
5923.000000;0.422185
5922.000000;0.422235
5921.000000;0.422257
5920.000000;0.422260
5919.000000;0.422267
5918.000000;0.422273
5917.000000;0.422260
5916.000000;0.422238
5915.000000;0.422244
5914.000000;0.422298
5913.000000;0.422389
5912.000000;0.422498
5911.000000;0.422601
5910.000000;0.422665
5909.000000;0.422672
5908.000000;0.422648
5907.000000;0.422634
5906.000000;0.422641
5905.000000;0.422662
5904.000000;0.422707
5903.000000;0.422784
5902.000000;0.422861
5901.000000;0.422889
5900.000000;0.422867
5899.000000;0.422848
5898.000000;0.422875
5897.000000;0.422942
5896.000000;0.423017
5895.000000;0.423076
5894.000000;0.423103
5893.000000;0.423094
5892.000000;0.423082
5891.000000;0.423114
5890.000000;0.423209
5889.000000;0.423341
5888.000000;0.423480
5887.000000;0.423607
5886.000000;0.423710
5885.000000;0.423781
5884.000000;0.423828
5883.000000;0.423871
5882.000000;0.423922
5881.000000;0.423984
5880.000000;0.424066
5879.000000;0.424167
5878.000000;0.424264
5877.000000;0.424340
5876.000000;0.424419
5875.000000;0.424536
5874.000000;0.424686
5873.000000;0.424824
5872.000000;0.424932
5871.000000;0.425033
5870.000000;0.425146
5869.000000;0.425256
5868.000000;0.425349
5867.000000;0.425436
5866.000000;0.425539
5865.000000;0.425672
5864.000000;0.425838
5863.000000;0.426027
5862.000000;0.426208
5861.000000;0.426351
5860.000000;0.426455
5859.000000;0.426546
5858.000000;0.426647
5857.000000;0.426765
5856.000000;0.426914
5855.000000;0.427100
5854.000000;0.427302
5853.000000;0.427484
5852.000000;0.427633
5851.000000;0.427772
5850.000000;0.427924
5849.000000;0.428092
5848.000000;0.428272
5847.000000;0.428458
5846.000000;0.428630
5845.000000;0.428770
5844.000000;0.428891
5843.000000;0.429027
5842.000000;0.429206
5841.000000;0.429423
5840.000000;0.429660
5839.000000;0.429899
5838.000000;0.430127
5837.000000;0.430342
5836.000000;0.430556
5835.000000;0.430772
5834.000000;0.430966
5833.000000;0.431127
5832.000000;0.431289
5831.000000;0.431501
5830.000000;0.431763
5829.000000;0.432033
5828.000000;0.432280
5827.000000;0.432512
5826.000000;0.432752
5825.000000;0.433005
5824.000000;0.433265
5823.000000;0.433531
5822.000000;0.433795
5821.000000;0.434046
5820.000000;0.434288
5819.000000;0.434528
5818.000000;0.434771
5817.000000;0.435017
5816.000000;0.435283
5815.000000;0.435584
5814.000000;0.435904
5813.000000;0.436211
5812.000000;0.436502
5811.000000;0.436799
5810.000000;0.437113
5809.000000;0.437426
5808.000000;0.437720
5807.000000;0.437994
5806.000000;0.438257
5805.000000;0.438520
5804.000000;0.438796
5803.000000;0.439092
5802.000000;0.439396
5801.000000;0.439693
5800.000000;0.439984
5799.000000;0.440288
5798.000000;0.440610
5797.000000;0.440942
5796.000000;0.441276
5795.000000;0.441613
5794.000000;0.441951
5793.000000;0.442287
5792.000000;0.442632
5791.000000;0.442995
5790.000000;0.443369
5789.000000;0.443738
5788.000000;0.444098
5787.000000;0.444455
5786.000000;0.444802
5785.000000;0.445133
5784.000000;0.445470
5783.000000;0.445843
5782.000000;0.446255
5781.000000;0.446676
5780.000000;0.447084
5779.000000;0.447480
5778.000000;0.447870
5777.000000;0.448255
5776.000000;0.448644
5775.000000;0.449046
5774.000000;0.449462
5773.000000;0.449887
5772.000000;0.450331
5771.000000;0.450801
5770.000000;0.451280
5769.000000;0.451734
5768.000000;0.452140
5767.000000;0.452510
5766.000000;0.452872
5765.000000;0.453255
5764.000000;0.453675
5763.000000;0.454127
5762.000000;0.454591
5761.000000;0.455069
5760.000000;0.455579
5759.000000;0.456119
5758.000000;0.456644
5757.000000;0.457116
5756.000000;0.457557
5755.000000;0.458017
5754.000000;0.458504
5753.000000;0.458983
5752.000000;0.459431
5751.000000;0.459864
5750.000000;0.460311
5749.000000;0.460794
5748.000000;0.461320
5747.000000;0.461872
5746.000000;0.462418
5745.000000;0.462944
5744.000000;0.463476
5743.000000;0.464044
5742.000000;0.464636
5741.000000;0.465217
5740.000000;0.465777
5739.000000;0.466336
5738.000000;0.466900
5737.000000;0.467456
5736.000000;0.468004
5735.000000;0.468556
5734.000000;0.469115
5733.000000;0.469680
5732.000000;0.470262
5731.000000;0.470871
5730.000000;0.471492
5729.000000;0.472096
5728.000000;0.472685
5727.000000;0.473292
5726.000000;0.473934
5725.000000;0.474601
5724.000000;0.475264
5723.000000;0.475903
5722.000000;0.476518
5721.000000;0.477131
5720.000000;0.477773
5719.000000;0.478435
5718.000000;0.479062
5717.000000;0.479625
5716.000000;0.480168
5715.000000;0.480760
5714.000000;0.481411
5713.000000;0.482078
5712.000000;0.482736
5711.000000;0.483407
5710.000000;0.484100
5709.000000;0.484798
5708.000000;0.485481
5707.000000;0.486148
5706.000000;0.486799
5705.000000;0.487442
5704.000000;0.488112
5703.000000;0.488841
5702.000000;0.489621
5701.000000;0.490403
5700.000000;0.491142
5699.000000;0.491831
5698.000000;0.492494
5697.000000;0.493162
5696.000000;0.493871
5695.000000;0.494632
5694.000000;0.495412
5693.000000;0.496164
5692.000000;0.496869
5691.000000;0.497542
5690.000000;0.498195
5689.000000;0.498838
5688.000000;0.499492
5687.000000;0.500193
5686.000000;0.500953
5685.000000;0.501752
5684.000000;0.502559
5683.000000;0.503342
5682.000000;0.504077
5681.000000;0.504773
5680.000000;0.505469
5679.000000;0.506190
5678.000000;0.506920
5677.000000;0.507633
5676.000000;0.508329
5675.000000;0.509023
5674.000000;0.509716
5673.000000;0.510409
5672.000000;0.511119
5671.000000;0.511857
5670.000000;0.512600
5669.000000;0.513320
5668.000000;0.514022
5667.000000;0.514719
5666.000000;0.515412
5665.000000;0.516112
5664.000000;0.516851
5663.000000;0.517619
5662.000000;0.518344
5661.000000;0.518972
5660.000000;0.519539
5659.000000;0.520121
5658.000000;0.520739
5657.000000;0.521368
5656.000000;0.522012
5655.000000;0.522697
5654.000000;0.523413
5653.000000;0.524111
5652.000000;0.524772
5651.000000;0.525411
5650.000000;0.526037
5649.000000;0.526648
5648.000000;0.527261
5647.000000;0.527895
5646.000000;0.528535
5645.000000;0.529161
5644.000000;0.529785
5643.000000;0.530435
5642.000000;0.531092
5641.000000;0.531706
5640.000000;0.532268
5639.000000;0.532807
5638.000000;0.533341
5637.000000;0.533863
5636.000000;0.534381
5635.000000;0.534916
5634.000000;0.535457
5633.000000;0.535974
5632.000000;0.536468
5631.000000;0.536964
5630.000000;0.537466
5629.000000;0.537956
5628.000000;0.538446
5627.000000;0.538965
5626.000000;0.539501
5625.000000;0.540001
5624.000000;0.540444
5623.000000;0.540863
5622.000000;0.541288
5621.000000;0.541715
5620.000000;0.542131
5619.000000;0.542535
5618.000000;0.542931
5617.000000;0.543325
5616.000000;0.543730
5615.000000;0.544146
5614.000000;0.544537
5613.000000;0.544873
5612.000000;0.545177
5611.000000;0.545498
5610.000000;0.545852
5609.000000;0.546214
5608.000000;0.546563
5607.000000;0.546891
5606.000000;0.547200
5605.000000;0.547510
5604.000000;0.547837
5603.000000;0.548153
5602.000000;0.548385
5601.000000;0.548500
5600.000000;0.548567
5599.000000;0.548681
5598.000000;0.548869
5597.000000;0.549111
5596.000000;0.549394
5595.000000;0.549700
5594.000000;0.549965
5593.000000;0.550136
5592.000000;0.550247
5591.000000;0.550362
5590.000000;0.550489
5589.000000;0.550598
5588.000000;0.550701
5587.000000;0.550849
5586.000000;0.551042
5585.000000;0.551228
5584.000000;0.551373
5583.000000;0.551478
5582.000000;0.551552
5581.000000;0.551619
5580.000000;0.551729
5579.000000;0.551890
5578.000000;0.552032
5577.000000;0.552094
5576.000000;0.552115
5575.000000;0.552160
5574.000000;0.552202
5573.000000;0.552167
5572.000000;0.552080
5571.000000;0.552052
5570.000000;0.552108
5569.000000;0.552164
5568.000000;0.552170
5567.000000;0.552175
5566.000000;0.552212
5565.000000;0.552219
5564.000000;0.552140
5563.000000;0.552009
5562.000000;0.551903
5561.000000;0.551846
5560.000000;0.551828
5559.000000;0.551848
5558.000000;0.551903
5557.000000;0.551960
5556.000000;0.551988
5555.000000;0.552002
5554.000000;0.552024
5553.000000;0.552027
5552.000000;0.551952
5551.000000;0.551790
5550.000000;0.551609
5549.000000;0.551498
5548.000000;0.551472
5547.000000;0.551452
5546.000000;0.551342
5545.000000;0.551146
5544.000000;0.550978
5543.000000;0.550936
5542.000000;0.550987
5541.000000;0.551003
5540.000000;0.550934
5539.000000;0.550859
5538.000000;0.550861
5537.000000;0.550887
5536.000000;0.550811
5535.000000;0.550592
5534.000000;0.550320
5533.000000;0.550099
5532.000000;0.549955
5531.000000;0.549857
5530.000000;0.549783
5529.000000;0.549756
5528.000000;0.549787
5527.000000;0.549812
5526.000000;0.549743
5525.000000;0.549591
5524.000000;0.549499
5523.000000;0.549587
5522.000000;0.549766
5521.000000;0.549795
5520.000000;0.549572
5519.000000;0.549270
5518.000000;0.549126
5517.000000;0.549140
5516.000000;0.549105
5515.000000;0.548917
5514.000000;0.548720
5513.000000;0.548678
5512.000000;0.548751
5511.000000;0.548816
5510.000000;0.548916
5509.000000;0.549177
5508.000000;0.549491
5507.000000;0.549512
5506.000000;0.549115
5505.000000;0.548646
5504.000000;0.548503
5503.000000;0.548647
5502.000000;0.548710
5501.000000;0.548596
5500.000000;0.548679
5499.000000;0.549188
5498.000000;0.549708
5497.000000;0.549660
5496.000000;0.549204
5495.000000;0.549157
5494.000000;0.549913
5493.000000;0.550791
5492.000000;0.550845
5491.000000;0.550082
5490.000000;0.549385
5489.000000;0.549339
5488.000000;0.549626
5487.000000;0.549648
5486.000000;0.549356
5485.000000;0.549131
5484.000000;0.549138
5483.000000;0.549333
5482.000000;0.549822
5481.000000;0.550632
5480.000000;0.551288
5479.000000;0.551228
5478.000000;0.550723
5477.000000;0.550791
5476.000000;0.551828
5475.000000;0.552844
5474.000000;0.552711
5473.000000;0.551701
5472.000000;0.551093
5471.000000;0.551597
5470.000000;0.552741
5469.000000;0.553708
5468.000000;0.554251
5467.000000;0.554600
5466.000000;0.554876
5465.000000;0.555002
5464.000000;0.555016
5463.000000;0.555218
5462.000000;0.555862
5461.000000;0.556727
5460.000000;0.557232
5459.000000;0.557126
5458.000000;0.556858
5457.000000;0.557143
5456.000000;0.558190
5455.000000;0.559386
5454.000000;0.559966
5453.000000;0.559993
5452.000000;0.560344
5451.000000;0.561551
5450.000000;0.562935
5449.000000;0.563496
5448.000000;0.563493
5447.000000;0.564135
5446.000000;0.565605
5445.000000;0.566608
5444.000000;0.566285
5443.000000;0.565667
5442.000000;0.566418
5441.000000;0.568559
5440.000000;0.570351
5439.000000;0.570574
5438.000000;0.569967
5437.000000;0.570231
5436.000000;0.572218
5435.000000;0.575097
5434.000000;0.577102
5433.000000;0.577336
5432.000000;0.576733
5431.000000;0.577034
5430.000000;0.578939
5429.000000;0.581448
5428.000000;0.583063
5427.000000;0.583459
5426.000000;0.583629
5425.000000;0.584633
5424.000000;0.586576
5423.000000;0.588700
5422.000000;0.590425
5421.000000;0.592103
5420.000000;0.594345
5419.000000;0.596885
5418.000000;0.598775
5417.000000;0.599846
5416.000000;0.601168
5415.000000;0.603575
5414.000000;0.606286
5413.000000;0.607911
5412.000000;0.608519
5411.000000;0.609546
5410.000000;0.611734
5409.000000;0.614322
5408.000000;0.616459
5407.000000;0.618417
5406.000000;0.620879
5405.000000;0.623813
5404.000000;0.626817
5403.000000;0.629748
5402.000000;0.632589
5401.000000;0.635343
5400.000000;0.638254
5399.000000;0.641566
5398.000000;0.644970
5397.000000;0.647863
5396.000000;0.650335
5395.000000;0.653204
5394.000000;0.656843
5393.000000;0.660678
5392.000000;0.664199
5391.000000;0.667682
5390.000000;0.671535
5389.000000;0.675621
5388.000000;0.679729
5387.000000;0.684169
5386.000000;0.689054
5385.000000;0.693729
5384.000000;0.697903
5383.000000;0.702397
5382.000000;0.707798
5381.000000;0.713384
5380.000000;0.718286
5379.000000;0.722990
5378.000000;0.728604
5377.000000;0.735032
5376.000000;0.741114
5375.000000;0.746486
5374.000000;0.752043
5373.000000;0.758433
5372.000000;0.765318
5371.000000;0.772301
5370.000000;0.779590
5369.000000;0.787313
5368.000000;0.795033
5367.000000;0.802547
5366.000000;0.810328
5365.000000;0.818767
5364.000000;0.827562
5363.000000;0.836203
5362.000000;0.844698
5361.000000;0.853546
5360.000000;0.863149
5359.000000;0.873433
5358.000000;0.883898
5357.000000;0.894068
5356.000000;0.904135
5355.000000;0.915033
5354.000000;0.927190
5353.000000;0.939561
5352.000000;0.951005
5351.000000;0.962219
5350.000000;0.974752
5349.000000;0.988535
5348.000000;1.001927
5347.000000;1.014438
5346.000000;1.027886
5345.000000;1.043756
5344.000000;1.060590
5343.000000;1.075768
5342.000000;1.089189
5341.000000;1.103213
5340.000000;1.119634
5339.000000;1.138154
5338.000000;1.157347
5337.000000;1.176071
5336.000000;1.194038
5335.000000;1.212036
5334.000000;1.231474
5333.000000;1.252861
5332.000000;1.274951
5331.000000;1.296238
5330.000000;1.317010
5329.000000;1.338968
5328.000000;1.362821
5327.000000;1.387418
5326.000000;1.411613
5325.000000;1.435725
5324.000000;1.460632
5323.000000;1.486620
5322.000000;1.513641
5321.000000;1.541615
5320.000000;1.570130
5319.000000;1.598608
5318.000000;1.627089
5317.000000;1.656138
5316.000000;1.685864
5315.000000;1.715993
5314.000000;1.746696
5313.000000;1.778128
5312.000000;1.809483
5311.000000;1.840034
5310.000000;1.870743
5309.000000;1.903124
5308.000000;1.936699
5307.000000;1.969471
5306.000000;2.000952
5305.000000;2.032585
5304.000000;2.065040
5303.000000;2.097294
5302.000000;2.128480
5301.000000;2.158450
5300.000000;2.186622
5299.000000;2.212518
5298.000000;2.237274
5297.000000;2.262309
5296.000000;2.287058
5295.000000;2.310453
5294.000000;2.333650
5293.000000;2.358628
5292.000000;2.385066
5291.000000;2.410723
5290.000000;2.433447
5289.000000;2.450676
5288.000000;2.459966
5287.000000;2.463359
5286.000000;2.467579
5285.000000;2.476710
5284.000000;2.488033
5283.000000;2.497351
5282.000000;2.504669
5281.000000;2.511246
5280.000000;2.515741
5279.000000;2.517413
5278.000000;2.518869
5277.000000;2.521534
5276.000000;2.522730
5275.000000;2.521300
5274.000000;2.521259
5273.000000;2.525310
5272.000000;2.529957
5271.000000;2.531693
5270.000000;2.533269
5269.000000;2.538100
5268.000000;2.543276
5267.000000;2.544331
5266.000000;2.542988
5265.000000;2.543809
5264.000000;2.546635
5263.000000;2.548073
5262.000000;2.548226
5261.000000;2.549773
5260.000000;2.551874
5259.000000;2.551348
5258.000000;2.548515
5257.000000;2.546561
5256.000000;2.546309
5255.000000;2.546019
5254.000000;2.545505
5253.000000;2.546128
5252.000000;2.547921
5251.000000;2.550409
5250.000000;2.554151
5249.000000;2.558414
5248.000000;2.559835
5247.000000;2.556888
5246.000000;2.553264
5245.000000;2.552902
5244.000000;2.554580
5243.000000;2.554644
5242.000000;2.552551
5241.000000;2.550490
5240.000000;2.549554
5239.000000;2.549941
5238.000000;2.552962
5237.000000;2.558752
5236.000000;2.563503
5235.000000;2.562842
5234.000000;2.557029
5233.000000;2.549961
5232.000000;2.545151
5231.000000;2.544910
5230.000000;2.550361
5229.000000;2.559266
5228.000000;2.565938
5227.000000;2.566891
5226.000000;2.565136
5225.000000;2.565141
5224.000000;2.566725
5223.000000;2.567165
5222.000000;2.565926
5221.000000;2.563951
5220.000000;2.560759
5219.000000;2.555990
5218.000000;2.551790
5217.000000;2.550154
5216.000000;2.549602
5215.000000;2.547723
5214.000000;2.545770
5213.000000;2.547041
5212.000000;2.551445
5211.000000;2.554531
5210.000000;2.552301
5209.000000;2.545962
5208.000000;2.540797
5207.000000;2.541208
5206.000000;2.546963
5205.000000;2.553336
5204.000000;2.555762
5203.000000;2.554180
5202.000000;2.551652
5201.000000;2.549944
5200.000000;2.548661
5199.000000;2.548218
5198.000000;2.550016
5197.000000;2.552848
5196.000000;2.552947
5195.000000;2.549454
5194.000000;2.546328
5193.000000;2.547075
5192.000000;2.551205
5191.000000;2.556915
5190.000000;2.563731
5189.000000;2.570347
5188.000000;2.573190
5187.000000;2.570613
5186.000000;2.565760
5185.000000;2.562465
5184.000000;2.560696
5183.000000;2.558330
5182.000000;2.555497
5181.000000;2.554321
5180.000000;2.555447
5179.000000;2.556991
5178.000000;2.556496
5177.000000;2.553277
5176.000000;2.548954
5175.000000;2.546268
5174.000000;2.547247
5173.000000;2.551258
5172.000000;2.555771
5171.000000;2.559868
5170.000000;2.564393
5169.000000;2.567935
5168.000000;2.566476
5167.000000;2.559129
5166.000000;2.550745
5165.000000;2.546358
5164.000000;2.545881
5163.000000;2.546099
5162.000000;2.545640
5161.000000;2.545547
5160.000000;2.546412
5159.000000;2.547927
5158.000000;2.550607
5157.000000;2.555174
5156.000000;2.560502
5155.000000;2.564244
5154.000000;2.565271
5153.000000;2.564276
5152.000000;2.562431
5151.000000;2.560288
5150.000000;2.557728
5149.000000;2.554402
5148.000000;2.550388
5147.000000;2.546374
5146.000000;2.542369
5145.000000;2.537010
5144.000000;2.529975
5143.000000;2.524563
5142.000000;2.525202
5141.000000;2.532259
5140.000000;2.541505
5139.000000;2.548993
5138.000000;2.554618
5137.000000;2.559518
5136.000000;2.562515
5135.000000;2.561928
5134.000000;2.558615
5133.000000;2.554733
5132.000000;2.551168
5131.000000;2.547633
5130.000000;2.543947
5129.000000;2.539529
5128.000000;2.533819
5127.000000;2.528927
5126.000000;2.528647
5125.000000;2.533954
5124.000000;2.541340
5123.000000;2.546537
5122.000000;2.548378
5121.000000;2.547526
5120.000000;2.543931
5119.000000;2.538205
5118.000000;2.533490
5117.000000;2.532935
5116.000000;2.536327
5115.000000;2.540998
5114.000000;2.544739
5113.000000;2.546561
5112.000000;2.546462
5111.000000;2.545908
5110.000000;2.547119
5109.000000;2.550076
5108.000000;2.551483
5107.000000;2.549077
5106.000000;2.545572
5105.000000;2.545591
5104.000000;2.549908
5103.000000;2.554832
5102.000000;2.556673
5101.000000;2.555123
5100.000000;2.552384
5099.000000;2.551050
5098.000000;2.552311
5097.000000;2.554653
5096.000000;2.555064
5095.000000;2.551740
5094.000000;2.545461
5093.000000;2.538497
5092.000000;2.532738
5091.000000;2.529484
5090.000000;2.529573
5089.000000;2.532477
5088.000000;2.536048
5087.000000;2.538309
5086.000000;2.539174
5085.000000;2.539619
5084.000000;2.539862
5083.000000;2.538996
5082.000000;2.535872
5081.000000;2.530353
5080.000000;2.524702
5079.000000;2.522967
5078.000000;2.527221
5077.000000;2.534457
5076.000000;2.538504
5075.000000;2.535978
5074.000000;2.529051
5073.000000;2.521575
5072.000000;2.515527
5071.000000;2.512049
5070.000000;2.512382
5069.000000;2.516048
5068.000000;2.520084
5067.000000;2.522037
5066.000000;2.522550
5065.000000;2.523398
5064.000000;2.524453
5063.000000;2.524153
5062.000000;2.522244
5061.000000;2.520332
5060.000000;2.519673
5059.000000;2.519887
5058.000000;2.519955
5057.000000;2.519640
5056.000000;2.519873
5055.000000;2.521792
5054.000000;2.524892
5053.000000;2.526475
5052.000000;2.523990
5051.000000;2.518056
5050.000000;2.512039
5049.000000;2.508209
5048.000000;2.505923
5047.000000;2.503755
5046.000000;2.501701
5045.000000;2.500444
5044.000000;2.499747
5043.000000;2.498839
5042.000000;2.497556
5041.000000;2.496412
5040.000000;2.496229
5039.000000;2.497748
5038.000000;2.500902
5037.000000;2.503876
5036.000000;2.503792
5035.000000;2.499547
5034.000000;2.493054
5033.000000;2.487013
5032.000000;2.482716
5031.000000;2.480434
5030.000000;2.480269
5029.000000;2.481876
5028.000000;2.484171
5027.000000;2.485758
5026.000000;2.485725
5025.000000;2.483831
5024.000000;2.480174
5023.000000;2.475205
5022.000000;2.469335
5021.000000;2.462480
5020.000000;2.455032
5019.000000;2.448859
5018.000000;2.445804
5017.000000;2.445006
5016.000000;2.443227
5015.000000;2.438701
5014.000000;2.433085
5013.000000;2.428604
5012.000000;2.425203
5011.000000;2.421250
5010.000000;2.415841
5009.000000;2.409744
5008.000000;2.404283
5007.000000;2.400049
5006.000000;2.396802
5005.000000;2.394055
5004.000000;2.391797
5003.000000;2.390531
5002.000000;2.390082
5001.000000;2.389040
5000.000000;2.385915
4999.000000;2.380725
4998.000000;2.374684
4997.000000;2.368902
4996.000000;2.364144
4995.000000;2.361012
4994.000000;2.359096
4993.000000;2.356620
4992.000000;2.352354
4991.000000;2.347280
4990.000000;2.343126
4989.000000;2.340031
4988.000000;2.337176
4987.000000;2.334791
4986.000000;2.333201
4985.000000;2.330361
4984.000000;2.323375
4983.000000;2.313025
4982.000000;2.303753
4981.000000;2.298377
4980.000000;2.295255
4979.000000;2.291262
4978.000000;2.285578
4977.000000;2.279430
4976.000000;2.273915
4975.000000;2.269606
4974.000000;2.266869
4973.000000;2.264978
4972.000000;2.261976
4971.000000;2.256813
4970.000000;2.250753
4969.000000;2.245627
4968.000000;2.241485
4967.000000;2.237185
4966.000000;2.232521
4965.000000;2.228226
4964.000000;2.224153
4963.000000;2.218896
4962.000000;2.211605
4961.000000;2.203254
4960.000000;2.195679
4959.000000;2.189899
4958.000000;2.185432
4957.000000;2.180969
4956.000000;2.175695
4955.000000;2.169872
4954.000000;2.164081
4953.000000;2.158159
4952.000000;2.151477
4951.000000;2.144212
4950.000000;2.137524
4949.000000;2.132245
4948.000000;2.128061
4947.000000;2.124088
4946.000000;2.119612
4945.000000;2.114106
4944.000000;2.107397
4943.000000;2.100302
4942.000000;2.094183
4941.000000;2.089299
4940.000000;2.084260
4939.000000;2.077668
4938.000000;2.069779
4937.000000;2.061983
4936.000000;2.055208
4935.000000;2.049459
4934.000000;2.044402
4933.000000;2.039684
4932.000000;2.034923
4931.000000;2.029953
4930.000000;2.025001
4929.000000;2.020361
4928.000000;2.015964
4927.000000;2.011479
4926.000000;2.006646
4925.000000;2.001336
4924.000000;1.995600
4923.000000;1.989818
4922.000000;1.984385
4921.000000;1.979057
4920.000000;1.973066
4919.000000;1.966196
4918.000000;1.959306
4917.000000;1.953344
4916.000000;1.948258
4915.000000;1.943350
4914.000000;1.938324
4913.000000;1.933341
4912.000000;1.928305
4911.000000;1.922741
4910.000000;1.916445
4909.000000;1.909841
4908.000000;1.903550
4907.000000;1.897806
4906.000000;1.892293
4905.000000;1.886447
4904.000000;1.879976
4903.000000;1.873197
4902.000000;1.866774
4901.000000;1.861106
4900.000000;1.856080
4899.000000;1.851346
4898.000000;1.846513
4897.000000;1.841083
4896.000000;1.834729
4895.000000;1.827922
4894.000000;1.821855
4893.000000;1.817348
4892.000000;1.813974
4891.000000;1.810476
4890.000000;1.805892
4889.000000;1.800109
4888.000000;1.793566
4887.000000;1.786843
4886.000000;1.780456
4885.000000;1.774659
4884.000000;1.769415
4883.000000;1.764608
4882.000000;1.760121
4881.000000;1.755570
4880.000000;1.750289
4879.000000;1.743982
4878.000000;1.737235
4877.000000;1.731025
4876.000000;1.725791
4875.000000;1.721232
4874.000000;1.716873
4873.000000;1.712437
4872.000000;1.707692
4871.000000;1.702351
4870.000000;1.696336
4869.000000;1.689966
4868.000000;1.683761
4867.000000;1.678127
4866.000000;1.673169
4865.000000;1.668667
4864.000000;1.664237
4863.000000;1.659650
4862.000000;1.654949
4861.000000;1.650206
4860.000000;1.645319
4859.000000;1.640250
4858.000000;1.635308
4857.000000;1.630867
4856.000000;1.626789
4855.000000;1.622440
4854.000000;1.617362
4853.000000;1.611682
4852.000000;1.605816
4851.000000;1.600094
4850.000000;1.594774
4849.000000;1.590057
4848.000000;1.585787
4847.000000;1.581370
4846.000000;1.576348
4845.000000;1.570963
4844.000000;1.565842
4843.000000;1.561186
4842.000000;1.556604
4841.000000;1.551738
4840.000000;1.546737
4839.000000;1.541936
4838.000000;1.537358
4837.000000;1.532812
4836.000000;1.528305
4835.000000;1.524060
4834.000000;1.520136
4833.000000;1.516274
4832.000000;1.512201
4831.000000;1.507911
4830.000000;1.503564
4829.000000;1.499216
4828.000000;1.494791
4827.000000;1.490221
4826.000000;1.485531
4825.000000;1.480799
4824.000000;1.476088
4823.000000;1.471379
4822.000000;1.466563
4821.000000;1.461586
4820.000000;1.456616
4819.000000;1.451958
4818.000000;1.447734
4817.000000;1.443726
4816.000000;1.439631
4815.000000;1.435383
4814.000000;1.431114
4813.000000;1.426891
4812.000000;1.422656
4811.000000;1.418392
4810.000000;1.414195
4809.000000;1.410143
4808.000000;1.406219
4807.000000;1.402360
4806.000000;1.398489
4805.000000;1.394483
4804.000000;1.390235
4803.000000;1.385798
4802.000000;1.381405
4801.000000;1.377264
4800.000000;1.373396
4799.000000;1.369632
4798.000000;1.365742
4797.000000;1.361575
4796.000000;1.357184
4795.000000;1.352816
4794.000000;1.348698
4793.000000;1.344792
4792.000000;1.340828
4791.000000;1.336633
4790.000000;1.332345
4789.000000;1.328283
4788.000000;1.324644
4787.000000;1.321343
4786.000000;1.318079
4785.000000;1.314548
4784.000000;1.310678
4783.000000;1.306680
4782.000000;1.302824
4781.000000;1.299145
4780.000000;1.295453
4779.000000;1.291639
4778.000000;1.287817
4777.000000;1.284124
4776.000000;1.280504
4775.000000;1.276810
4774.000000;1.273031
4773.000000;1.269309
4772.000000;1.265749
4771.000000;1.262325
4770.000000;1.258937
4769.000000;1.255510
4768.000000;1.252056
4767.000000;1.248681
4766.000000;1.245469
4765.000000;1.242304
4764.000000;1.238891
4763.000000;1.235079
4762.000000;1.231100
4761.000000;1.227330
4760.000000;1.223867
4759.000000;1.220494
4758.000000;1.217061
4757.000000;1.213691
4756.000000;1.210535
4755.000000;1.207487
4754.000000;1.204299
4753.000000;1.200920
4752.000000;1.197548
4751.000000;1.194359
4750.000000;1.191317
4749.000000;1.188271
4748.000000;1.185145
4747.000000;1.181953
4746.000000;1.178713
4745.000000;1.175433
4744.000000;1.172189
4743.000000;1.169123
4742.000000;1.166315
4741.000000;1.163664
4740.000000;1.160934
4739.000000;1.157938
4738.000000;1.154682
4737.000000;1.151335
4736.000000;1.148070
4735.000000;1.144959
4734.000000;1.141978
4733.000000;1.139076
4732.000000;1.136202
4731.000000;1.133308
4730.000000;1.130389
4729.000000;1.127510
4728.000000;1.124782
4727.000000;1.122243
4726.000000;1.119820
4725.000000;1.117380
4724.000000;1.114843
4723.000000;1.112207
4722.000000;1.109518
4721.000000;1.106836
4720.000000;1.104210
4719.000000;1.101646
4718.000000;1.099077
4717.000000;1.096405
4716.000000;1.093591
4715.000000;1.090676
4714.000000;1.087718
4713.000000;1.084755
4712.000000;1.081855
4711.000000;1.079157
4710.000000;1.076775
4709.000000;1.074664
4708.000000;1.072615
4707.000000;1.070398
4706.000000;1.067926
4705.000000;1.065303
4704.000000;1.062723
4703.000000;1.060313
4702.000000;1.058033
4701.000000;1.055737
4700.000000;1.053352
4699.000000;1.050974
4698.000000;1.048742
4697.000000;1.046663
4696.000000;1.044608
4695.000000;1.042494
4694.000000;1.040358
4693.000000;1.038258
4692.000000;1.036164
4691.000000;1.034019
4690.000000;1.031854
4689.000000;1.029753
4688.000000;1.027725
4687.000000;1.025678
4686.000000;1.023544
4685.000000;1.021374
4684.000000;1.019291
4683.000000;1.017357
4682.000000;1.015528
4681.000000;1.013709
4680.000000;1.011856
4679.000000;1.009996
4678.000000;1.008156
4677.000000;1.006300
4676.000000;1.004361
4675.000000;1.002338
4674.000000;1.000322
4673.000000;0.998406
4672.000000;0.996591
4671.000000;0.994821
4670.000000;0.993082
4669.000000;0.991403
4668.000000;0.989760
4667.000000;0.988055
4666.000000;0.986216
4665.000000;0.984305
4664.000000;0.982458
4663.000000;0.980731
4662.000000;0.979042
4661.000000;0.977271
4660.000000;0.975405
4659.000000;0.973573
4658.000000;0.971937
4657.000000;0.970543
4656.000000;0.969272
4655.000000;0.967931
4654.000000;0.966405
4653.000000;0.964731
4652.000000;0.963039
4651.000000;0.961435
4650.000000;0.959957
4649.000000;0.958596
4648.000000;0.957328
4647.000000;0.956109
4646.000000;0.954879
4645.000000;0.953602
4644.000000;0.952304
4643.000000;0.951032
4642.000000;0.949792
4641.000000;0.948510
4640.000000;0.947090
4639.000000;0.945511
4638.000000;0.943883
4637.000000;0.942381
4636.000000;0.941110
4635.000000;0.940004
4634.000000;0.938881
4633.000000;0.937610
4632.000000;0.936228
4631.000000;0.934890
4630.000000;0.933706
4629.000000;0.932655
4628.000000;0.931629
4627.000000;0.930529
4626.000000;0.929315
4625.000000;0.928006
4624.000000;0.926669
4623.000000;0.925403
4622.000000;0.924285
4621.000000;0.923318
4620.000000;0.922426
4619.000000;0.921529
4618.000000;0.920603
4617.000000;0.919692
4616.000000;0.918849
4615.000000;0.918055
4614.000000;0.917206
4613.000000;0.916193
4612.000000;0.915018
4611.000000;0.913826
4610.000000;0.912799
4609.000000;0.912009
4608.000000;0.911372
4607.000000;0.910715
4606.000000;0.909896
4605.000000;0.908890
4604.000000;0.907809
4603.000000;0.906815
4602.000000;0.906000
4601.000000;0.905323
4600.000000;0.904685
4599.000000;0.904031
4598.000000;0.903366
4597.000000;0.902692
4596.000000;0.901973
4595.000000;0.901181
4594.000000;0.900334
4593.000000;0.899489
4592.000000;0.898717
4591.000000;0.898082
4590.000000;0.897607
4589.000000;0.897240
4588.000000;0.896899
4587.000000;0.896547
4586.000000;0.896182
4585.000000;0.895749
4584.000000;0.895142
4583.000000;0.894357
4582.000000;0.893571
4581.000000;0.892993
4580.000000;0.892650
4579.000000;0.892393
4578.000000;0.892101
4577.000000;0.891796
4576.000000;0.891542
4575.000000;0.891322
4574.000000;0.891070
4573.000000;0.890763
4572.000000;0.890434
4571.000000;0.890112
4570.000000;0.889812
4569.000000;0.889564
4568.000000;0.889386
4567.000000;0.889234
4566.000000;0.889024
4565.000000;0.888731
4564.000000;0.888440
4563.000000;0.888276
4562.000000;0.888299
4561.000000;0.888452
4560.000000;0.888618
4559.000000;0.888727
4558.000000;0.888818
4557.000000;0.888972
4556.000000;0.889193
4555.000000;0.889371
4554.000000;0.889423
4553.000000;0.889416
4552.000000;0.889518
4551.000000;0.889816
4550.000000;0.890231
4549.000000;0.890626
4548.000000;0.890947
4547.000000;0.891206
4546.000000;0.891391
4545.000000;0.891460
4544.000000;0.891432
4543.000000;0.891446
4542.000000;0.891676
4541.000000;0.892188
4540.000000;0.892861
4539.000000;0.893477
4538.000000;0.893875
4537.000000;0.894074
4536.000000;0.894234
4535.000000;0.894508
4534.000000;0.894914
4533.000000;0.895335
4532.000000;0.895636
4531.000000;0.895772
4530.000000;0.895804
4529.000000;0.895841
4528.000000;0.895979
4527.000000;0.896272
4526.000000;0.896717
4525.000000;0.897258
4524.000000;0.897813
4523.000000;0.898334
4522.000000;0.898841
4521.000000;0.899368
4520.000000;0.899875
4519.000000;0.900236
4518.000000;0.900363
4517.000000;0.900332
4516.000000;0.900365
4515.000000;0.900647
4514.000000;0.901183
4513.000000;0.901824
4512.000000;0.902439
4511.000000;0.903003
4510.000000;0.903547
4509.000000;0.904058
4508.000000;0.904507
4507.000000;0.904938
4506.000000;0.905448
4505.000000;0.906063
4504.000000;0.906681
4503.000000;0.907193
4502.000000;0.907634
4501.000000;0.908145
4500.000000;0.908813
4499.000000;0.909588
4498.000000;0.910356
4497.000000;0.911027
4496.000000;0.911576
4495.000000;0.912053
4494.000000;0.912581
4493.000000;0.913278
4492.000000;0.914140
4491.000000;0.915030
4490.000000;0.915820
4489.000000;0.916507
4488.000000;0.917170
4487.000000;0.917883
4486.000000;0.918701
4485.000000;0.919676
4484.000000;0.920803
4483.000000;0.921961
4482.000000;0.922989
4481.000000;0.923859
4480.000000;0.924710
4479.000000;0.925711
4478.000000;0.926903
4477.000000;0.928174
4476.000000;0.929361
4475.000000;0.930384
4474.000000;0.931306
4473.000000;0.932265
4472.000000;0.933353
4471.000000;0.934554
4470.000000;0.935821
4469.000000;0.937138
4468.000000;0.938495
4467.000000;0.939842
4466.000000;0.941158
4465.000000;0.942527
4464.000000;0.944065
4463.000000;0.945760
4462.000000;0.947475
4461.000000;0.949092
4460.000000;0.950623
4459.000000;0.952136
4458.000000;0.953664
4457.000000;0.955211
4456.000000;0.956777
4455.000000;0.958352
4454.000000;0.959898
4453.000000;0.961401
4452.000000;0.962917
4451.000000;0.964529
4450.000000;0.966278
4449.000000;0.968119
4448.000000;0.969933
4447.000000;0.971608
4446.000000;0.973146
4445.000000;0.974684
4444.000000;0.976366
4443.000000;0.978201
4442.000000;0.980103
4441.000000;0.982029
4440.000000;0.983997
4439.000000;0.985971
4438.000000;0.987872
4437.000000;0.989733
4436.000000;0.991727
4435.000000;0.993971
4434.000000;0.996378
4433.000000;0.998783
4432.000000;1.001130
4431.000000;1.003438
4430.000000;1.005674
4429.000000;1.007765
4428.000000;1.009731
4427.000000;1.011690
4426.000000;1.013735
4425.000000;1.015898
4424.000000;1.018208
4423.000000;1.020677
4422.000000;1.023194
4421.000000;1.025555
4420.000000;1.027679
4419.000000;1.029727
4418.000000;1.031953
4417.000000;1.034428
4416.000000;1.036990
4415.000000;1.039467
4414.000000;1.041877
4413.000000;1.044380
4412.000000;1.047049
4411.000000;1.049750
4410.000000;1.052256
4409.000000;1.054457
4408.000000;1.056452
4407.000000;1.058525
4406.000000;1.061027
4405.000000;1.064162
4404.000000;1.067762
4403.000000;1.071299
4402.000000;1.074293
4401.000000;1.076723
4400.000000;1.078989
4399.000000;1.081459
4398.000000;1.084165
4397.000000;1.086942
4396.000000;1.089688
4395.000000;1.092416
4394.000000;1.095162
4393.000000;1.097976
4392.000000;1.100930
4391.000000;1.104032
4390.000000;1.107159
4389.000000;1.110145
4388.000000;1.112933
4387.000000;1.115605
4386.000000;1.118329
4385.000000;1.121292
4384.000000;1.124575
4383.000000;1.128027
4382.000000;1.131355
4381.000000;1.134442
4380.000000;1.137500
4379.000000;1.140788
4378.000000;1.144264
4377.000000;1.147633
4376.000000;1.150691
4375.000000;1.153513
4374.000000;1.156338
4373.000000;1.159388
4372.000000;1.162776
4371.000000;1.166461
4370.000000;1.170272
4369.000000;1.174043
4368.000000;1.177721
4367.000000;1.181307
4366.000000;1.184779
4365.000000;1.188156
4364.000000;1.191565
4363.000000;1.195111
4362.000000;1.198738
4361.000000;1.202350
4360.000000;1.206026
4359.000000;1.209958
4358.000000;1.214202
4357.000000;1.218618
4356.000000;1.223035
4355.000000;1.227333
4354.000000;1.231396
4353.000000;1.235194
4352.000000;1.238915
4351.000000;1.242819
4350.000000;1.246882
4349.000000;1.250832
4348.000000;1.254601
4347.000000;1.258522
4346.000000;1.262880
4345.000000;1.267431
4344.000000;1.271638
4343.000000;1.275368
4342.000000;1.279127
4341.000000;1.283494
4340.000000;1.288466
4339.000000;1.293474
4338.000000;1.298004
4337.000000;1.302102
4336.000000;1.306243
4335.000000;1.310798
4334.000000;1.315690
4333.000000;1.320543
4332.000000;1.325086
4331.000000;1.329381
4330.000000;1.333731
4329.000000;1.338417
4328.000000;1.343444
4327.000000;1.348510
4326.000000;1.353260
4325.000000;1.357678
4324.000000;1.362148
4323.000000;1.367049
4322.000000;1.372310
4321.000000;1.377475
4320.000000;1.382176
4319.000000;1.386447
4318.000000;1.390619
4317.000000;1.395052
4316.000000;1.399999
4315.000000;1.405536
4314.000000;1.411482
4313.000000;1.417468
4312.000000;1.423207
4311.000000;1.428686
4310.000000;1.434033
4309.000000;1.439219
4308.000000;1.444006
4307.000000;1.448318
4306.000000;1.452586
4305.000000;1.457521
4304.000000;1.463404
4303.000000;1.469709
4302.000000;1.475610
4301.000000;1.480873
4300.000000;1.486078
4299.000000;1.491900
4298.000000;1.498353
4297.000000;1.504831
4296.000000;1.510772
4295.000000;1.516141
4294.000000;1.521391
4293.000000;1.527094
4292.000000;1.533531
4291.000000;1.540485
4290.000000;1.547437
4289.000000;1.554006
4288.000000;1.560103
4287.000000;1.565685
4286.000000;1.570659
4285.000000;1.575169
4284.000000;1.579686
4283.000000;1.584527
4282.000000;1.589500
4281.000000;1.594341
4280.000000;1.599310
4279.000000;1.604980
4278.000000;1.611474
4277.000000;1.618263
4276.000000;1.624761
4275.000000;1.630939
4274.000000;1.637366
4273.000000;1.644750
4272.000000;1.653314
4271.000000;1.662294
4270.000000;1.670156
4269.000000;1.675766
4268.000000;1.679524
4267.000000;1.683103
4266.000000;1.688103
4265.000000;1.695129
4264.000000;1.703822
4263.000000;1.713080
4262.000000;1.721199
4261.000000;1.726564
4260.000000;1.729014
4259.000000;1.730537
4258.000000;1.733960
4257.000000;1.740686
4256.000000;1.749717
4255.000000;1.758850
4254.000000;1.766717
4253.000000;1.773564
4252.000000;1.780278
4251.000000;1.787195
4250.000000;1.794251
4249.000000;1.801524
4248.000000;1.808974
4247.000000;1.815479
4246.000000;1.820072
4245.000000;1.823685
4244.000000;1.828926
4243.000000;1.837539
4242.000000;1.848673
4241.000000;1.859979
4240.000000;1.869807
4239.000000;1.877823
4238.000000;1.884247
4237.000000;1.889867
4236.000000;1.896238
4235.000000;1.904058
4234.000000;1.911845
4233.000000;1.917411
4232.000000;1.920701
4231.000000;1.924257
4230.000000;1.930295
4229.000000;1.938572
4228.000000;1.947580
4227.000000;1.956527
4226.000000;1.965390
4225.000000;1.974115
4224.000000;1.982794
4223.000000;1.991854
4222.000000;2.001292
4221.000000;2.010315
4220.000000;2.018624
4219.000000;2.027170
4218.000000;2.036704
4217.000000;2.046165
4216.000000;2.053677
4215.000000;2.059016
4214.000000;2.063397
4213.000000;2.067250
4212.000000;2.070088
4211.000000;2.072416
4210.000000;2.076064
4209.000000;2.082296
4208.000000;2.090446
4207.000000;2.098758
4206.000000;2.106178
4205.000000;2.113135
4204.000000;2.121196
4203.000000;2.131987
4202.000000;2.145303
4201.000000;2.157920
4200.000000;2.165976
4199.000000;2.169393
4198.000000;2.171999
4197.000000;2.176689
4196.000000;2.182785
4195.000000;2.189015
4194.000000;2.196449
4193.000000;2.206068
4192.000000;2.215239
4191.000000;2.220632
4190.000000;2.225070
4189.000000;2.235818
4188.000000;2.254172
4187.000000;2.271037
4186.000000;2.276941
4185.000000;2.274496
4184.000000;2.274524
4183.000000;2.283235
4182.000000;2.298051
4181.000000;2.313358
4180.000000;2.326781
4179.000000;2.338860
4178.000000;2.351039
4177.000000;2.365300
4176.000000;2.381386
4175.000000;2.394362
4174.000000;2.398846
4173.000000;2.396689
4172.000000;2.396238
4171.000000;2.402847
4170.000000;2.414190
4169.000000;2.425582
4168.000000;2.436773
4167.000000;2.451309
4166.000000;2.469860
4165.000000;2.484471
4164.000000;2.485130
4163.000000;2.472494
4162.000000;2.456787
4161.000000;2.448684
4160.000000;2.451298
4159.000000;2.458913
4158.000000;2.466274
4157.000000;2.477148
4156.000000;2.497540
4155.000000;2.522064
4154.000000;2.534325
4153.000000;2.526566
4152.000000;2.511456
4151.000000;2.505483
4150.000000;2.513171
4149.000000;2.529940
4148.000000;2.548801
4147.000000;2.563513
4146.000000;2.572406
4145.000000;2.577145
4144.000000;2.581757
4143.000000;2.590541
4142.000000;2.603532
4141.000000;2.618681
4140.000000;2.636696
4139.000000;2.660415
4138.000000;2.688262
4137.000000;2.711248
4136.000000;2.717838
4135.000000;2.703945
4134.000000;2.681094
4133.000000;2.668879
4132.000000;2.678603
4131.000000;2.705256
4130.000000;2.733723
4129.000000;2.751625
4128.000000;2.757661
4127.000000;2.754172
4126.000000;2.738001
4125.000000;2.711507
4124.000000;2.687972
4123.000000;2.678514
4122.000000;2.689126
4121.000000;2.715958
4120.000000;2.740573
4119.000000;2.748470
4118.000000;2.745228
4117.000000;2.745770
4116.000000;2.753746
4115.000000;2.755900
4114.000000;2.742925
4113.000000;2.729822
4112.000000;2.739396
4111.000000;2.774217
4110.000000;2.813717
4109.000000;2.842397
4108.000000;2.870684
4107.000000;2.903175
4106.000000;2.912892
4105.000000;2.882665
4104.000000;2.843586
4103.000000;2.831196
4102.000000;2.845068
4101.000000;2.860277
4100.000000;2.860235
4099.000000;2.849978
4098.000000;2.847674
4097.000000;2.863497
4096.000000;2.893284
4095.000000;2.920919
4094.000000;2.924725
4093.000000;2.903268
4092.000000;2.877319
4091.000000;2.858046
4090.000000;2.836245
4089.000000;2.811441
4088.000000;2.798097
4087.000000;2.806849
4086.000000;2.833584
4085.000000;2.855320
4084.000000;2.855703
4083.000000;2.853240
4082.000000;2.878141
4081.000000;2.936682
4080.000000;3.020175
4079.000000;3.105864
4078.000000;3.175126
4077.000000;3.228433
4076.000000;3.196026
4075.000000;3.088938
4074.000000;2.988541
4073.000000;2.922673
4072.000000;2.907188
4071.000000;2.952326
4070.000000;3.047069
4069.000000;3.132309
4068.000000;3.127730
4067.000000;3.055859
4066.000000;2.983563
4065.000000;2.938460
4064.000000;2.927302
4063.000000;2.938673
4062.000000;2.956597
4061.000000;2.979738
4060.000000;3.027247
4059.000000;3.128988
4058.000000;3.273604
4057.000000;3.345574
4056.000000;3.273248
4055.000000;3.167255
4054.000000;3.091169
4053.000000;3.043368
4052.000000;3.015149
4051.000000;3.019939
4050.000000;3.064022
4049.000000;3.112580
4048.000000;3.065006
4047.000000;2.959674
4046.000000;2.902844
4045.000000;2.906410
4044.000000;2.972490
4043.000000;3.094832
4042.000000;3.213092
4041.000000;3.235101
4040.000000;3.202184
4039.000000;3.206771
4038.000000;3.242413
4037.000000;3.240048
4036.000000;3.144421
4035.000000;3.009591
4034.000000;2.911549
4033.000000;2.864382
4032.000000;2.849022
4031.000000;2.843422
4030.000000;2.843780
4029.000000;2.866363
4028.000000;2.927422
4027.000000;3.015121
4026.000000;3.077784
4025.000000;3.085540
4024.000000;3.085796
4023.000000;3.124789
4022.000000;3.188778
4021.000000;3.214401
4020.000000;3.181570
4019.000000;3.146118
4018.000000;3.136519
4017.000000;3.138417
4016.000000;3.148591
4015.000000;3.160250
4014.000000;3.115227
4013.000000;2.994861
4012.000000;2.867347
4011.000000;2.780291
4010.000000;2.747407
4009.000000;2.763677
4008.000000;2.812150
4007.000000;2.874445
4006.000000;2.937179
4005.000000;2.990503
4004.000000;3.028184
4003.000000;3.054757
4002.000000;3.082471
4001.000000;3.104279
4000.000000;3.108030
3999.000000;3.123765
3998.000000;3.132641
3997.000000;3.105835
3996.000000;3.114529
3995.000000;3.177261
3994.000000;3.227265
3993.000000;3.197541
3992.000000;3.151725
3991.000000;3.160499
3990.000000;3.205227
3989.000000;3.241102
3988.000000;3.213185
3987.000000;3.142389
3986.000000;3.112660
3985.000000;3.119719
3984.000000;3.099366
3983.000000;3.045340
3982.000000;3.012546
3981.000000;3.031138
3980.000000;3.096519
3979.000000;3.174217
3978.000000;3.167285
3977.000000;3.042219
3976.000000;2.920208
3975.000000;2.869341
3974.000000;2.904310
3973.000000;3.003808
3972.000000;3.090223
3971.000000;3.070414
3970.000000;2.980856
3969.000000;2.918469
3968.000000;2.923235
3967.000000;2.975922
3966.000000;3.018753
3965.000000;3.057314
3964.000000;3.105324
3963.000000;3.105120
3962.000000;3.129018
3961.000000;3.228135
3960.000000;3.362312
3959.000000;3.479384
3958.000000;3.445022
3957.000000;3.403685
3956.000000;3.301999
3955.000000;3.118522
3954.000000;3.000544
3953.000000;2.943016
3952.000000;2.884624
3951.000000;2.825820
3950.000000;2.833816
3949.000000;2.942192
3948.000000;3.118427
3947.000000;3.230881
3946.000000;3.154498
3945.000000;3.025862
3944.000000;2.976879
3943.000000;2.995273
3942.000000;3.058309
3941.000000;3.233276
3940.000000;3.673418
3939.000000;3.732915
3938.000000;3.613225
3937.000000;3.612307
3936.000000;3.417406
3935.000000;3.276706
3934.000000;3.188704
3933.000000;3.123734
3932.000000;3.066672
3931.000000;3.003270
3930.000000;2.947307
3929.000000;2.935562
3928.000000;2.967358
3927.000000;2.998643
3926.000000;3.093266
3925.000000;3.298494
3924.000000;3.072864
3923.000000;2.865140
3922.000000;2.798790
3921.000000;2.836894
3920.000000;2.959119
3919.000000;3.143941
3918.000000;3.320736
3917.000000;3.465071
3916.000000;3.668350
3915.000000;3.374354
3914.000000;3.114216
3913.000000;3.082138
3912.000000;3.143652
3911.000000;3.190963
3910.000000;3.203643
3909.000000;3.316021
3908.000000;3.494884
3907.000000;3.433953
3906.000000;3.411428
3905.000000;3.630401
3904.000000;3.329624
3903.000000;3.168205
3902.000000;3.214921
3901.000000;3.401346
3900.000000;3.645584
3899.000000;3.752215
3898.000000;3.628348
3897.000000;3.338974
3896.000000;3.073088
3895.000000;2.962588
3894.000000;3.075430
3893.000000;3.332727
3892.000000;3.354362
3891.000000;3.278721
3890.000000;3.218017
3889.000000;3.225160
3888.000000;3.328847
3887.000000;3.771112
3886.000000;3.694842
3885.000000;3.252928
3884.000000;3.235456
3883.000000;3.172020
3882.000000;3.067984
3881.000000;3.183857
3880.000000;3.450503
3879.000000;3.414760
3878.000000;3.309269
3877.000000;3.247002
3876.000000;3.213264
3875.000000;2.947418
3874.000000;2.645817
3873.000000;2.480801
3872.000000;2.456371
3871.000000;2.589263
3870.000000;2.927229
3869.000000;3.519118
3868.000000;3.330834
3867.000000;3.172951
3866.000000;3.070137
3865.000000;2.899770
3864.000000;2.855986
3863.000000;2.969582
3862.000000;3.347634
3861.000000;3.325190
3860.000000;2.852730
3859.000000;2.592122
3858.000000;2.418561
3857.000000;2.401077
3856.000000;2.573222
3855.000000;2.790598
3854.000000;2.908008
3853.000000;3.156374
3852.000000;3.976087
3851.000000;3.472620
3850.000000;3.258648
3849.000000;3.238519
3848.000000;3.217411
3847.000000;3.161010
3846.000000;3.090771
3845.000000;3.074326
3844.000000;3.256155
3843.000000;3.680997
3842.000000;3.226934
3841.000000;3.045426
3840.000000;2.970561
3839.000000;2.900708
3838.000000;2.838001
3837.000000;2.837452
3836.000000;2.976600
3835.000000;3.233496
3834.000000;3.108319
3833.000000;2.797318
3832.000000;2.838484
3831.000000;2.957394
3830.000000;3.155273
3829.000000;3.264295
3828.000000;3.078926
3827.000000;3.082624
3826.000000;2.839008
3825.000000;2.615969
3824.000000;2.633853
3823.000000;2.727164
3822.000000;2.720224
3821.000000;2.816446
3820.000000;3.109647
3819.000000;3.237759
3818.000000;2.751774
3817.000000;2.568989
3816.000000;2.648023
3815.000000;2.840217
3814.000000;3.051759
3813.000000;3.338629
3812.000000;3.089688
3811.000000;2.688560
3810.000000;2.551297
3809.000000;2.534754
3808.000000;2.599533
3807.000000;2.639343
3806.000000;3.017246
3805.000000;3.152053
3804.000000;3.315412
3803.000000;2.819256
3802.000000;2.614420
3801.000000;2.442068
3800.000000;2.520386
3799.000000;2.770470
3798.000000;2.866771
3797.000000;2.861886
3796.000000;2.922099
3795.000000;3.030383
3794.000000;3.242181
3793.000000;4.192622
3792.000000;3.169426
3791.000000;2.893188
3790.000000;2.778816
3789.000000;2.748423
3788.000000;2.819919
3787.000000;2.994295
3786.000000;2.877484
3785.000000;2.651318
3784.000000;2.549070
3783.000000;2.556857
3782.000000;2.679377
3781.000000;2.932048
3780.000000;3.097494
3779.000000;3.004660
3778.000000;2.986308
3777.000000;2.999048
3776.000000;2.968753
3775.000000;2.946284
3774.000000;3.011609
3773.000000;2.973548
3772.000000;2.817851
3771.000000;2.782002
3770.000000;2.852345
3769.000000;2.916551
3768.000000;2.986061
3767.000000;3.230695
3766.000000;3.606846
3765.000000;3.529475
3764.000000;3.375013
3763.000000;3.281158
3762.000000;3.291978
3761.000000;3.607290
3760.000000;3.238357
3759.000000;2.912059
3758.000000;2.883838
3757.000000;3.137846
3756.000000;3.635179
3755.000000;3.216016
3754.000000;3.028456
3753.000000;3.014257
3752.000000;3.210247
3751.000000;3.700655
3750.000000;3.694032
3749.000000;3.875181
3748.000000;3.653718
3747.000000;4.321174
3746.000000;3.427835
3745.000000;2.992650
3744.000000;2.833082
3743.000000;2.782790
3742.000000;2.750040
3741.000000;2.889752
3740.000000;2.395987
3739.000000;2.408418
3738.000000;2.385926
3737.000000;2.284913
3736.000000;2.269862
3735.000000;2.338049
3734.000000;2.429731
3733.000000;2.514130
3732.000000;2.581913
3731.000000;2.661568
3730.000000;2.947032
3729.000000;2.996032
3728.000000;2.692781
3727.000000;2.514742
3726.000000;2.253871
3725.000000;2.064735
3724.000000;1.988943
3723.000000;2.055265
3722.000000;2.257791
3721.000000;2.903452
3720.000000;2.930253
3719.000000;2.641458
3718.000000;2.745227
3717.000000;2.872375
3716.000000;2.753945
3715.000000;2.574201
3714.000000;2.564587
3713.000000;2.914350
3712.000000;2.471932
3711.000000;2.278959
3710.000000;2.319964
3709.000000;2.470348
3708.000000;2.750495
3707.000000;3.008989
3706.000000;2.970300
3705.000000;3.207755
3704.000000;3.162404
3703.000000;3.080080
3702.000000;2.938171
3701.000000;2.727693
3700.000000;2.629012
3699.000000;2.692406
3698.000000;2.657892
3697.000000;2.474342
3696.000000;2.349691
3695.000000;2.565948
3694.000000;2.737223
3693.000000;2.984844
3692.000000;3.228738
3691.000000;3.024101
3690.000000;2.976316
3689.000000;3.357843
3688.000000;3.166413
3687.000000;2.862353
3686.000000;2.836381
3685.000000;2.794819
3684.000000;2.701839
3683.000000;2.466789
3682.000000;2.530490
3681.000000;2.691149
3680.000000;2.402373
3679.000000;2.213438
3678.000000;2.153746
3677.000000;2.837396
3676.000000;2.435157
3675.000000;2.239760
3674.000000;2.121478
3673.000000;2.009751
3672.000000;2.080433
3671.000000;2.545205
3670.000000;2.867693
3669.000000;2.746289
3668.000000;2.826888
3667.000000;2.810753
3666.000000;2.683468
3665.000000;2.487622
3664.000000;2.354205
3663.000000;2.337193
3662.000000;2.451289
3661.000000;2.658394
3660.000000;2.730429
3659.000000;2.656841
3658.000000;2.616827
3657.000000;2.565877
3656.000000;2.447577
3655.000000;2.313533
3654.000000;2.233861
3653.000000;2.223182
3652.000000;2.281927
3651.000000;2.430249
3650.000000;2.282071
3649.000000;2.216657
3648.000000;2.332341
3647.000000;2.338421
3646.000000;2.258577
3645.000000;2.244783
3644.000000;2.392337
3643.000000;2.610775
3642.000000;2.559177
3641.000000;2.426653
3640.000000;2.335842
3639.000000;2.279678
3638.000000;2.317602
3637.000000;2.431537
3636.000000;2.541012
3635.000000;2.591574
3634.000000;2.795156
3633.000000;3.248328
3632.000000;2.835115
3631.000000;2.849965
3630.000000;3.058556
3629.000000;3.106123
3628.000000;2.985492
3627.000000;2.920893
3626.000000;2.859637
3625.000000;2.766693
3624.000000;2.766767
3623.000000;2.860131
3622.000000;2.961215
3621.000000;2.987123
3620.000000;2.801571
3619.000000;2.626069
3618.000000;2.395531
3617.000000;2.090557
3616.000000;1.878605
3615.000000;1.873833
3614.000000;2.130464
3613.000000;2.766558
3612.000000;2.745578
3611.000000;2.645289
3610.000000;2.755883
3609.000000;2.536137
3608.000000;2.304014
3607.000000;2.216562
3606.000000;2.289724
3605.000000;2.555402
3604.000000;2.674069
3603.000000;2.374328
3602.000000;2.250505
3601.000000;2.223195
3600.000000;2.243837
3599.000000;2.397279
3598.000000;2.728969
3597.000000;2.515247
3596.000000;2.383583
3595.000000;2.529434
3594.000000;2.689800
3593.000000;2.842113
3592.000000;2.719049
3591.000000;2.351385
3590.000000;2.170038
3589.000000;2.074726
3588.000000;2.045761
3587.000000;2.079316
3586.000000;2.118922
3585.000000;2.131687
3584.000000;2.121353
3583.000000;2.088174
3582.000000;2.031519
3581.000000;1.962608
3580.000000;1.937896
3579.000000;2.003263
3578.000000;2.196564
3577.000000;2.526960
3576.000000;2.455914
3575.000000;2.256872
3574.000000;2.179541
3573.000000;2.150806
3572.000000;2.147746
3571.000000;2.133435
3570.000000;2.069161
3569.000000;1.998775
3568.000000;2.052487
3567.000000;2.336066
3566.000000;2.434023
3565.000000;2.421618
3564.000000;2.356492
3563.000000;2.199119
3562.000000;2.207278
3561.000000;2.428295
3560.000000;2.979959
3559.000000;2.615960
3558.000000;2.434848
3557.000000;2.478445
3556.000000;2.474539
3555.000000;2.376121
3554.000000;2.314628
3553.000000;2.441046
3552.000000;2.244243
3551.000000;2.118095
3550.000000;2.241520
3549.000000;2.510473
3548.000000;2.605144
3547.000000;2.507587
3546.000000;2.310099
3545.000000;2.187026
3544.000000;2.191068
3543.000000;2.213743
3542.000000;2.256593
3541.000000;2.401969
3540.000000;2.534600
3539.000000;2.571066
3538.000000;2.732569
3537.000000;2.731621
3536.000000;2.456794
3535.000000;2.285063
3534.000000;2.237935
3533.000000;2.283177
3532.000000;2.403542
3531.000000;2.636297
3530.000000;2.661461
3529.000000;2.401364
3528.000000;2.355105
3527.000000;2.226264
3526.000000;2.100112
3525.000000;2.140722
3524.000000;2.337627
3523.000000;2.674488
3522.000000;2.875942
3521.000000;2.692634
3520.000000;2.470409
3519.000000;2.303359
3518.000000;2.252474
3517.000000;2.308526
3516.000000;2.455878
3515.000000;2.633895
3514.000000;2.927643
3513.000000;3.184563
3512.000000;2.695977
3511.000000;2.519801
3510.000000;2.532708
3509.000000;2.506930
3508.000000;2.363333
3507.000000;2.257054
3506.000000;2.287913
3505.000000;2.507048
3504.000000;2.441426
3503.000000;2.267696
3502.000000;2.250988
3501.000000;2.268263
3500.000000;2.235681
3499.000000;2.214862
3498.000000;2.277281
3497.000000;2.374787
3496.000000;2.455489
3495.000000;2.556444
3494.000000;2.665891
3493.000000;2.781642
3492.000000;2.835454
3491.000000;2.856084
3490.000000;2.857447
3489.000000;2.728414
3488.000000;2.721383
3487.000000;2.862932
3486.000000;2.844528
3485.000000;2.533994
3484.000000;2.269210
3483.000000;2.175918
3482.000000;2.248414
3481.000000;2.477586
3480.000000;2.621584
3479.000000;2.465300
3478.000000;2.355506
3477.000000;2.412955
3476.000000;2.869686
3475.000000;2.622590
3474.000000;2.397159
3473.000000;2.473599
3472.000000;2.610756
3471.000000;2.524273
3470.000000;2.459168
3469.000000;2.535861
3468.000000;2.670824
3467.000000;2.922063
3466.000000;3.292240
3465.000000;2.925219
3464.000000;2.792027
3463.000000;2.760479
3462.000000;2.789733
3461.000000;2.795505
3460.000000;2.852085
3459.000000;3.138830
3458.000000;2.985253
3457.000000;2.694487
3456.000000;2.677211
3455.000000;2.831054
3454.000000;3.290962
3453.000000;3.159132
3452.000000;2.749638
3451.000000;2.583983
3450.000000;2.475569
3449.000000;2.355260
3448.000000;2.323092
3447.000000;2.474914
3446.000000;2.918467
3445.000000;3.117496
3444.000000;2.837592
3443.000000;2.838628
3442.000000;2.858220
3441.000000;2.815752
3440.000000;3.081530
3439.000000;3.697266
3438.000000;2.917533
3437.000000;2.915336
3436.000000;2.878252
3435.000000;2.671572
3434.000000;2.699871
3433.000000;2.855766
3432.000000;2.910751
3431.000000;3.062964
3430.000000;3.397456
3429.000000;3.004965
3428.000000;2.727308
3427.000000;2.645377
3426.000000;2.634478
3425.000000;2.690596
3424.000000;2.803274
3423.000000;2.864718
3422.000000;2.786428
3421.000000;2.794155
3420.000000;2.974807
3419.000000;3.066381
3418.000000;2.920134
3417.000000;2.658539
3416.000000;2.516896
3415.000000;2.522810
3414.000000;2.707671
3413.000000;3.225188
3412.000000;3.049108
3411.000000;2.870262
3410.000000;3.128953
3409.000000;3.350109
3408.000000;2.925845
3407.000000;2.593362
3406.000000;2.479042
3405.000000;2.542552
3404.000000;2.761453
3403.000000;3.171068
3402.000000;2.971784
3401.000000;2.726649
3400.000000;2.890161
3399.000000;2.934344
3398.000000;2.690024
3397.000000;2.660148
3396.000000;2.926896
3395.000000;3.283306
3394.000000;2.864555
3393.000000;2.770824
3392.000000;2.966768
3391.000000;3.249675
3390.000000;3.474442
3389.000000;3.993225
3388.000000;3.512550
3387.000000;3.300145
3386.000000;3.072931
3385.000000;2.973885
3384.000000;3.060233
3383.000000;3.034478
3382.000000;2.832833
3381.000000;2.775312
3380.000000;3.014889
3379.000000;3.427138
3378.000000;3.203216
3377.000000;3.062275
3376.000000;2.919435
3375.000000;2.921483
3374.000000;2.986002
3373.000000;2.879844
3372.000000;2.747877
3371.000000;2.687615
3370.000000;2.713087
3369.000000;2.791548
3368.000000;2.826161
3367.000000;2.829845
3366.000000;2.886200
3365.000000;3.120036
3364.000000;3.760091
3363.000000;3.249249
3362.000000;2.890653
3361.000000;2.742343
3360.000000;2.782007
3359.000000;2.918503
3358.000000;2.962637
3357.000000;3.022028
3356.000000;3.057297
3355.000000;2.861345
3354.000000;2.732747
3353.000000;2.747965
3352.000000;3.026371
3351.000000;3.304095
3350.000000;3.054709
3349.000000;3.092517
3348.000000;3.447810
3347.000000;3.364498
3346.000000;3.010602
3345.000000;2.880335
3344.000000;2.883780
3343.000000;2.954984
3342.000000;2.811049
3341.000000;2.681655
3340.000000;2.782168
3339.000000;3.146508
3338.000000;2.890359
3337.000000;2.645429
3336.000000;2.564513
3335.000000;2.549505
3334.000000;2.576639
3333.000000;2.695233
3332.000000;2.865185
3331.000000;2.787826
3330.000000;2.783674
3329.000000;3.062792
3328.000000;3.389516
3327.000000;3.336897
3326.000000;3.196749
3325.000000;2.946795
3324.000000;3.038395
3323.000000;3.102762
3322.000000;2.859359
3321.000000;2.843620
3320.000000;2.984951
3319.000000;2.945201
3318.000000;2.828817
3317.000000;2.843668
3316.000000;3.041131
3315.000000;3.523571
3314.000000;3.260976
3313.000000;3.000913
3312.000000;2.917798
3311.000000;2.837412
3310.000000;2.725212
3309.000000;2.657561
3308.000000;2.704445
3307.000000;2.836592
3306.000000;2.845491
3305.000000;2.750061
3304.000000;2.734468
3303.000000;2.889279
3302.000000;3.335725
3301.000000;3.416863
3300.000000;3.215892
3299.000000;3.057878
3298.000000;2.828276
3297.000000;2.693918
3296.000000;2.603049
3295.000000;2.592112
3294.000000;2.675256
3293.000000;2.830938
3292.000000;2.917526
3291.000000;2.922368
3290.000000;2.995072
3289.000000;2.936409
3288.000000;2.857806
3287.000000;2.963133
3286.000000;2.996498
3285.000000;2.860435
3284.000000;2.864843
3283.000000;2.910546
3282.000000;2.817668
3281.000000;2.722724
3280.000000;2.609445
3279.000000;2.512032
3278.000000;2.522499
3277.000000;2.653678
3276.000000;2.885899
3275.000000;3.191050
3274.000000;3.195090
3273.000000;2.897734
3272.000000;2.664563
3271.000000;2.562342
3270.000000;2.625564
3269.000000;2.836582
3268.000000;3.071953
3267.000000;2.955755
3266.000000;2.844412
3265.000000;2.821425
3264.000000;2.711004
3263.000000;2.663347
3262.000000;2.740404
3261.000000;2.903823
3260.000000;3.134788
3259.000000;3.077952
3258.000000;2.834316
3257.000000;2.730565
3256.000000;2.848774
3255.000000;3.366639
3254.000000;3.159005
3253.000000;2.781385
3252.000000;2.643822
3251.000000;2.648202
3250.000000;2.868807
3249.000000;3.111437
3248.000000;3.002875
3247.000000;3.301062
3246.000000;3.541216
3245.000000;3.082469
3244.000000;2.860694
3243.000000;2.677686
3242.000000;2.601000
3241.000000;2.577516
3240.000000;2.567230
3239.000000;2.597486
3238.000000;2.744922
3237.000000;3.164885
3236.000000;3.455150
3235.000000;3.184635
3234.000000;3.012453
3233.000000;2.916315
3232.000000;2.853017
3231.000000;2.717739
3230.000000;2.583705
3229.000000;2.539188
3228.000000;2.603831
3227.000000;2.779301
3226.000000;3.109099
3225.000000;3.667488
3224.000000;3.378354
3223.000000;3.145541
3222.000000;3.123456
3221.000000;3.047940
3220.000000;2.944083
3219.000000;2.950619
3218.000000;3.065929
3217.000000;3.039001
3216.000000;2.907728
3215.000000;2.921685
3214.000000;3.011407
3213.000000;2.967166
3212.000000;2.832367
3211.000000;2.846071
3210.000000;2.962309
3209.000000;2.786458
3208.000000;2.658656
3207.000000;2.723376
3206.000000;2.976580
3205.000000;3.047766
3204.000000;2.832199
3203.000000;2.796000
3202.000000;2.864558
3201.000000;2.954074
3200.000000;2.986055
3199.000000;3.209954
3198.000000;3.716752
3197.000000;2.958560
3196.000000;2.840137
3195.000000;2.902735
3194.000000;2.918451
3193.000000;2.828008
3192.000000;2.716426
3191.000000;2.678124
3190.000000;2.748402
3189.000000;3.117205
3188.000000;3.192160
3187.000000;2.866696
3186.000000;2.844418
3185.000000;2.833681
3184.000000;2.814778
3183.000000;2.772424
3182.000000;2.740477
3181.000000;2.782960
3180.000000;2.865354
3179.000000;2.945013
3178.000000;2.911121
3177.000000;2.837975
3176.000000;2.888333
3175.000000;3.140813
3174.000000;3.145889
3173.000000;2.936384
3172.000000;2.921059
3171.000000;2.935962
3170.000000;2.905039
3169.000000;2.869779
3168.000000;2.813200
3167.000000;2.736693
3166.000000;2.716433
3165.000000;2.791821
3164.000000;2.899545
3163.000000;3.021261
3162.000000;3.200898
3161.000000;3.143978
3160.000000;2.976356
3159.000000;2.950816
3158.000000;3.085930
3157.000000;3.115429
3156.000000;2.840297
3155.000000;2.653359
3154.000000;2.598057
3153.000000;2.642282
3152.000000;2.784023
3151.000000;2.987116
3150.000000;2.988254
3149.000000;2.856766
3148.000000;2.791324
3147.000000;2.789451
3146.000000;2.833906
3145.000000;2.886152
3144.000000;2.894870
3143.000000;2.820892
3142.000000;2.748998
3141.000000;2.757289
3140.000000;2.871437
3139.000000;3.132059
3138.000000;3.262780
3137.000000;3.036149
3136.000000;2.850443
3135.000000;2.751954
3134.000000;2.795612
3133.000000;3.047178
3132.000000;3.172593
3131.000000;2.912794
3130.000000;2.767563
3129.000000;2.694428
3128.000000;2.663470
3127.000000;2.729659
3126.000000;2.913092
3125.000000;3.150410
3124.000000;3.294473
3123.000000;3.282685
3122.000000;3.099693
3121.000000;2.859984
3120.000000;2.686994
3119.000000;2.644594
3118.000000;2.758703
3117.000000;2.958601
3116.000000;2.947494
3115.000000;2.838315
3114.000000;2.836722
3113.000000;2.909190
3112.000000;2.972137
3111.000000;2.984408
3110.000000;2.844203
3109.000000;2.718255
3108.000000;2.761871
3107.000000;2.920823
3106.000000;3.136402
3105.000000;3.017302
3104.000000;2.798183
3103.000000;2.717128
3102.000000;2.685877
3101.000000;2.749404
3100.000000;2.989291
3099.000000;3.113030
3098.000000;2.930664
3097.000000;2.904007
3096.000000;2.905243
3095.000000;2.796571
3094.000000;2.772319
3093.000000;2.741005
3092.000000;2.656675
3091.000000;2.674227
3090.000000;2.785029
3089.000000;2.870096
3088.000000;2.946154
3087.000000;3.088833
3086.000000;3.265677
3085.000000;3.409634
3084.000000;3.254990
3083.000000;3.034876
3082.000000;3.015547
3081.000000;3.125482
3080.000000;3.171739
3079.000000;3.216232
3078.000000;3.488672
3077.000000;4.067735
3076.000000;3.816142
3075.000000;3.430418
3074.000000;3.367409
3073.000000;3.411388
3072.000000;3.131897
3071.000000;2.930139
3070.000000;2.876858
3069.000000;2.917212
3068.000000;3.095239
3067.000000;3.413860
3066.000000;3.343688
3065.000000;3.144372
3064.000000;3.338926
3063.000000;3.616148
3062.000000;3.176779
3061.000000;3.336356
3060.000000;3.678982
3059.000000;3.047773
3058.000000;2.754765
3057.000000;2.662634
3056.000000;2.694746
3055.000000;2.753201
3054.000000;2.774374
3053.000000;2.767727
3052.000000;2.776805
3051.000000;2.869900
3050.000000;3.151428
3049.000000;3.167282
3048.000000;2.912597
3047.000000;2.921412
3046.000000;3.194822
3045.000000;3.557214
3044.000000;3.570434
3043.000000;3.248096
3042.000000;2.996100
3041.000000;2.830079
3040.000000;2.728821
3039.000000;2.734213
3038.000000;2.796084
3037.000000;2.784314
3036.000000;2.836164
3035.000000;3.048214
3034.000000;3.046331
3033.000000;3.028576
3032.000000;3.225236
3031.000000;3.196776
3030.000000;3.096407
3029.000000;3.039159
3028.000000;3.072865
3027.000000;3.160720
3026.000000;3.385580
3025.000000;3.498753
3024.000000;2.969494
3023.000000;2.745646
3022.000000;2.759585
3021.000000;2.940703
3020.000000;3.249615
3019.000000;3.593839
3018.000000;3.157094
3017.000000;2.776133
3016.000000;2.622741
3015.000000;2.601854
3014.000000;2.670422
3013.000000;2.804469
3012.000000;3.085985
3011.000000;3.423378
3010.000000;3.462882
3009.000000;3.553803
3008.000000;3.312298
3007.000000;3.101107
3006.000000;3.029059
3005.000000;3.104846
3004.000000;3.255654
3003.000000;3.251800
3002.000000;3.179492
3001.000000;3.176017
3000.000000;3.165119
2999.000000;3.051775
2998.000000;2.920408
2997.000000;2.926391
2996.000000;3.163061
2995.000000;3.460686
2994.000000;3.519221
2993.000000;3.273615
2992.000000;3.161690
2991.000000;3.424175
2990.000000;3.936335
2989.000000;3.807597
2988.000000;3.469317
2987.000000;3.214868
2986.000000;3.099031
2985.000000;3.256367
2984.000000;3.674194
2983.000000;3.237204
2982.000000;3.191163
2981.000000;3.396634
2980.000000;3.306366
2979.000000;3.542439
2978.000000;3.563368
2977.000000;2.963720
2976.000000;2.797837
2975.000000;2.775679
2974.000000;2.826183
2973.000000;2.918127
2972.000000;3.016806
2971.000000;3.102676
2970.000000;3.054601
2969.000000;3.069557
2968.000000;3.284796
2967.000000;3.258444
2966.000000;3.170933
2965.000000;3.458079
2964.000000;3.794866
2963.000000;3.301694
2962.000000;3.053227
2961.000000;2.936019
2960.000000;2.880907
2959.000000;2.885939
2958.000000;2.905664
2957.000000;2.893833
2956.000000;2.870652
2955.000000;2.934495
2954.000000;3.177227
2953.000000;3.314066
2952.000000;3.157901
2951.000000;3.113976
2950.000000;3.039987
2949.000000;2.950585
2948.000000;2.949757
2947.000000;3.175125
2946.000000;3.462056
2945.000000;3.409129
2944.000000;3.788692
2943.000000;3.470135
2942.000000;3.122032
2941.000000;3.003449
2940.000000;2.914115
2939.000000;2.943996
2938.000000;3.159020
2937.000000;3.390726
2936.000000;3.391578
2935.000000;3.360674
2934.000000;3.179637
2933.000000;3.119589
2932.000000;3.195265
2931.000000;3.184762
2930.000000;3.013008
2929.000000;2.979303
2928.000000;3.041441
2927.000000;2.905815
2926.000000;2.801167
2925.000000;2.839340
2924.000000;3.022409
2923.000000;3.407573
2922.000000;3.407311
2921.000000;3.109859
2920.000000;3.010969
2919.000000;3.030802
2918.000000;3.166987
2917.000000;3.237711
2916.000000;3.134672
2915.000000;2.877050
2914.000000;2.707137
2913.000000;2.687774
2912.000000;2.894584
2911.000000;3.645063
2910.000000;3.135231
2909.000000;2.868003
2908.000000;2.858626
2907.000000;2.962293
2906.000000;3.330040
2905.000000;3.415340
2904.000000;3.271935
2903.000000;3.127522
2902.000000;2.985355
2901.000000;3.045929
2900.000000;3.289096
2899.000000;3.261556
2898.000000;2.968051
2897.000000;2.832326
2896.000000;2.848126
2895.000000;3.116182
2894.000000;3.490974
2893.000000;3.136825
2892.000000;3.021380
2891.000000;3.084048
2890.000000;3.074623
2889.000000;3.009898
2888.000000;3.037229
2887.000000;3.201542
2886.000000;3.233809
2885.000000;3.085754
2884.000000;3.008174
2883.000000;2.993482
2882.000000;3.052642
2881.000000;3.203983
2880.000000;3.294268
2879.000000;3.293758
2878.000000;3.234650
2877.000000;3.100880
2876.000000;2.967001
2875.000000;2.978842
2874.000000;3.098508
2873.000000;2.975963
2872.000000;2.853227
2871.000000;2.930459
2870.000000;3.192624
2869.000000;3.318833
2868.000000;3.223808
2867.000000;3.336376
2866.000000;3.428350
2865.000000;3.096904
2864.000000;2.839904
2863.000000;2.735542
2862.000000;2.788690
2861.000000;3.053099
2860.000000;3.025791
2859.000000;2.840699
2858.000000;2.995702
2857.000000;3.237313
2856.000000;3.097569
2855.000000;3.098695
2854.000000;2.934285
2853.000000;2.793004
2852.000000;2.869779
2851.000000;2.994978
2850.000000;2.882888
2849.000000;2.705118
2848.000000;2.623137
2847.000000;2.630839
2846.000000;2.703095
2845.000000;2.767218
2844.000000;2.794227
2843.000000;2.857871
2842.000000;2.941533
2841.000000;3.032891
2840.000000;3.436173
2839.000000;3.714673
2838.000000;3.199405
2837.000000;3.077451
2836.000000;3.107296
2835.000000;3.265366
2834.000000;3.261561
2833.000000;3.098148
2832.000000;3.285768
2831.000000;3.467441
2830.000000;2.990779
2829.000000;2.859671
2828.000000;2.932734
2827.000000;3.019599
2826.000000;3.080964
2825.000000;3.082430
2824.000000;3.092905
2823.000000;3.056921
2822.000000;2.955412
2821.000000;2.909160
2820.000000;2.985930
2819.000000;3.038473
2818.000000;2.890187
2817.000000;2.827151
2816.000000;2.900558
2815.000000;2.875832
2814.000000;2.791660
2813.000000;2.789942
2812.000000;2.811825
2811.000000;2.838761
2810.000000;2.796248
2809.000000;2.706332
2808.000000;2.685834
2807.000000;2.733162
2806.000000;2.843871
2805.000000;3.008460
2804.000000;3.101755
2803.000000;3.150876
2802.000000;3.377464
2801.000000;3.474415
2800.000000;3.233019
2799.000000;3.218758
2798.000000;3.230121
2797.000000;3.172934
2796.000000;3.247006
2795.000000;3.159151
2794.000000;2.934899
2793.000000;2.810556
2792.000000;2.786850
2791.000000;2.997430
2790.000000;3.504054
2789.000000;3.316441
2788.000000;3.050034
2787.000000;2.937653
2786.000000;3.001416
2785.000000;3.212095
2784.000000;3.172656
2783.000000;3.143317
2782.000000;3.286416
2781.000000;3.309799
2780.000000;3.503184
2779.000000;3.796472
2778.000000;3.698016
2777.000000;3.636167
2776.000000;3.159201
2775.000000;3.093730
2774.000000;3.346577
2773.000000;3.270751
2772.000000;3.254544
2771.000000;3.101872
2770.000000;2.884064
2769.000000;2.813735
2768.000000;2.825372
2767.000000;2.979320
2766.000000;3.343434
2765.000000;3.488096
2764.000000;3.445510
2763.000000;3.492603
2762.000000;3.293688
2761.000000;3.126236
2760.000000;3.101887
2759.000000;3.130446
2758.000000;3.126450
2757.000000;3.107928
2756.000000;2.944664
2755.000000;2.779340
2754.000000;2.801858
2753.000000;3.095667
2752.000000;3.394208
2751.000000;3.115275
2750.000000;2.939627
2749.000000;2.954572
2748.000000;3.167725
2747.000000;3.188096
2746.000000;2.965070
2745.000000;2.878812
2744.000000;2.839761
2743.000000;2.798850
2742.000000;2.790930
2741.000000;2.792087
2740.000000;2.787722
2739.000000;2.986290
2738.000000;3.478472
2737.000000;3.305487
2736.000000;3.096428
2735.000000;2.910738
2734.000000;2.787143
2733.000000;2.788389
2732.000000;2.879716
2731.000000;3.105487
2730.000000;3.377185
2729.000000;3.262191
2728.000000;2.980479
2727.000000;2.913987
2726.000000;3.034716
2725.000000;3.246583
2724.000000;3.255222
2723.000000;3.293426
2722.000000;3.520003
2721.000000;3.155608
2720.000000;2.917099
2719.000000;3.025896
2718.000000;3.431121
2717.000000;2.995432
2716.000000;2.753079
2715.000000;2.747522
2714.000000;2.806068
2713.000000;2.874388
2712.000000;3.009308
2711.000000;3.117287
2710.000000;3.010466
2709.000000;3.035621
2708.000000;3.232513
2707.000000;3.591362
2706.000000;3.643462
2705.000000;3.379578
2704.000000;3.243773
2703.000000;3.172549
2702.000000;3.196901
2701.000000;3.332737
2700.000000;3.664908
2699.000000;3.521693
2698.000000;3.292782
2697.000000;3.471427
2696.000000;4.007017
2695.000000;4.284694
2694.000000;3.442704
2693.000000;3.028403
2692.000000;2.987387
2691.000000;3.204260
2690.000000;3.127895
2689.000000;3.071838
2688.000000;3.440690
2687.000000;3.260688
2686.000000;2.991332
2685.000000;3.093061
2684.000000;3.360062
2683.000000;3.504903
2682.000000;3.521239
2681.000000;3.414297
2680.000000;3.192769
2679.000000;3.045638
2678.000000;3.011004
2677.000000;3.246453
2676.000000;3.404156
2675.000000;3.145027
2674.000000;3.178220
2673.000000;3.104334
2672.000000;2.923394
2671.000000;2.882554
2670.000000;2.882087
2669.000000;2.870327
2668.000000;2.866859
2667.000000;2.938631
2666.000000;3.104168
2665.000000;3.218661
2664.000000;3.315294
2663.000000;3.483971
2662.000000;3.504191
2661.000000;3.417571
2660.000000;3.200508
2659.000000;3.003235
2658.000000;2.935090
2657.000000;2.951167
2656.000000;2.958091
2655.000000;2.949183
2654.000000;2.948071
2653.000000;2.915370
2652.000000;2.917850
2651.000000;3.024536
2650.000000;3.225630
2649.000000;3.336619
2648.000000;3.152866
2647.000000;2.989927
2646.000000;2.986863
2645.000000;3.114119
2644.000000;3.213476
2643.000000;3.174592
2642.000000;3.243543
2641.000000;3.592365
2640.000000;3.593518
2639.000000;3.479803
2638.000000;3.638437
2637.000000;3.353310
2636.000000;3.214695
2635.000000;3.528744
2634.000000;3.499201
2633.000000;3.053054
2632.000000;2.939991
2631.000000;2.992227
2630.000000;3.104054
2629.000000;3.137814
2628.000000;3.289941
2627.000000;3.506504
2626.000000;3.360510
2625.000000;3.476868
2624.000000;3.367284
2623.000000;3.176246
2622.000000;3.148729
2621.000000;3.060605
2620.000000;3.037235
2619.000000;3.075758
2618.000000;3.151923
2617.000000;3.095186
2616.000000;2.980834
2615.000000;3.018434
2614.000000;3.174814
2613.000000;3.492684
2612.000000;3.231201
2611.000000;3.036760
2610.000000;3.181394
2609.000000;3.105837
2608.000000;3.059776
2607.000000;3.348075
2606.000000;3.491495
2605.000000;3.455604
2604.000000;3.349941
2603.000000;3.226951
2602.000000;3.254881
2601.000000;3.149851
2600.000000;3.190393
2599.000000;3.307666
2598.000000;3.173625
2597.000000;3.242666
2596.000000;3.252535
2595.000000;3.159796
2594.000000;3.491136
2593.000000;3.483400
2592.000000;3.113421
2591.000000;3.123907
2590.000000;3.183083
2589.000000;3.311818
2588.000000;3.361248
2587.000000;3.281402
2586.000000;3.408736
2585.000000;3.055016
2584.000000;2.872479
2583.000000;2.911609
2582.000000;3.082956
2581.000000;3.243891
2580.000000;2.982277
2579.000000;2.824039
2578.000000;3.077774
2577.000000;3.424364
2576.000000;3.014806
2575.000000;3.046509
2574.000000;3.106382
2573.000000;3.135301
2572.000000;3.355596
2571.000000;3.654280
2570.000000;3.689091
2569.000000;3.295956
2568.000000;3.223226
2567.000000;3.315306
2566.000000;3.108504
2565.000000;2.903931
2564.000000;2.833832
2563.000000;2.962041
2562.000000;3.240195
2561.000000;3.362120
2560.000000;3.960828
2559.000000;3.203282
2558.000000;2.930454
2557.000000;3.073200
2556.000000;3.491664
2555.000000;4.237886
2554.000000;3.560548
2553.000000;3.449175
2552.000000;3.776989
2551.000000;3.556420
2550.000000;3.222486
2549.000000;3.296354
2548.000000;3.610609
2547.000000;3.428511
2546.000000;3.213217
2545.000000;3.180268
2544.000000;3.136545
2543.000000;3.030897
2542.000000;3.038805
2541.000000;3.197124
2540.000000;3.069837
2539.000000;2.919179
2538.000000;3.146243
2537.000000;3.543331
2536.000000;3.301281
2535.000000;3.225253
2534.000000;3.250963
2533.000000;3.534108
2532.000000;3.576162
2531.000000;3.225369
2530.000000;3.242922
2529.000000;3.295898
2528.000000;3.210971
2527.000000;3.178108
2526.000000;3.153735
2525.000000;3.051926
2524.000000;2.976954
2523.000000;2.993857
2522.000000;3.365594
2521.000000;3.853113
2520.000000;3.705138
2519.000000;3.682537
2518.000000;3.111703
2517.000000;3.016756
2516.000000;3.158260
2515.000000;3.135457
2514.000000;3.113967
2513.000000;3.501277
2512.000000;3.576238
2511.000000;3.350223
2510.000000;3.374527
2509.000000;3.380553
2508.000000;3.720669
2507.000000;3.726979
2506.000000;3.284488
2505.000000;2.972839
2504.000000;2.940236
2503.000000;3.306299
2502.000000;3.563842
2501.000000;3.220275
2500.000000;3.185681
2499.000000;3.427522
2498.000000;3.799281
2497.000000;3.718654
2496.000000;3.592306
2495.000000;3.311057
2494.000000;3.164862
2493.000000;3.147924
2492.000000;3.225003
2491.000000;3.461178
2490.000000;3.657752
2489.000000;3.658809
2488.000000;3.615307
2487.000000;3.542487
2486.000000;3.372906
2485.000000;3.160382
2484.000000;2.988956
2483.000000;2.902306
2482.000000;2.977714
2481.000000;3.192449
2480.000000;3.381817
2479.000000;3.223901
2478.000000;3.160181
2477.000000;3.563656
2476.000000;3.190640
2475.000000;2.869341
2474.000000;2.871848
2473.000000;2.884683
2472.000000;2.872411
2471.000000;2.918055
2470.000000;2.909333
2469.000000;2.893181
2468.000000;2.958310
2467.000000;3.084868
2466.000000;3.336369
2465.000000;3.526368
2464.000000;3.258547
2463.000000;2.994886
2462.000000;2.929466
2461.000000;3.046073
2460.000000;3.246972
2459.000000;3.313127
2458.000000;3.286489
2457.000000;3.493730
2456.000000;3.342945
2455.000000;3.145332
2454.000000;3.472634
2453.000000;3.430861
2452.000000;3.021595
2451.000000;2.995439
2450.000000;3.097872
2449.000000;3.087370
2448.000000;3.244664
2447.000000;3.554282
2446.000000;3.357757
2445.000000;3.167835
2444.000000;3.024703
2443.000000;3.025458
2442.000000;3.333105
2441.000000;3.782120
2440.000000;3.419686
2439.000000;3.177691
2438.000000;3.135631
2437.000000;3.328703
2436.000000;3.792768
2435.000000;3.941838
2434.000000;3.670125
2433.000000;3.561350
2432.000000;3.411437
2431.000000;3.235969
2430.000000;3.177804
2429.000000;3.286360
2428.000000;3.453494
2427.000000;3.579461
2426.000000;3.818156
2425.000000;3.538795
2424.000000;3.351615
2423.000000;3.396190
2422.000000;3.477573
2421.000000;3.719613
2420.000000;4.042304
2419.000000;3.340393
2418.000000;3.016266
2417.000000;2.972612
2416.000000;3.233089
2415.000000;3.828930
2414.000000;3.463744
2413.000000;3.172301
2412.000000;3.203665
2411.000000;3.456871
2410.000000;3.272051
2409.000000;3.149630
2408.000000;3.121992
2407.000000;2.959474
2406.000000;2.967916
2405.000000;3.101352
2404.000000;3.129235
2403.000000;3.148152
2402.000000;3.217814
2401.000000;3.174483
2400.000000;3.037534
2399.000000;3.011572
2398.000000;3.183458
2397.000000;3.626214
2396.000000;3.904619
2395.000000;3.351495
2394.000000;3.083565
2393.000000;3.054458
2392.000000;3.122918
2391.000000;3.042410
2390.000000;3.034487
2389.000000;3.337008
2388.000000;3.358651
2387.000000;3.127052
2386.000000;3.143786
2385.000000;3.205935
2384.000000;3.226870
2383.000000;3.088820
2382.000000;2.938173
2381.000000;2.909613
2380.000000;2.943502
2379.000000;2.990828
2378.000000;3.047746
2377.000000;3.144909
2376.000000;3.267725
2375.000000;3.285940
2374.000000;3.103111
2373.000000;2.892611
2372.000000;2.789741
2371.000000;2.828271
2370.000000;2.907598
2369.000000;2.901145
2368.000000;2.840421
2367.000000;2.912824
2366.000000;3.162287
2365.000000;3.092608
2364.000000;3.006415
2363.000000;3.034109
2362.000000;3.079239
2361.000000;2.958977
2360.000000;2.786926
2359.000000;2.787848
2358.000000;2.693406
2357.000000;2.567693
2356.000000;2.670391
2355.000000;2.959547
2354.000000;2.946073
2353.000000;2.788685
2352.000000;2.697898
2351.000000;2.682299
2350.000000;2.809178
2349.000000;2.862104
2348.000000;2.846603
2347.000000;2.834676
2346.000000;2.967443
2345.000000;3.604048
2344.000000;3.021048
2343.000000;2.809419
2342.000000;2.994002
2341.000000;2.947027
2340.000000;2.821508
2339.000000;3.056046
2338.000000;3.154044
2337.000000;3.231166
2336.000000;3.579372
2335.000000;2.905361
2334.000000;2.861576
2333.000000;3.077791
2332.000000;2.981109
2331.000000;2.840538
2330.000000;2.993547
2329.000000;3.317033
2328.000000;3.053135
2327.000000;2.951393
2326.000000;3.201520
2325.000000;3.707484
2324.000000;3.364509
2323.000000;3.133513
2322.000000;3.259665
2321.000000;3.434046
2320.000000;3.466522
2319.000000;3.532215
2318.000000;3.592536
2317.000000;3.739199
2316.000000;3.415750
2315.000000;3.457420
2314.000000;3.427561
2313.000000;3.048156
2312.000000;3.102511
2311.000000;3.303264
2310.000000;3.414401
2309.000000;3.824638
2308.000000;3.424591
2307.000000;3.161345
2306.000000;3.109338
2305.000000;3.229502
2304.000000;3.533638
2303.000000;3.715496
2302.000000;3.879082
2301.000000;3.591425
2300.000000;3.361430
2299.000000;3.183065
2298.000000;3.054907
2297.000000;3.111133
2296.000000;3.384829
2295.000000;3.533107
2294.000000;3.664017
2293.000000;4.095810
2292.000000;3.453455
2291.000000;3.069427
2290.000000;3.032745
2289.000000;3.410791
2288.000000;3.491097
2287.000000;3.169778
2286.000000;3.197767
2285.000000;3.203915
2284.000000;3.149286
2283.000000;3.206609
2282.000000;3.424809
2281.000000;3.912411
2280.000000;3.873222
2279.000000;3.473732
2278.000000;3.670212
2277.000000;3.797100
2276.000000;3.260754
2275.000000;3.039359
2274.000000;3.029304
2273.000000;3.034651
2272.000000;3.129870
2271.000000;3.597937
2270.000000;3.975233
2269.000000;3.795040
2268.000000;3.434154
2267.000000;3.359336
2266.000000;3.245977
2265.000000;2.855790
2264.000000;2.879248
2263.000000;3.558873
2262.000000;3.269642
2261.000000;3.273812
2260.000000;3.903861
2259.000000;3.582832
2258.000000;3.600221
2257.000000;3.066611
2256.000000;3.079825
2255.000000;3.270336
2254.000000;3.038236
2253.000000;2.942170
2252.000000;2.903883
2251.000000;2.928877
2250.000000;3.041125
2249.000000;3.186065
2248.000000;3.278158
2247.000000;3.292102
2246.000000;3.336957
2245.000000;3.416589
2244.000000;3.439779
2243.000000;3.376917
2242.000000;3.291849
2241.000000;3.342735
2240.000000;3.208950
2239.000000;2.929381
2238.000000;2.812250
2237.000000;2.785403
2236.000000;2.778306
2235.000000;2.838267
2234.000000;3.024509
2233.000000;3.351837
2232.000000;3.440938
2231.000000;3.193886
2230.000000;3.067014
2229.000000;3.179344
2228.000000;3.440352
2227.000000;3.335959
2226.000000;3.266880
2225.000000;3.235454
2224.000000;3.077290
2223.000000;2.952472
2222.000000;2.875896
2221.000000;2.893076
2220.000000;3.116752
2219.000000;3.559402
2218.000000;3.520089
2217.000000;3.251607
2216.000000;3.131099
2215.000000;3.112713
2214.000000;3.114253
2213.000000;3.019397
2212.000000;3.065185
2211.000000;3.372839
2210.000000;3.416284
2209.000000;3.226172
2208.000000;3.002676
2207.000000;2.945634
2206.000000;3.159310
2205.000000;3.398283
2204.000000;3.336872
2203.000000;3.039292
2202.000000;3.043044
2201.000000;3.325824
2200.000000;3.164797
2199.000000;3.099795
2198.000000;3.307790
2197.000000;3.457568
2196.000000;3.290909
2195.000000;3.046509
2194.000000;3.070675
2193.000000;3.408739
2192.000000;3.469029
2191.000000;3.592753
2190.000000;3.564388
2189.000000;3.287342
2188.000000;3.453848
2187.000000;3.423091
2186.000000;3.227340
2185.000000;3.236230
2184.000000;3.439043
2183.000000;3.359812
2182.000000;3.374255
2181.000000;3.843357
2180.000000;3.535577
2179.000000;3.314130
2178.000000;3.568776
2177.000000;4.014879
2176.000000;3.319556
2175.000000;3.188948
2174.000000;3.312175
2173.000000;3.387716
2172.000000;3.280616
2171.000000;3.147054
2170.000000;3.182558
2169.000000;3.343105
2168.000000;3.419527
2167.000000;3.314473
2166.000000;3.445925
2165.000000;3.788756
2164.000000;3.523367
2163.000000;3.176536
2162.000000;3.026078
2161.000000;3.055599
2160.000000;3.177181
2159.000000;3.238514
2158.000000;3.473273
2157.000000;3.818580
2156.000000;3.483718
2155.000000;3.285094
2154.000000;3.375033
2153.000000;3.824836
2152.000000;4.249722
2151.000000;4.311582
2150.000000;4.058194
2149.000000;4.341201
2148.000000;3.919373
2147.000000;3.320739
2146.000000;3.096351
2145.000000;3.200480
2144.000000;3.578454
2143.000000;3.211693
2142.000000;3.039031
2141.000000;3.231867
2140.000000;3.573838
2139.000000;3.543415
2138.000000;3.208942
2137.000000;3.241358
2136.000000;3.774292
2135.000000;3.475169
2134.000000;3.222116
2133.000000;3.301643
2132.000000;3.505328
2131.000000;3.555590
2130.000000;3.226464
2129.000000;3.280425
2128.000000;3.629726
2127.000000;3.424728
2126.000000;3.306829
2125.000000;3.301212
2124.000000;3.490513
2123.000000;4.521301
2122.000000;3.885917
2121.000000;3.121462
2120.000000;2.858891
2119.000000;2.852031
2118.000000;2.952704
2117.000000;3.033683
2116.000000;3.159676
2115.000000;3.438799
2114.000000;3.676520
2113.000000;3.399740
2112.000000;3.172325
2111.000000;3.165704
2110.000000;3.348644
2109.000000;3.600528
2108.000000;3.594769
2107.000000;3.338120
2106.000000;3.108604
2105.000000;2.969046
2104.000000;2.894647
2103.000000;2.930535
2102.000000;3.080025
2101.000000;3.220804
2100.000000;3.222799
2099.000000;3.282200
2098.000000;3.515638
2097.000000;3.310570
2096.000000;3.169986
2095.000000;3.291379
2094.000000;3.640833
2093.000000;3.801460
2092.000000;3.275442
2091.000000;3.200357
2090.000000;3.522690
2089.000000;3.519192
2088.000000;3.227008
2087.000000;3.224607
2086.000000;3.259066
2085.000000;3.225415
2084.000000;3.224470
2083.000000;3.235555
2082.000000;3.298343
2081.000000;3.346146
2080.000000;3.370350
2079.000000;3.612216
2078.000000;3.437656
2077.000000;3.269880
2076.000000;3.565504
2075.000000;3.392270
2074.000000;3.112568
2073.000000;3.122451
2072.000000;3.210834
2071.000000;3.184665
2070.000000;3.123450
2069.000000;3.227546
2068.000000;3.288662
2067.000000;3.360704
2066.000000;3.511553
2065.000000;3.106244
2064.000000;2.901986
2063.000000;3.005140
2062.000000;3.368020
2061.000000;3.546560
2060.000000;3.568306
2059.000000;3.586216
2058.000000;3.342047
2057.000000;3.360544
2056.000000;3.510597
2055.000000;3.450077
2054.000000;3.583024
2053.000000;3.938216
2052.000000;3.822532
2051.000000;3.537431
2050.000000;3.216835
2049.000000;3.143955
2048.000000;3.079204
2047.000000;2.926281
2046.000000;3.000819
2045.000000;3.450846
2044.000000;3.874524
2043.000000;3.381633
2042.000000;3.058050
2041.000000;3.081314
2040.000000;3.339838
2039.000000;3.174939
2038.000000;3.376847
2037.000000;3.787081
2036.000000;3.124390
2035.000000;3.145905
2034.000000;3.162708
2033.000000;3.067396
2032.000000;3.453060
2031.000000;3.591491
2030.000000;3.608130
2029.000000;3.493407
2028.000000;3.026349
2027.000000;2.973890
2026.000000;3.170196
2025.000000;3.521422
2024.000000;3.166335
2023.000000;2.932790
2022.000000;3.125119
2021.000000;3.162755
2020.000000;2.976531
2019.000000;3.094396
2018.000000;3.210456
2017.000000;3.412011
2016.000000;3.522407
2015.000000;3.090325
2014.000000;3.320588
2013.000000;3.573852
2012.000000;3.278142
2011.000000;3.512542
2010.000000;3.509893
2009.000000;3.714891
2008.000000;3.494536
2007.000000;3.210494
2006.000000;3.633915
2005.000000;3.634565
2004.000000;3.237965
2003.000000;3.223085
2002.000000;3.191396
2001.000000;3.354396
2000.000000;3.474047
1999.000000;3.317779
1998.000000;3.372754
1997.000000;3.363694
1996.000000;3.397318
1995.000000;3.591656
1994.000000;3.641012
1993.000000;3.459411
1992.000000;3.153840
1991.000000;3.092633
1990.000000;3.048144
1989.000000;3.243316
1988.000000;4.058831
1987.000000;3.176716
1986.000000;3.136833
1985.000000;3.324788
1984.000000;3.172499
1983.000000;3.123515
1982.000000;3.117916
1981.000000;3.208328
1980.000000;3.236884
1979.000000;3.042648
1978.000000;2.907705
1977.000000;2.898703
1976.000000;3.071342
1975.000000;3.476797
1974.000000;3.399946
1973.000000;3.443881
1972.000000;3.637876
1971.000000;3.343232
1970.000000;3.143099
1969.000000;3.063969
1968.000000;3.118523
1967.000000;3.448797
1966.000000;3.898240
1965.000000;3.409115
1964.000000;3.165989
1963.000000;3.299161
1962.000000;3.741857
1961.000000;3.269359
1960.000000;3.194727
1959.000000;3.447928
1958.000000;3.600233
1957.000000;3.838723
1956.000000;3.303655
1955.000000;2.976711
1954.000000;2.928061
1953.000000;3.040200
1952.000000;3.359323
1951.000000;3.731322
1950.000000;3.513173
1949.000000;3.216624
1948.000000;3.179246
1947.000000;3.738556
1946.000000;3.633701
1945.000000;3.259955
1944.000000;3.289224
1943.000000;3.299663
1942.000000;3.252976
1941.000000;3.405094
1940.000000;4.028279
1939.000000;3.586201
1938.000000;3.342887
1937.000000;3.524631
1936.000000;3.755738
1935.000000;3.314937
1934.000000;3.076270
1933.000000;3.022382
1932.000000;3.021654
1931.000000;3.017352
1930.000000;2.985970
1929.000000;3.237300
1928.000000;3.585435
1927.000000;3.117581
1926.000000;2.923983
1925.000000;2.844149
1924.000000;2.879342
1923.000000;3.047253
1922.000000;3.230288
1921.000000;3.374509
1920.000000;3.428866
1919.000000;3.618601
1918.000000;3.456194
1917.000000;3.122282
1916.000000;3.185003
1915.000000;3.542856
1914.000000;3.771185
1913.000000;4.156304
1912.000000;3.341621
1911.000000;3.085248
1910.000000;3.176482
1909.000000;3.443215
1908.000000;3.702286
1907.000000;3.567936
1906.000000;3.377103
1905.000000;3.192612
1904.000000;3.088525
1903.000000;3.041964
1902.000000;3.027268
1901.000000;3.251131
1900.000000;3.617874
1899.000000;3.293708
1898.000000;3.264719
1897.000000;3.427709
1896.000000;3.355360
1895.000000;3.250768
1894.000000;3.250702
1893.000000;3.228377
1892.000000;3.216911
1891.000000;3.364311
1890.000000;3.555607
1889.000000;3.602637
1888.000000;3.264957
1887.000000;3.078598
1886.000000;3.063767
1885.000000;3.128176
1884.000000;3.310733
1883.000000;3.203822
1882.000000;3.073175
1881.000000;3.180612
1880.000000;3.157768
1879.000000;3.007104
1878.000000;2.974931
1877.000000;3.030493
1876.000000;3.065486
1875.000000;3.000858
1874.000000;2.967964
1873.000000;3.203847
1872.000000;3.740267
1871.000000;3.451178
1870.000000;3.177948
1869.000000;3.123916
1868.000000;3.488318
1867.000000;3.506984
1866.000000;3.164145
1865.000000;3.438448
1864.000000;3.479079
1863.000000;3.229185
1862.000000;3.075493
1861.000000;2.945170
1860.000000;3.013673
1859.000000;3.217909
1858.000000;3.556489
1857.000000;3.509728
1856.000000;3.194208
1855.000000;3.081900
1854.000000;3.023334
1853.000000;2.964728
1852.000000;2.922382
1851.000000;2.898720
1850.000000;2.928963
1849.000000;3.042367
1848.000000;3.335794
1847.000000;3.380612
1846.000000;3.140646
1845.000000;3.413451
1844.000000;3.519054
1843.000000;3.169991
1842.000000;3.260214
1841.000000;3.320500
1840.000000;3.210732
1839.000000;3.266458
1838.000000;3.415766
1837.000000;3.310282
1836.000000;3.197661
1835.000000;3.192687
1834.000000;3.251049
1833.000000;3.455076
1832.000000;3.484502
1831.000000;3.212694
1830.000000;3.125595
1829.000000;3.344035
1828.000000;3.371171
1827.000000;3.114516
1826.000000;3.162583
1825.000000;3.227841
1824.000000;3.194192
1823.000000;3.268394
1822.000000;3.535858
1821.000000;3.660764
1820.000000;3.303818
1819.000000;3.253854
1818.000000;3.270054
1817.000000;3.310517
1816.000000;3.243663
1815.000000;3.233126
1814.000000;3.525431
1813.000000;3.467294
1812.000000;3.378549
1811.000000;3.397066
1810.000000;3.203563
1809.000000;3.121360
1808.000000;3.118404
1807.000000;3.320158
1806.000000;3.906904
1805.000000;3.422857
1804.000000;3.173353
1803.000000;3.234291
1802.000000;3.469379
1801.000000;3.365657
1800.000000;3.277744
1799.000000;3.604343
1798.000000;3.566627
1797.000000;3.243021
1796.000000;3.053343
1795.000000;2.912899
1794.000000;2.938461
1793.000000;3.208775
1792.000000;3.359479
1791.000000;3.218200
1790.000000;3.490114
1789.000000;3.927469
1788.000000;3.626905
1787.000000;3.465226
1786.000000;3.407341
1785.000000;3.721623
1784.000000;3.411150
1783.000000;3.034155
1782.000000;2.963517
1781.000000;3.107416
1780.000000;3.320673
1779.000000;3.121776
1778.000000;3.151097
1777.000000;3.373839
1776.000000;3.368495
1775.000000;3.746004
1774.000000;3.388076
1773.000000;3.169312
1772.000000;3.327607
1771.000000;3.774102
1770.000000;4.267202
1769.000000;3.297946
1768.000000;3.067407
1767.000000;3.027781
1766.000000;3.011421
1765.000000;3.021799
1764.000000;3.068813
1763.000000;3.033983
1762.000000;3.007456
1761.000000;3.311703
1760.000000;3.571701
1759.000000;3.229360
1758.000000;3.082249
1757.000000;3.161886
1756.000000;3.472796
1755.000000;3.371098
1754.000000;3.269348
1753.000000;3.373235
1752.000000;3.328434
1751.000000;3.267652
1750.000000;3.280343
1749.000000;3.323166
1748.000000;3.268628
1747.000000;3.149187
1746.000000;3.074400
1745.000000;3.108649
1744.000000;3.304367
1743.000000;3.529655
1742.000000;3.483819
1741.000000;3.278687
1740.000000;3.134454
1739.000000;3.166119
1738.000000;3.242187
1737.000000;3.299101
1736.000000;3.213744
1735.000000;3.012314
1734.000000;2.915217
1733.000000;3.062750
1732.000000;3.430165
1731.000000;3.397226
1730.000000;3.802132
1729.000000;3.408612
1728.000000;3.169803
1727.000000;3.359412
1726.000000;3.264462
1725.000000;3.211523
1724.000000;2.902727
1723.000000;2.743117
1722.000000;2.853134
1721.000000;3.028285
1720.000000;2.925888
1719.000000;3.092767
1718.000000;3.518701
1717.000000;3.007496
1716.000000;2.887662
1715.000000;2.960310
1714.000000;2.980338
1713.000000;3.000489
1712.000000;3.338768
1711.000000;3.285115
1710.000000;3.177925
1709.000000;3.430891
1708.000000;3.024332
1707.000000;2.926059
1706.000000;3.284021
1705.000000;3.509805
1704.000000;3.152829
1703.000000;3.052252
1702.000000;2.986019
1701.000000;2.921983
1700.000000;2.935174
1699.000000;2.960985
1698.000000;2.975011
1697.000000;3.048134
1696.000000;3.185670
1695.000000;3.109010
1694.000000;2.995698
1693.000000;3.034577
1692.000000;3.222969
1691.000000;3.547669
1690.000000;3.423922
1689.000000;3.106720
1688.000000;2.998829
1687.000000;3.038923
1686.000000;3.175980
1685.000000;3.232595
1684.000000;3.191983
1683.000000;3.254321
1682.000000;3.347716
1681.000000;3.359917
1680.000000;3.542305
1679.000000;3.565862
1678.000000;3.088871
1677.000000;2.861931
1676.000000;2.835261
1675.000000;2.942494
1674.000000;3.069143
1673.000000;3.012538
1672.000000;2.952888
1671.000000;3.036353
1670.000000;3.140797
1669.000000;3.062440
1668.000000;2.906892
1667.000000;2.868261
1666.000000;2.960621
1665.000000;3.150389
1664.000000;3.564963
1663.000000;3.479041
1662.000000;3.169402
1661.000000;3.000025
1660.000000;2.854112
1659.000000;2.849090
1658.000000;2.964739
1657.000000;3.041084
1656.000000;3.135071
1655.000000;3.691979
1654.000000;3.760407
1653.000000;3.516216
1652.000000;3.668034
1651.000000;3.361645
1650.000000;3.350385
1649.000000;3.587043
1648.000000;3.696537
1647.000000;3.546527
1646.000000;3.462610
1645.000000;3.683952
1644.000000;3.725607
1643.000000;3.271049
1642.000000;3.055612
1641.000000;3.012970
1640.000000;3.050625
1639.000000;3.236627
1638.000000;3.491631
1637.000000;3.360336
1636.000000;3.426223
1635.000000;3.530152
1634.000000;3.362915
1633.000000;3.395539
1632.000000;3.276593
1631.000000;2.993474
1630.000000;2.857557
1629.000000;2.864858
1628.000000;3.025693
1627.000000;3.351929
1626.000000;3.333396
1625.000000;3.186512
1624.000000;3.253918
1623.000000;3.386292
1622.000000;3.442464
1621.000000;3.462062
1620.000000;3.398021
1619.000000;3.449894
1618.000000;3.944209
1617.000000;3.442924
1616.000000;3.295294
1615.000000;3.327585
1614.000000;3.339517
1613.000000;3.576002
1612.000000;3.185564
1611.000000;3.084128
1610.000000;3.477499
1609.000000;3.612207
1608.000000;3.438396
1607.000000;3.601718
1606.000000;3.337918
1605.000000;3.058231
1604.000000;3.051714
1603.000000;3.281100
1602.000000;3.241416
1601.000000;3.128210
1600.000000;3.174592
1599.000000;3.186213
1598.000000;2.917423
1597.000000;2.770547
1596.000000;3.100996
1595.000000;3.208742
1594.000000;2.829747
1593.000000;2.934205
1592.000000;3.258708
1591.000000;3.288481
1590.000000;3.448911
1589.000000;3.102138
1588.000000;3.005057
1587.000000;3.142539
1586.000000;3.068987
1585.000000;3.228338
1584.000000;3.311453
1583.000000;3.028420
1582.000000;2.894902
1581.000000;2.947701
1580.000000;3.347822
1579.000000;3.129611
1578.000000;2.788363
1577.000000;2.801048
1576.000000;2.951197
1575.000000;3.242178
1574.000000;3.670279
1573.000000;3.508131
1572.000000;3.187730
1571.000000;2.933681
1570.000000;2.857981
1569.000000;2.949964
1568.000000;3.192493
1567.000000;3.865469
1566.000000;3.584516
1565.000000;3.164650
1564.000000;3.052385
1563.000000;2.991918
1562.000000;3.037121
1561.000000;3.160386
1560.000000;3.169822
1559.000000;3.202931
1558.000000;3.208502
1557.000000;3.053039
1556.000000;2.914442
1555.000000;3.116990
1554.000000;3.441280
1553.000000;2.995099
1552.000000;2.895841
1551.000000;2.921226
1550.000000;2.941896
1549.000000;3.050702
1548.000000;3.553377
1547.000000;3.737842
1546.000000;3.124740
1545.000000;2.973569
1544.000000;2.955765
1543.000000;3.107805
1542.000000;3.313698
1541.000000;3.363664
1540.000000;3.481836
1539.000000;3.697951
1538.000000;3.551805
1537.000000;3.316342
1536.000000;3.342327
1535.000000;3.349930
1534.000000;3.099672
1533.000000;3.008303
1532.000000;3.135823
1531.000000;3.428875
1530.000000;3.522549
1529.000000;3.559610
1528.000000;3.444101
1527.000000;3.181542
1526.000000;3.122936
1525.000000;3.156226
1524.000000;3.199183
1523.000000;3.204076
1522.000000;3.118675
1521.000000;3.029324
1520.000000;3.019838
1519.000000;3.072762
1518.000000;3.074933
1517.000000;3.097670
1516.000000;3.314058
1515.000000;3.348214
1514.000000;3.172249
1513.000000;3.184731
1512.000000;3.330456
1511.000000;3.397502
1510.000000;3.352442
1509.000000;3.274633
1508.000000;3.109657
1507.000000;3.033571
1506.000000;3.083206
1505.000000;3.206388
1504.000000;3.208667
1503.000000;3.052332
1502.000000;3.038069
1501.000000;3.293021
1500.000000;3.578892
1499.000000;3.654286
1498.000000;3.243166
1497.000000;2.901067
1496.000000;2.881550
1495.000000;3.056739
1494.000000;3.256521
1493.000000;3.327658
1492.000000;3.398808
1491.000000;3.472737
1490.000000;3.489944
1489.000000;3.526196
1488.000000;3.252379
1487.000000;2.907599
1486.000000;2.698537
1485.000000;2.643124
1484.000000;2.725229
1483.000000;2.860069
1482.000000;2.915850
1481.000000;2.909348
1480.000000;2.930627
1479.000000;2.979954
1478.000000;3.012083
1477.000000;3.081648
1476.000000;3.214782
1475.000000;3.198663
1474.000000;3.045568
1473.000000;2.911828
1472.000000;2.879795
1471.000000;2.975407
1470.000000;3.040130
1469.000000;2.892798
1468.000000;2.804864
1467.000000;2.902467
1466.000000;2.890512
1465.000000;2.768512
1464.000000;2.812613
1463.000000;2.959010
1462.000000;2.958402
1461.000000;2.779940
1460.000000;2.644133
1459.000000;2.644271
1458.000000;2.805601
1457.000000;2.939732
1456.000000;2.826033
1455.000000;2.685700
1454.000000;2.615192
1453.000000;2.479837
1452.000000;2.369092
1451.000000;2.341173
1450.000000;2.636413
1449.000000;3.406243
1448.000000;2.521523
1447.000000;2.323804
1446.000000;2.260352
1445.000000;2.289032
1444.000000;2.479827
1443.000000;2.858451
1442.000000;3.176238
1441.000000;2.820124
1440.000000;2.713804
1439.000000;2.788253
1438.000000;2.974344
1437.000000;2.983015
1436.000000;2.822389
1435.000000;2.731993
1434.000000;2.757600
1433.000000;2.808626
1432.000000;2.772115
1431.000000;2.721240
1430.000000;2.716500
1429.000000;2.803950
1428.000000;2.964265
1427.000000;3.231418
1426.000000;3.447533
1425.000000;3.432405
1424.000000;3.592022
1423.000000;3.156772
1422.000000;2.956969
1421.000000;2.983311
1420.000000;3.093675
1419.000000;3.197271
1418.000000;3.176477
1417.000000;3.140706
1416.000000;3.094627
1415.000000;2.967094
1414.000000;2.893859
1413.000000;3.095129
1412.000000;3.587194
1411.000000;3.342636
1410.000000;3.196905
1409.000000;3.196856
1408.000000;3.088576
1407.000000;3.097286
1406.000000;3.148325
1405.000000;3.223899
1404.000000;3.200278
1403.000000;3.230788
1402.000000;3.759125
1401.000000;3.281317
1400.000000;2.973741
1399.000000;3.038256
1398.000000;3.290730
1397.000000;3.244574
1396.000000;3.188328
1395.000000;3.267020
1394.000000;3.235289
1393.000000;3.291171
1392.000000;3.246550
1391.000000;3.210229
1390.000000;3.329472
1389.000000;3.325588
1388.000000;3.224789
1387.000000;3.120937
1386.000000;3.131883
1385.000000;3.309215
1384.000000;3.523172
1383.000000;3.401627
1382.000000;3.296294
1381.000000;3.787577
1380.000000;3.497385
1379.000000;3.097268
1378.000000;3.269681
1377.000000;3.499308
1376.000000;3.101724
1375.000000;2.965410
1374.000000;2.873401
1373.000000;2.901383
1372.000000;3.237528
1371.000000;3.072852
1370.000000;2.851895
1369.000000;3.028877
1368.000000;3.459267
1367.000000;3.312188
1366.000000;3.329521
1365.000000;3.389692
1364.000000;3.281872
1363.000000;3.303439
1362.000000;3.310216
1361.000000;3.346804
1360.000000;3.593616
1359.000000;3.822372
1358.000000;3.482305
1357.000000;3.286742
1356.000000;3.223895
1355.000000;3.181132
1354.000000;3.133341
1353.000000;3.199488
1352.000000;3.349630
1351.000000;3.260121
1350.000000;3.234716
1349.000000;3.378148
1348.000000;3.456195
1347.000000;3.470207
1346.000000;3.226187
1345.000000;3.065074
1344.000000;3.085138
1343.000000;3.078767
1342.000000;3.353701
1341.000000;3.688531
1340.000000;3.219142
1339.000000;3.507464
1338.000000;3.272712
1337.000000;3.004678
1336.000000;3.178764
1335.000000;3.237832
1334.000000;3.201392
1333.000000;3.138667
1332.000000;2.992610
1331.000000;3.038861
1330.000000;3.316332
1329.000000;3.436699
1328.000000;3.203153
1327.000000;3.051300
1326.000000;3.068110
1325.000000;3.247419
1324.000000;3.054849
1323.000000;2.862804
1322.000000;2.930587
1321.000000;3.289766
1320.000000;4.448673
1319.000000;3.600699
1318.000000;3.014551
1317.000000;2.840537
1316.000000;3.038391
1315.000000;3.196420
1314.000000;2.822535
1313.000000;2.774405
1312.000000;2.838036
1311.000000;2.858274
1310.000000;3.104572
1309.000000;3.446539
1308.000000;3.074155
1307.000000;3.220040
1306.000000;3.444387
1305.000000;2.914920
1304.000000;2.752359
1303.000000;2.749793
1302.000000;2.861680
1301.000000;3.082356
1300.000000;3.067220
1299.000000;2.843528
1298.000000;2.836736
1297.000000;3.153651
1296.000000;2.922830
1295.000000;2.707617
1294.000000;2.852552
1293.000000;3.205289
1292.000000;3.161450
1291.000000;3.020016
1290.000000;2.914559
1289.000000;2.929556
1288.000000;3.012994
1287.000000;3.037594
1286.000000;3.033292
1285.000000;2.977843
1284.000000;3.161516
1283.000000;3.526998
1282.000000;3.154883
1281.000000;3.212631
1280.000000;3.207100
1279.000000;2.965499
1278.000000;3.005772
1277.000000;2.822708
1276.000000;2.701862
1275.000000;2.842884
1274.000000;3.052088
1273.000000;3.016228
1272.000000;2.839800
1271.000000;2.811278
1270.000000;3.007690
1269.000000;3.198081
1268.000000;3.132425
1267.000000;3.050023
1266.000000;2.912082
1265.000000;2.824562
1264.000000;2.833073
1263.000000;3.046254
1262.000000;3.523453
1261.000000;3.275386
1260.000000;3.248830
1259.000000;3.183294
1258.000000;3.021138
1257.000000;3.229404
1256.000000;3.751138
1255.000000;3.991207
1254.000000;3.434028
1253.000000;3.001595
1252.000000;2.949136
1251.000000;3.065874
1250.000000;3.185281
1249.000000;3.044208
1248.000000;2.944191
1247.000000;3.141063
1246.000000;3.438261
1245.000000;3.294867
1244.000000;3.217134
1243.000000;3.389397
1242.000000;3.371020
1241.000000;3.053253
1240.000000;2.879674
1239.000000;2.909527
1238.000000;3.206719
1237.000000;3.845174
1236.000000;3.887104
1235.000000;3.276452
1234.000000;3.094056
1233.000000;3.294531
1232.000000;3.746114
1231.000000;3.421316
1230.000000;3.181377
1229.000000;3.047229
1228.000000;3.049384
1227.000000;3.192070
1226.000000;3.150654
1225.000000;2.973629
1224.000000;2.874686
1223.000000;2.853962
1222.000000;2.968352
1221.000000;3.246995
1220.000000;3.393685
1219.000000;3.258090
1218.000000;3.055025
1217.000000;2.886870
1216.000000;2.835727
1215.000000;2.928823
1214.000000;3.290483
1213.000000;3.671385
1212.000000;3.264384
1211.000000;3.139587
1210.000000;3.100110
1209.000000;3.026132
1208.000000;2.938690
1207.000000;2.879077
1206.000000;2.878089
1205.000000;2.891963
1204.000000;2.981816
1203.000000;3.023805
1202.000000;2.920963
1201.000000;3.016858
1200.000000;3.246371
