Criado como novo conjunto de dados;"0307_DANIEL.spp","11342.3 Secs"
cm-1;Abs
10000.000000;0.681672
9999.000000;0.680531
9998.000000;0.679621
9997.000000;0.678767
9996.000000;0.677869
9995.000000;0.676984
9994.000000;0.676135
9993.000000;0.675174
9992.000000;0.673906
9991.000000;0.672338
9990.000000;0.670718
9989.000000;0.669348
9988.000000;0.668347
9987.000000;0.667580
9986.000000;0.666798
9985.000000;0.665858
9984.000000;0.664769
9983.000000;0.663592
9982.000000;0.662405
9981.000000;0.661367
9980.000000;0.660640
9979.000000;0.660125
9978.000000;0.659403
9977.000000;0.658119
9976.000000;0.656357
9975.000000;0.654532
9974.000000;0.652975
9973.000000;0.651755
9972.000000;0.650794
9971.000000;0.649960
9970.000000;0.649067
9969.000000;0.647984
9968.000000;0.646760
9967.000000;0.645509
9966.000000;0.644207
9965.000000;0.642771
9964.000000;0.641267
9963.000000;0.639861
9962.000000;0.638570
9961.000000;0.637275
9960.000000;0.635970
9959.000000;0.634800
9958.000000;0.633787
9957.000000;0.632749
9956.000000;0.631577
9955.000000;0.630419
9954.000000;0.629460
9953.000000;0.628643
9952.000000;0.627714
9951.000000;0.626493
9950.000000;0.625017
9949.000000;0.623501
9948.000000;0.622194
9947.000000;0.621181
9946.000000;0.620272
9945.000000;0.619141
9944.000000;0.617622
9943.000000;0.615842
9942.000000;0.614084
9941.000000;0.612602
9940.000000;0.611506
9939.000000;0.610672
9938.000000;0.609748
9937.000000;0.608448
9936.000000;0.606880
9935.000000;0.605439
9934.000000;0.604307
9933.000000;0.603222
9932.000000;0.601856
9931.000000;0.600270
9930.000000;0.598829
9929.000000;0.597745
9928.000000;0.596859
9927.000000;0.595866
9926.000000;0.594616
9925.000000;0.593194
9924.000000;0.591808
9923.000000;0.590624
9922.000000;0.589660
9921.000000;0.588762
9920.000000;0.587688
9919.000000;0.586276
9918.000000;0.584565
9917.000000;0.582801
9916.000000;0.581251
9915.000000;0.579973
9914.000000;0.578784
9913.000000;0.577492
9912.000000;0.576118
9911.000000;0.574844
9910.000000;0.573761
9909.000000;0.572783
9908.000000;0.571773
9907.000000;0.570663
9906.000000;0.569437
9905.000000;0.568094
9904.000000;0.566660
9903.000000;0.565191
9902.000000;0.563743
9901.000000;0.562347
9900.000000;0.561014
9899.000000;0.559716
9898.000000;0.558414
9897.000000;0.557142
9896.000000;0.556000
9895.000000;0.554997
9894.000000;0.553957
9893.000000;0.552703
9892.000000;0.551283
9891.000000;0.549882
9890.000000;0.548539
9889.000000;0.547091
9888.000000;0.545422
9887.000000;0.543657
9886.000000;0.542061
9885.000000;0.540802
9884.000000;0.539825
9883.000000;0.538880
9882.000000;0.537687
9881.000000;0.536169
9880.000000;0.534526
9879.000000;0.533014
9878.000000;0.531694
9877.000000;0.530454
9876.000000;0.529215
9875.000000;0.527963
9874.000000;0.526618
9873.000000;0.525068
9872.000000;0.523370
9871.000000;0.521765
9870.000000;0.520419
9869.000000;0.519239
9868.000000;0.518014
9867.000000;0.516651
9866.000000;0.515222
9865.000000;0.513839
9864.000000;0.512549
9863.000000;0.511301
9862.000000;0.509992
9861.000000;0.508559
9860.000000;0.507041
9859.000000;0.505505
9858.000000;0.503952
9857.000000;0.502360
9856.000000;0.500812
9855.000000;0.499473
9854.000000;0.498403
9853.000000;0.497450
9852.000000;0.496368
9851.000000;0.494994
9850.000000;0.493352
9849.000000;0.491648
9848.000000;0.490148
9847.000000;0.488965
9846.000000;0.487930
9845.000000;0.486735
9844.000000;0.485231
9843.000000;0.483525
9842.000000;0.481825
9841.000000;0.480259
9840.000000;0.478822
9839.000000;0.477418
9838.000000;0.475916
9837.000000;0.474261
9836.000000;0.472551
9835.000000;0.470965
9834.000000;0.469604
9833.000000;0.468409
9832.000000;0.467223
9831.000000;0.465884
9830.000000;0.464307
9829.000000;0.462552
9828.000000;0.460797
9827.000000;0.459187
9826.000000;0.457729
9825.000000;0.456353
9824.000000;0.455025
9823.000000;0.453729
9822.000000;0.452403
9821.000000;0.450996
9820.000000;0.449512
9819.000000;0.447931
9818.000000;0.446152
9817.000000;0.444171
9816.000000;0.442259
9815.000000;0.440764
9814.000000;0.439723
9813.000000;0.438795
9812.000000;0.437631
9811.000000;0.436182
9810.000000;0.434616
9809.000000;0.433056
9808.000000;0.431476
9807.000000;0.429807
9806.000000;0.428065
9805.000000;0.426368
9804.000000;0.424819
9803.000000;0.423349
9802.000000;0.421745
9801.000000;0.419891
9800.000000;0.417938
9799.000000;0.416129
9798.000000;0.414532
9797.000000;0.413027
9796.000000;0.411541
9795.000000;0.410142
9794.000000;0.408905
9793.000000;0.407768
9792.000000;0.406542
9791.000000;0.405022
9790.000000;0.403120
9789.000000;0.401010
9788.000000;0.399073
9787.000000;0.397583
9786.000000;0.396424
9785.000000;0.395220
9784.000000;0.393741
9783.000000;0.392072
9782.000000;0.390425
9781.000000;0.388910
9780.000000;0.387500
9779.000000;0.386099
9778.000000;0.384586
9777.000000;0.382877
9776.000000;0.381005
9775.000000;0.379092
9774.000000;0.377254
9773.000000;0.375562
9772.000000;0.374060
9771.000000;0.372707
9770.000000;0.371337
9769.000000;0.369761
9768.000000;0.367936
9767.000000;0.365973
9766.000000;0.364035
9765.000000;0.362248
9764.000000;0.360658
9763.000000;0.359156
9762.000000;0.357536
9761.000000;0.355728
9760.000000;0.353903
9759.000000;0.352226
9758.000000;0.350609
9757.000000;0.348858
9756.000000;0.346996
9755.000000;0.345232
9754.000000;0.343660
9753.000000;0.342178
9752.000000;0.340689
9751.000000;0.339189
9750.000000;0.337619
9749.000000;0.335874
9748.000000;0.333991
9747.000000;0.332165
9746.000000;0.330485
9745.000000;0.328828
9744.000000;0.327062
9743.000000;0.325224
9742.000000;0.323410
9741.000000;0.321624
9740.000000;0.319810
9739.000000;0.317939
9738.000000;0.316001
9737.000000;0.314016
9736.000000;0.312077
9735.000000;0.310303
9734.000000;0.308698
9733.000000;0.307166
9732.000000;0.305650
9731.000000;0.304135
9730.000000;0.302509
9729.000000;0.300598
9728.000000;0.298417
9727.000000;0.296241
9726.000000;0.294344
9725.000000;0.292755
9724.000000;0.291337
9723.000000;0.289937
9722.000000;0.288399
9721.000000;0.286574
9720.000000;0.284461
9719.000000;0.282274
9718.000000;0.280260
9717.000000;0.278467
9716.000000;0.276761
9715.000000;0.274996
9714.000000;0.273101
9713.000000;0.271070
9712.000000;0.268950
9711.000000;0.266823
9710.000000;0.264772
9709.000000;0.262872
9708.000000;0.261196
9707.000000;0.259721
9706.000000;0.258228
9705.000000;0.256426
9704.000000;0.254242
9703.000000;0.251928
9702.000000;0.249802
9701.000000;0.247955
9700.000000;0.246240
9699.000000;0.244470
9698.000000;0.242569
9697.000000;0.240561
9696.000000;0.238492
9695.000000;0.236369
9694.000000;0.234188
9693.000000;0.232038
9692.000000;0.230108
9691.000000;0.228476
9690.000000;0.226934
9689.000000;0.225165
9688.000000;0.223109
9687.000000;0.221006
9686.000000;0.219062
9685.000000;0.217241
9684.000000;0.215427
9683.000000;0.213608
9682.000000;0.211798
9681.000000;0.209926
9680.000000;0.207945
9679.000000;0.205950
9678.000000;0.204036
9677.000000;0.202132
9676.000000;0.200089
9675.000000;0.197910
9674.000000;0.195742
9673.000000;0.193672
9672.000000;0.191643
9671.000000;0.189577
9670.000000;0.187501
9669.000000;0.185499
9668.000000;0.183616
9667.000000;0.181822
9666.000000;0.180028
9665.000000;0.178133
9664.000000;0.176069
9663.000000;0.173833
9662.000000;0.171503
9661.000000;0.169207
9660.000000;0.167046
9659.000000;0.164999
9658.000000;0.162931
9657.000000;0.160724
9656.000000;0.158411
9655.000000;0.156121
9654.000000;0.153938
9653.000000;0.151865
9652.000000;0.149891
9651.000000;0.148012
9650.000000;0.146176
9649.000000;0.144308
9648.000000;0.142387
9647.000000;0.140437
9646.000000;0.138453
9645.000000;0.136415
9644.000000;0.134362
9643.000000;0.132324
9642.000000;0.130199
9641.000000;0.127839
9640.000000;0.125299
9639.000000;0.122850
9638.000000;0.120668
9637.000000;0.118628
9636.000000;0.116499
9635.000000;0.114248
9634.000000;0.112041
9633.000000;0.110005
9632.000000;0.108093
9631.000000;0.106138
9630.000000;0.103995
9629.000000;0.101648
9628.000000;0.099248
9627.000000;0.096996
9626.000000;0.094934
9625.000000;0.092909
9624.000000;0.090775
9623.000000;0.088562
9622.000000;0.086372
9621.000000;0.084185
9620.000000;0.081891
9619.000000;0.079501
9618.000000;0.077193
9617.000000;0.075110
9616.000000;0.073182
9615.000000;0.071205
9614.000000;0.069042
9613.000000;0.066710
9612.000000;0.064314
9611.000000;0.061920
9610.000000;0.059527
9609.000000;0.057128
9608.000000;0.054776
9607.000000;0.052549
9606.000000;0.050466
9605.000000;0.048453
9604.000000;0.046384
9603.000000;0.044164
9602.000000;0.041758
9601.000000;0.039203
9600.000000;0.036596
9599.000000;0.034076
9598.000000;0.031761
9597.000000;0.029686
9596.000000;0.027753
9595.000000;0.025768
9594.000000;0.023567
9593.000000;0.021163
9592.000000;0.018752
9591.000000;0.016519
9590.000000;0.014452
9589.000000;0.012369
9588.000000;0.010115
9587.000000;0.007701
9586.000000;0.005251
9585.000000;0.002849
9584.000000;0.000472
9583.000000;-0.001946
9582.000000;-0.004393
9581.000000;-0.006761
9580.000000;-0.008953
9579.000000;-0.010998
9578.000000;-0.013033
9577.000000;-0.015190
9576.000000;-0.017530
9575.000000;-0.020041
9574.000000;-0.022625
9573.000000;-0.025093
9572.000000;-0.027303
9571.000000;-0.029345
9570.000000;-0.031476
9569.000000;-0.033839
9568.000000;-0.036338
9567.000000;-0.038827
9566.000000;-0.041292
9565.000000;-0.043738
9564.000000;-0.046049
9563.000000;-0.048121
9562.000000;-0.050056
9561.000000;-0.052060
9560.000000;-0.054191
9559.000000;-0.056363
9558.000000;-0.058566
9557.000000;-0.060919
9556.000000;-0.063476
9555.000000;-0.066118
9554.000000;-0.068686
9553.000000;-0.071108
9552.000000;-0.073389
9551.000000;-0.075559
9550.000000;-0.077673
9549.000000;-0.079796
9548.000000;-0.081940
9547.000000;-0.084071
9546.000000;-0.086159
9545.000000;-0.088175
9544.000000;-0.090083
9543.000000;-0.091919
9542.000000;-0.093869
9541.000000;-0.096134
9540.000000;-0.098713
9539.000000;-0.101393
9538.000000;-0.103940
9537.000000;-0.106219
9536.000000;-0.108188
9535.000000;-0.109924
9534.000000;-0.111664
9533.000000;-0.113673
9532.000000;-0.116006
9531.000000;-0.118480
9530.000000;-0.120881
9529.000000;-0.123096
9528.000000;-0.125043
9527.000000;-0.126667
9526.000000;-0.128088
9525.000000;-0.129645
9524.000000;-0.131657
9523.000000;-0.134147
9522.000000;-0.136842
9521.000000;-0.139385
9520.000000;-0.141544
9519.000000;-0.143338
9518.000000;-0.145012
9517.000000;-0.146834
9516.000000;-0.148835
9515.000000;-0.150817
9514.000000;-0.152632
9513.000000;-0.154376
9512.000000;-0.156241
9511.000000;-0.158233
9510.000000;-0.160154
9509.000000;-0.161824
9508.000000;-0.163257
9507.000000;-0.164621
9506.000000;-0.166077
9505.000000;-0.167684
9504.000000;-0.169410
9503.000000;-0.171205
9502.000000;-0.173029
9501.000000;-0.174840
9500.000000;-0.176591
9499.000000;-0.178279
9498.000000;-0.179926
9497.000000;-0.181487
9496.000000;-0.182850
9495.000000;-0.184026
9494.000000;-0.185261
9493.000000;-0.186800
9492.000000;-0.188575
9491.000000;-0.190256
9490.000000;-0.191632
9489.000000;-0.192788
9488.000000;-0.193876
9487.000000;-0.194900
9486.000000;-0.195817
9485.000000;-0.196745
9484.000000;-0.197902
9483.000000;-0.199371
9482.000000;-0.201018
9481.000000;-0.202598
9480.000000;-0.203894
9479.000000;-0.204823
9478.000000;-0.205504
9477.000000;-0.206207
9476.000000;-0.207134
9475.000000;-0.208245
9474.000000;-0.209359
9473.000000;-0.210373
9472.000000;-0.211334
9471.000000;-0.212320
9470.000000;-0.213328
9469.000000;-0.214318
9468.000000;-0.215267
9467.000000;-0.216170
9466.000000;-0.216991
9465.000000;-0.217671
9464.000000;-0.218180
9463.000000;-0.218581
9462.000000;-0.219026
9461.000000;-0.219656
9460.000000;-0.220464
9459.000000;-0.221291
9458.000000;-0.221984
9457.000000;-0.222537
9456.000000;-0.223052
9455.000000;-0.223582
9454.000000;-0.224057
9453.000000;-0.224361
9452.000000;-0.224462
9451.000000;-0.224479
9450.000000;-0.224618
9449.000000;-0.225015
9448.000000;-0.225607
9447.000000;-0.226141
9446.000000;-0.226333
9445.000000;-0.226050
9444.000000;-0.225406
9443.000000;-0.224721
9442.000000;-0.224362
9441.000000;-0.224498
9440.000000;-0.224951
9439.000000;-0.225329
9438.000000;-0.225375
9437.000000;-0.225166
9436.000000;-0.224946
9435.000000;-0.224826
9434.000000;-0.224697
9433.000000;-0.224408
9432.000000;-0.223949
9431.000000;-0.223450
9430.000000;-0.223064
9429.000000;-0.222875
9428.000000;-0.222836
9427.000000;-0.222791
9426.000000;-0.222577
9425.000000;-0.222166
9424.000000;-0.221687
9423.000000;-0.221281
9422.000000;-0.220948
9421.000000;-0.220569
9420.000000;-0.220042
9419.000000;-0.219365
9418.000000;-0.218606
9417.000000;-0.217847
9416.000000;-0.217169
9415.000000;-0.216634
9414.000000;-0.216239
9413.000000;-0.215909
9412.000000;-0.215573
9411.000000;-0.215210
9410.000000;-0.214785
9409.000000;-0.214188
9408.000000;-0.213320
9407.000000;-0.212237
9406.000000;-0.211142
9405.000000;-0.210222
9404.000000;-0.209510
9403.000000;-0.208905
9402.000000;-0.208249
9401.000000;-0.207379
9400.000000;-0.206227
9399.000000;-0.204932
9398.000000;-0.203774
9397.000000;-0.202906
9396.000000;-0.202198
9395.000000;-0.201402
9394.000000;-0.200450
9393.000000;-0.199495
9392.000000;-0.198675
9391.000000;-0.197934
9390.000000;-0.197098
9389.000000;-0.196075
9388.000000;-0.194936
9387.000000;-0.193841
9386.000000;-0.192862
9385.000000;-0.191900
9384.000000;-0.190786
9383.000000;-0.189495
9382.000000;-0.188207
9381.000000;-0.187102
9380.000000;-0.186145
9379.000000;-0.185153
9378.000000;-0.184041
9377.000000;-0.182901
9376.000000;-0.181818
9375.000000;-0.180725
9374.000000;-0.179504
9373.000000;-0.178160
9372.000000;-0.176846
9371.000000;-0.175718
9370.000000;-0.174805
9369.000000;-0.173993
9368.000000;-0.173107
9367.000000;-0.172037
9366.000000;-0.170808
9365.000000;-0.169541
9364.000000;-0.168324
9363.000000;-0.167127
9362.000000;-0.165852
9361.000000;-0.164448
9360.000000;-0.162991
9359.000000;-0.161643
9358.000000;-0.160513
9357.000000;-0.159543
9356.000000;-0.158541
9355.000000;-0.157350
9354.000000;-0.155967
9353.000000;-0.154511
9352.000000;-0.153124
9351.000000;-0.151921
9350.000000;-0.150960
9349.000000;-0.150166
9348.000000;-0.149339
9347.000000;-0.148291
9346.000000;-0.146988
9345.000000;-0.145526
9344.000000;-0.144022
9343.000000;-0.142572
9342.000000;-0.141247
9341.000000;-0.140021
9340.000000;-0.138754
9339.000000;-0.137367
9338.000000;-0.136013
9337.000000;-0.134948
9336.000000;-0.134190
9335.000000;-0.133434
9334.000000;-0.132366
9333.000000;-0.130968
9332.000000;-0.129482
9331.000000;-0.128147
9330.000000;-0.127024
9329.000000;-0.126022
9328.000000;-0.124986
9327.000000;-0.123793
9326.000000;-0.122423
9325.000000;-0.120972
9324.000000;-0.119575
9323.000000;-0.118319
9322.000000;-0.117219
9321.000000;-0.116239
9320.000000;-0.115311
9319.000000;-0.114361
9318.000000;-0.113319
9317.000000;-0.112139
9316.000000;-0.110810
9315.000000;-0.109405
9314.000000;-0.108071
9313.000000;-0.106914
9312.000000;-0.105896
9311.000000;-0.104880
9310.000000;-0.103773
9309.000000;-0.102578
9308.000000;-0.101332
9307.000000;-0.100051
9306.000000;-0.098763
9305.000000;-0.097518
9304.000000;-0.096338
9303.000000;-0.095203
9302.000000;-0.094095
9301.000000;-0.093034
9300.000000;-0.092019
9299.000000;-0.090985
9298.000000;-0.089850
9297.000000;-0.088610
9296.000000;-0.087351
9295.000000;-0.086153
9294.000000;-0.085001
9293.000000;-0.083806
9292.000000;-0.082548
9291.000000;-0.081353
9290.000000;-0.080351
9289.000000;-0.079473
9288.000000;-0.078471
9287.000000;-0.077203
9286.000000;-0.075810
9285.000000;-0.074545
9284.000000;-0.073492
9283.000000;-0.072555
9282.000000;-0.071655
9281.000000;-0.070791
9280.000000;-0.069919
9279.000000;-0.068924
9278.000000;-0.067765
9277.000000;-0.066573
9276.000000;-0.065521
9275.000000;-0.064638
9274.000000;-0.063782
9273.000000;-0.062783
9272.000000;-0.061593
9271.000000;-0.060332
9270.000000;-0.059192
9269.000000;-0.058262
9268.000000;-0.057468
9267.000000;-0.056690
9266.000000;-0.055891
9265.000000;-0.055094
9264.000000;-0.054286
9263.000000;-0.053405
9262.000000;-0.052409
9261.000000;-0.051308
9260.000000;-0.050137
9259.000000;-0.048962
9258.000000;-0.047852
9257.000000;-0.046793
9256.000000;-0.045691
9255.000000;-0.044537
9254.000000;-0.043501
9253.000000;-0.042736
9252.000000;-0.042128
9251.000000;-0.041391
9250.000000;-0.040400
9249.000000;-0.039289
9248.000000;-0.038223
9247.000000;-0.037230
9246.000000;-0.036273
9245.000000;-0.035346
9244.000000;-0.034424
9243.000000;-0.033454
9242.000000;-0.032455
9241.000000;-0.031541
9240.000000;-0.030772
9239.000000;-0.030072
9238.000000;-0.029326
9237.000000;-0.028476
9236.000000;-0.027490
9235.000000;-0.026365
9234.000000;-0.025201
9233.000000;-0.024182
9232.000000;-0.023375
9231.000000;-0.022644
9230.000000;-0.021830
9229.000000;-0.020930
9228.000000;-0.020029
9227.000000;-0.019152
9226.000000;-0.018274
9225.000000;-0.017415
9224.000000;-0.016612
9223.000000;-0.015832
9222.000000;-0.015006
9221.000000;-0.014130
9220.000000;-0.013264
9219.000000;-0.012431
9218.000000;-0.011616
9217.000000;-0.010834
9216.000000;-0.010141
9215.000000;-0.009559
9214.000000;-0.009026
9213.000000;-0.008445
9212.000000;-0.007752
9211.000000;-0.006965
9210.000000;-0.006156
9209.000000;-0.005372
9208.000000;-0.004573
9207.000000;-0.003701
9206.000000;-0.002792
9205.000000;-0.001963
9204.000000;-0.001258
9203.000000;-0.000572
9202.000000;0.000227
9201.000000;0.001149
9200.000000;0.002097
9199.000000;0.002996
9198.000000;0.003849
9197.000000;0.004675
9196.000000;0.005458
9195.000000;0.006153
9194.000000;0.006736
9193.000000;0.007230
9192.000000;0.007696
9191.000000;0.008201
9190.000000;0.008797
9189.000000;0.009536
9188.000000;0.010440
9187.000000;0.011421
9186.000000;0.012294
9185.000000;0.012951
9184.000000;0.013491
9183.000000;0.014092
9182.000000;0.014781
9181.000000;0.015437
9180.000000;0.016019
9179.000000;0.016643
9178.000000;0.017390
9177.000000;0.018169
9176.000000;0.018842
9175.000000;0.019408
9174.000000;0.019961
9173.000000;0.020551
9172.000000;0.021169
9171.000000;0.021817
9170.000000;0.022513
9169.000000;0.023220
9168.000000;0.023845
9167.000000;0.024310
9166.000000;0.024629
9165.000000;0.024921
9164.000000;0.025371
9163.000000;0.026095
9162.000000;0.027021
9161.000000;0.027937
9160.000000;0.028699
9159.000000;0.029324
9158.000000;0.029879
9157.000000;0.030354
9156.000000;0.030738
9155.000000;0.031142
9154.000000;0.031732
9153.000000;0.032530
9152.000000;0.033371
9151.000000;0.034067
9150.000000;0.034595
9149.000000;0.035080
9148.000000;0.035631
9147.000000;0.036194
9146.000000;0.036622
9145.000000;0.036893
9144.000000;0.037206
9143.000000;0.037788
9142.000000;0.038618
9141.000000;0.039445
9140.000000;0.040088
9139.000000;0.040584
9138.000000;0.041034
9137.000000;0.041436
9136.000000;0.041781
9135.000000;0.042176
9134.000000;0.042728
9133.000000;0.043372
9132.000000;0.043944
9131.000000;0.044402
9130.000000;0.044857
9129.000000;0.045396
9128.000000;0.045996
9127.000000;0.046615
9126.000000;0.047235
9125.000000;0.047800
9124.000000;0.048221
9123.000000;0.048516
9122.000000;0.048844
9121.000000;0.049347
9120.000000;0.049980
9119.000000;0.050555
9118.000000;0.050935
9117.000000;0.051162
9116.000000;0.051420
9115.000000;0.051878
9114.000000;0.052550
9113.000000;0.053277
9112.000000;0.053874
9111.000000;0.054291
9110.000000;0.054627
9109.000000;0.054986
9108.000000;0.055391
9107.000000;0.055827
9106.000000;0.056309
9105.000000;0.056845
9104.000000;0.057391
9103.000000;0.057882
9102.000000;0.058321
9101.000000;0.058773
9100.000000;0.059277
9099.000000;0.059795
9098.000000;0.060263
9097.000000;0.060653
9096.000000;0.060989
9095.000000;0.061308
9094.000000;0.061624
9093.000000;0.061929
9092.000000;0.062213
9091.000000;0.062489
9090.000000;0.062790
9089.000000;0.063146
9088.000000;0.063540
9087.000000;0.063905
9086.000000;0.064197
9085.000000;0.064459
9084.000000;0.064793
9083.000000;0.065248
9082.000000;0.065746
9081.000000;0.066153
9080.000000;0.066412
9079.000000;0.066604
9078.000000;0.066886
9077.000000;0.067365
9076.000000;0.068018
9075.000000;0.068717
9074.000000;0.069309
9073.000000;0.069715
9072.000000;0.069960
9071.000000;0.070139
9070.000000;0.070349
9069.000000;0.070642
9068.000000;0.071014
9067.000000;0.071412
9066.000000;0.071768
9065.000000;0.072059
9064.000000;0.072332
9063.000000;0.072658
9062.000000;0.073047
9061.000000;0.073431
9060.000000;0.073732
9059.000000;0.073935
9058.000000;0.074074
9057.000000;0.074177
9056.000000;0.074253
9055.000000;0.074345
9054.000000;0.074562
9053.000000;0.075004
9052.000000;0.075628
9051.000000;0.076219
9050.000000;0.076563
9049.000000;0.076648
9048.000000;0.076667
9047.000000;0.076818
9046.000000;0.077133
9045.000000;0.077513
9044.000000;0.077852
9043.000000;0.078109
9042.000000;0.078297
9041.000000;0.078469
9040.000000;0.078697
9039.000000;0.079017
9038.000000;0.079399
9037.000000;0.079766
9036.000000;0.080050
9035.000000;0.080221
9034.000000;0.080312
9033.000000;0.080425
9032.000000;0.080683
9031.000000;0.081121
9030.000000;0.081654
9029.000000;0.082155
9028.000000;0.082557
9027.000000;0.082848
9026.000000;0.083031
9025.000000;0.083131
9024.000000;0.083207
9023.000000;0.083316
9022.000000;0.083468
9021.000000;0.083651
9020.000000;0.083861
9019.000000;0.084088
9018.000000;0.084296
9017.000000;0.084493
9016.000000;0.084755
9015.000000;0.085128
9014.000000;0.085529
9013.000000;0.085809
9012.000000;0.085907
9011.000000;0.085893
9010.000000;0.085866
9009.000000;0.085868
9008.000000;0.085907
9007.000000;0.085977
9006.000000;0.086065
9005.000000;0.086170
9004.000000;0.086346
9003.000000;0.086652
9002.000000;0.087063
9001.000000;0.087472
9000.000000;0.087813
8999.000000;0.088124
8998.000000;0.088458
8997.000000;0.088765
8996.000000;0.088927
8995.000000;0.088910
8994.000000;0.088836
8993.000000;0.088883
8992.000000;0.089109
8991.000000;0.089405
8990.000000;0.089639
8989.000000;0.089804
8988.000000;0.089991
8987.000000;0.090232
8986.000000;0.090463
8985.000000;0.090641
8984.000000;0.090814
8983.000000;0.091029
8982.000000;0.091230
8981.000000;0.091324
8980.000000;0.091293
8979.000000;0.091201
8978.000000;0.091110
8977.000000;0.091068
8976.000000;0.091125
8975.000000;0.091294
8974.000000;0.091498
8973.000000;0.091631
8972.000000;0.091685
8971.000000;0.091749
8970.000000;0.091906
8969.000000;0.092167
8968.000000;0.092480
8967.000000;0.092760
8966.000000;0.092915
8965.000000;0.092913
8964.000000;0.092843
8963.000000;0.092847
8962.000000;0.092997
8961.000000;0.093252
8960.000000;0.093534
8959.000000;0.093779
8958.000000;0.093957
8957.000000;0.094068
8956.000000;0.094149
8955.000000;0.094220
8954.000000;0.094267
8953.000000;0.094286
8952.000000;0.094325
8951.000000;0.094421
8950.000000;0.094533
8949.000000;0.094576
8948.000000;0.094533
8947.000000;0.094467
8946.000000;0.094440
8945.000000;0.094475
8944.000000;0.094582
8943.000000;0.094764
8942.000000;0.094986
8941.000000;0.095187
8940.000000;0.095331
8939.000000;0.095420
8938.000000;0.095477
8937.000000;0.095546
8936.000000;0.095675
8935.000000;0.095855
8934.000000;0.096000
8933.000000;0.096037
8932.000000;0.095975
8931.000000;0.095868
8930.000000;0.095760
8929.000000;0.095716
8928.000000;0.095833
8927.000000;0.096122
8926.000000;0.096426
8925.000000;0.096567
8924.000000;0.096546
8923.000000;0.096503
8922.000000;0.096496
8921.000000;0.096469
8920.000000;0.096405
8919.000000;0.096390
8918.000000;0.096469
8917.000000;0.096578
8916.000000;0.096664
8915.000000;0.096783
8914.000000;0.096994
8913.000000;0.097235
8912.000000;0.097366
8911.000000;0.097323
8910.000000;0.097160
8909.000000;0.096988
8908.000000;0.096900
8907.000000;0.096932
8906.000000;0.097034
8905.000000;0.097109
8904.000000;0.097092
8903.000000;0.097008
8902.000000;0.096953
8901.000000;0.097025
8900.000000;0.097252
8899.000000;0.097553
8898.000000;0.097767
8897.000000;0.097782
8896.000000;0.097608
8895.000000;0.097327
8894.000000;0.097018
8893.000000;0.096756
8892.000000;0.096633
8891.000000;0.096693
8890.000000;0.096882
8889.000000;0.097132
8888.000000;0.097453
8887.000000;0.097845
8886.000000;0.098166
8885.000000;0.098229
8884.000000;0.098031
8883.000000;0.097762
8882.000000;0.097579
8881.000000;0.097466
8880.000000;0.097344
8879.000000;0.097187
8878.000000;0.097011
8877.000000;0.096850
8876.000000;0.096796
8875.000000;0.096945
8874.000000;0.097251
8873.000000;0.097519
8872.000000;0.097605
8871.000000;0.097560
8870.000000;0.097505
8869.000000;0.097482
8868.000000;0.097477
8867.000000;0.097505
8866.000000;0.097555
8865.000000;0.097535
8864.000000;0.097372
8863.000000;0.097151
8862.000000;0.097056
8861.000000;0.097175
8860.000000;0.097423
8859.000000;0.097651
8858.000000;0.097759
8857.000000;0.097727
8856.000000;0.097602
8855.000000;0.097481
8854.000000;0.097461
8853.000000;0.097573
8852.000000;0.097763
8851.000000;0.097928
8850.000000;0.097978
8849.000000;0.097904
8848.000000;0.097799
8847.000000;0.097763
8846.000000;0.097790
8845.000000;0.097784
8844.000000;0.097694
8843.000000;0.097589
8842.000000;0.097563
8841.000000;0.097611
8840.000000;0.097653
8839.000000;0.097648
8838.000000;0.097637
8837.000000;0.097669
8836.000000;0.097723
8835.000000;0.097720
8834.000000;0.097600
8833.000000;0.097403
8832.000000;0.097258
8831.000000;0.097281
8830.000000;0.097463
8829.000000;0.097683
8828.000000;0.097815
8827.000000;0.097808
8826.000000;0.097683
8825.000000;0.097515
8824.000000;0.097410
8823.000000;0.097445
8822.000000;0.097600
8821.000000;0.097794
8820.000000;0.097972
8819.000000;0.098138
8818.000000;0.098293
8817.000000;0.098410
8816.000000;0.098498
8815.000000;0.098631
8814.000000;0.098853
8813.000000;0.099098
8812.000000;0.099226
8811.000000;0.099144
8810.000000;0.098879
8809.000000;0.098554
8808.000000;0.098313
8807.000000;0.098226
8806.000000;0.098268
8805.000000;0.098387
8804.000000;0.098571
8803.000000;0.098796
8802.000000;0.098938
8801.000000;0.098831
8800.000000;0.098471
8799.000000;0.098069
8798.000000;0.097852
8797.000000;0.097856
8796.000000;0.097959
8795.000000;0.098069
8794.000000;0.098206
8793.000000;0.098407
8792.000000;0.098646
8791.000000;0.098848
8790.000000;0.098961
8789.000000;0.098974
8788.000000;0.098896
8787.000000;0.098758
8786.000000;0.098630
8785.000000;0.098619
8784.000000;0.098783
8783.000000;0.099033
8782.000000;0.099168
8781.000000;0.099078
8780.000000;0.098887
8779.000000;0.098832
8778.000000;0.099004
8777.000000;0.099273
8776.000000;0.099458
8775.000000;0.099502
8774.000000;0.099459
8773.000000;0.099412
8772.000000;0.099429
8771.000000;0.099546
8770.000000;0.099722
8769.000000;0.099862
8768.000000;0.099934
8767.000000;0.100013
8766.000000;0.100163
8765.000000;0.100326
8764.000000;0.100397
8763.000000;0.100378
8762.000000;0.100366
8761.000000;0.100402
8760.000000;0.100423
8759.000000;0.100368
8758.000000;0.100290
8757.000000;0.100293
8756.000000;0.100424
8755.000000;0.100647
8754.000000;0.100902
8753.000000;0.101140
8752.000000;0.101308
8751.000000;0.101342
8750.000000;0.101221
8749.000000;0.101004
8748.000000;0.100800
8747.000000;0.100702
8746.000000;0.100748
8745.000000;0.100914
8744.000000;0.101129
8743.000000;0.101301
8742.000000;0.101381
8741.000000;0.101417
8740.000000;0.101508
8739.000000;0.101693
8738.000000;0.101901
8737.000000;0.102028
8736.000000;0.102043
8735.000000;0.101991
8734.000000;0.101940
8733.000000;0.101943
8732.000000;0.102020
8731.000000;0.102137
8730.000000;0.102229
8729.000000;0.102267
8728.000000;0.102290
8727.000000;0.102329
8726.000000;0.102337
8725.000000;0.102244
8724.000000;0.102086
8723.000000;0.101998
8722.000000;0.102096
8721.000000;0.102363
8720.000000;0.102661
8719.000000;0.102819
8718.000000;0.102762
8717.000000;0.102575
8716.000000;0.102431
8715.000000;0.102408
8714.000000;0.102418
8713.000000;0.102353
8712.000000;0.102248
8711.000000;0.102217
8710.000000;0.102265
8709.000000;0.102273
8708.000000;0.102177
8707.000000;0.102054
8706.000000;0.101999
8705.000000;0.102000
8704.000000;0.101975
8703.000000;0.101884
8702.000000;0.101753
8701.000000;0.101634
8700.000000;0.101589
8699.000000;0.101660
8698.000000;0.101829
8697.000000;0.101992
8696.000000;0.102019
8695.000000;0.101847
8694.000000;0.101528
8693.000000;0.101213
8692.000000;0.101070
8691.000000;0.101144
8690.000000;0.101306
8689.000000;0.101361
8688.000000;0.101235
8687.000000;0.101001
8686.000000;0.100748
8685.000000;0.100488
8684.000000;0.100233
8683.000000;0.100062
8682.000000;0.100049
8681.000000;0.100153
8680.000000;0.100262
8679.000000;0.100329
8678.000000;0.100406
8677.000000;0.100538
8676.000000;0.100663
8675.000000;0.100647
8674.000000;0.100413
8673.000000;0.100011
8672.000000;0.099576
8671.000000;0.099232
8670.000000;0.099029
8669.000000;0.098919
8668.000000;0.098791
8667.000000;0.098548
8666.000000;0.098222
8665.000000;0.097979
8664.000000;0.097952
8663.000000;0.098074
8662.000000;0.098131
8661.000000;0.098011
8660.000000;0.097797
8659.000000;0.097608
8658.000000;0.097430
8657.000000;0.097194
8656.000000;0.096921
8655.000000;0.096693
8654.000000;0.096509
8653.000000;0.096301
8652.000000;0.096056
8651.000000;0.095834
8650.000000;0.095660
8649.000000;0.095476
8648.000000;0.095228
8647.000000;0.094914
8646.000000;0.094559
8645.000000;0.094205
8644.000000;0.093919
8643.000000;0.093747
8642.000000;0.093640
8641.000000;0.093491
8640.000000;0.093261
8639.000000;0.093020
8638.000000;0.092845
8637.000000;0.092742
8636.000000;0.092654
8635.000000;0.092494
8634.000000;0.092176
8633.000000;0.091680
8632.000000;0.091111
8631.000000;0.090633
8630.000000;0.090321
8629.000000;0.090117
8628.000000;0.089941
8627.000000;0.089773
8626.000000;0.089626
8625.000000;0.089494
8624.000000;0.089341
8623.000000;0.089132
8622.000000;0.088845
8621.000000;0.088504
8620.000000;0.088185
8619.000000;0.087935
8618.000000;0.087700
8617.000000;0.087410
8616.000000;0.087101
8615.000000;0.086875
8614.000000;0.086722
8613.000000;0.086476
8612.000000;0.086012
8611.000000;0.085416
8610.000000;0.084910
8609.000000;0.084644
8608.000000;0.084604
8607.000000;0.084662
8606.000000;0.084672
8605.000000;0.084536
8604.000000;0.084233
8603.000000;0.083812
8602.000000;0.083356
8601.000000;0.082959
8600.000000;0.082680
8599.000000;0.082491
8598.000000;0.082278
8597.000000;0.081968
8596.000000;0.081622
8595.000000;0.081346
8594.000000;0.081123
8593.000000;0.080814
8592.000000;0.080350
8591.000000;0.079838
8590.000000;0.079446
8589.000000;0.079239
8588.000000;0.079156
8587.000000;0.079089
8586.000000;0.078951
8585.000000;0.078707
8584.000000;0.078368
8583.000000;0.077955
8582.000000;0.077475
8581.000000;0.076957
8580.000000;0.076487
8579.000000;0.076157
8578.000000;0.075960
8577.000000;0.075798
8576.000000;0.075596
8575.000000;0.075343
8574.000000;0.075040
8573.000000;0.074680
8572.000000;0.074296
8571.000000;0.073960
8570.000000;0.073689
8569.000000;0.073425
8568.000000;0.073122
8567.000000;0.072805
8566.000000;0.072511
8565.000000;0.072240
8564.000000;0.071981
8563.000000;0.071717
8562.000000;0.071396
8561.000000;0.070956
8560.000000;0.070431
8559.000000;0.069969
8558.000000;0.069693
8557.000000;0.069574
8556.000000;0.069476
8555.000000;0.069275
8554.000000;0.068917
8553.000000;0.068426
8552.000000;0.067902
8551.000000;0.067474
8550.000000;0.067191
8549.000000;0.066990
8548.000000;0.066778
8547.000000;0.066523
8546.000000;0.066225
8545.000000;0.065876
8544.000000;0.065485
8543.000000;0.065107
8542.000000;0.064788
8541.000000;0.064502
8540.000000;0.064197
8539.000000;0.063867
8538.000000;0.063537
8537.000000;0.063204
8536.000000;0.062841
8535.000000;0.062456
8534.000000;0.062104
8533.000000;0.061816
8532.000000;0.061569
8531.000000;0.061310
8530.000000;0.061018
8529.000000;0.060710
8528.000000;0.060424
8527.000000;0.060176
8526.000000;0.059951
8525.000000;0.059727
8524.000000;0.059497
8523.000000;0.059266
8522.000000;0.059023
8521.000000;0.058741
8520.000000;0.058383
8519.000000;0.057925
8518.000000;0.057380
8517.000000;0.056831
8516.000000;0.056396
8515.000000;0.056111
8514.000000;0.055871
8513.000000;0.055551
8512.000000;0.055153
8511.000000;0.054807
8510.000000;0.054601
8509.000000;0.054499
8508.000000;0.054398
8507.000000;0.054225
8506.000000;0.053956
8505.000000;0.053609
8504.000000;0.053241
8503.000000;0.052907
8502.000000;0.052605
8501.000000;0.052293
8500.000000;0.051957
8499.000000;0.051611
8498.000000;0.051243
8497.000000;0.050830
8496.000000;0.050418
8495.000000;0.050110
8494.000000;0.049942
8493.000000;0.049823
8492.000000;0.049628
8491.000000;0.049317
8490.000000;0.048927
8489.000000;0.048522
8488.000000;0.048154
8487.000000;0.047845
8486.000000;0.047562
8485.000000;0.047264
8484.000000;0.046973
8483.000000;0.046744
8482.000000;0.046551
8481.000000;0.046282
8480.000000;0.045905
8479.000000;0.045536
8478.000000;0.045303
8477.000000;0.045183
8476.000000;0.045037
8475.000000;0.044778
8474.000000;0.044435
8473.000000;0.044089
8472.000000;0.043787
8471.000000;0.043523
8470.000000;0.043237
8469.000000;0.042875
8468.000000;0.042456
8467.000000;0.042059
8466.000000;0.041721
8465.000000;0.041372
8464.000000;0.040942
8463.000000;0.040480
8462.000000;0.040122
8461.000000;0.039948
8460.000000;0.039907
8459.000000;0.039888
8458.000000;0.039805
8457.000000;0.039642
8456.000000;0.039431
8455.000000;0.039205
8454.000000;0.038948
8453.000000;0.038594
8452.000000;0.038113
8451.000000;0.037570
8450.000000;0.037078
8449.000000;0.036709
8448.000000;0.036461
8447.000000;0.036296
8446.000000;0.036170
8445.000000;0.036041
8444.000000;0.035867
8443.000000;0.035622
8442.000000;0.035306
8441.000000;0.034932
8440.000000;0.034524
8439.000000;0.034113
8438.000000;0.033731
8437.000000;0.033410
8436.000000;0.033170
8435.000000;0.032987
8434.000000;0.032803
8433.000000;0.032578
8432.000000;0.032341
8431.000000;0.032151
8430.000000;0.032004
8429.000000;0.031824
8428.000000;0.031546
8427.000000;0.031184
8426.000000;0.030800
8425.000000;0.030441
8424.000000;0.030124
8423.000000;0.029862
8422.000000;0.029664
8421.000000;0.029528
8420.000000;0.029440
8419.000000;0.029361
8418.000000;0.029223
8417.000000;0.028967
8416.000000;0.028601
8415.000000;0.028213
8414.000000;0.027890
8413.000000;0.027655
8412.000000;0.027472
8411.000000;0.027302
8410.000000;0.027127
8409.000000;0.026946
8408.000000;0.026753
8407.000000;0.026528
8406.000000;0.026253
8405.000000;0.025938
8404.000000;0.025628
8403.000000;0.025358
8402.000000;0.025127
8401.000000;0.024912
8400.000000;0.024709
8399.000000;0.024505
8398.000000;0.024255
8397.000000;0.023923
8396.000000;0.023537
8395.000000;0.023162
8394.000000;0.022814
8393.000000;0.022471
8392.000000;0.022153
8391.000000;0.021932
8390.000000;0.021826
8389.000000;0.021738
8388.000000;0.021553
8387.000000;0.021254
8386.000000;0.020918
8385.000000;0.020624
8384.000000;0.020389
8383.000000;0.020183
8382.000000;0.019978
8381.000000;0.019773
8380.000000;0.019584
8379.000000;0.019412
8378.000000;0.019232
8377.000000;0.019031
8376.000000;0.018821
8375.000000;0.018588
8374.000000;0.018272
8373.000000;0.017856
8372.000000;0.017449
8371.000000;0.017204
8370.000000;0.017153
8369.000000;0.017167
8368.000000;0.017096
8367.000000;0.016895
8366.000000;0.016612
8365.000000;0.016310
8364.000000;0.016023
8363.000000;0.015752
8362.000000;0.015458
8361.000000;0.015120
8360.000000;0.014780
8359.000000;0.014505
8358.000000;0.014292
8357.000000;0.014070
8356.000000;0.013819
8355.000000;0.013593
8354.000000;0.013419
8353.000000;0.013222
8352.000000;0.012927
8351.000000;0.012572
8350.000000;0.012271
8349.000000;0.012091
8348.000000;0.011994
8347.000000;0.011896
8346.000000;0.011723
8345.000000;0.011448
8344.000000;0.011099
8343.000000;0.010735
8342.000000;0.010404
8341.000000;0.010141
8340.000000;0.009974
8339.000000;0.009895
8338.000000;0.009820
8337.000000;0.009645
8336.000000;0.009358
8335.000000;0.009045
8334.000000;0.008768
8333.000000;0.008495
8332.000000;0.008194
8331.000000;0.007921
8330.000000;0.007754
8329.000000;0.007691
8328.000000;0.007668
8327.000000;0.007627
8326.000000;0.007519
8325.000000;0.007277
8324.000000;0.006876
8323.000000;0.006407
8322.000000;0.006024
8321.000000;0.005804
8320.000000;0.005690
8319.000000;0.005580
8318.000000;0.005421
8317.000000;0.005219
8316.000000;0.004985
8315.000000;0.004699
8314.000000;0.004337
8313.000000;0.003928
8312.000000;0.003583
8311.000000;0.003425
8310.000000;0.003463
8309.000000;0.003559
8308.000000;0.003560
8307.000000;0.003432
8306.000000;0.003246
8305.000000;0.003062
8304.000000;0.002873
8303.000000;0.002662
8302.000000;0.002437
8301.000000;0.002212
8300.000000;0.001995
8299.000000;0.001798
8298.000000;0.001628
8297.000000;0.001452
8296.000000;0.001207
8295.000000;0.000873
8294.000000;0.000513
8293.000000;0.000219
8292.000000;0.000024
8291.000000;-0.000108
8290.000000;-0.000220
8289.000000;-0.000325
8288.000000;-0.000437
8287.000000;-0.000599
8286.000000;-0.000849
8285.000000;-0.001172
8284.000000;-0.001510
8283.000000;-0.001824
8282.000000;-0.002107
8281.000000;-0.002325
8280.000000;-0.002424
8279.000000;-0.002407
8278.000000;-0.002371
8277.000000;-0.002420
8276.000000;-0.002558
8275.000000;-0.002723
8274.000000;-0.002888
8273.000000;-0.003080
8272.000000;-0.003304
8271.000000;-0.003516
8270.000000;-0.003678
8269.000000;-0.003804
8268.000000;-0.003930
8267.000000;-0.004092
8266.000000;-0.004307
8265.000000;-0.004557
8264.000000;-0.004773
8263.000000;-0.004904
8262.000000;-0.004983
8261.000000;-0.005095
8260.000000;-0.005262
8259.000000;-0.005432
8258.000000;-0.005572
8257.000000;-0.005715
8256.000000;-0.005884
8255.000000;-0.006048
8254.000000;-0.006192
8253.000000;-0.006362
8252.000000;-0.006599
8251.000000;-0.006867
8250.000000;-0.007104
8249.000000;-0.007285
8248.000000;-0.007412
8247.000000;-0.007480
8246.000000;-0.007497
8245.000000;-0.007533
8244.000000;-0.007669
8243.000000;-0.007928
8242.000000;-0.008255
8241.000000;-0.008568
8240.000000;-0.008792
8239.000000;-0.008881
8238.000000;-0.008860
8237.000000;-0.008836
8236.000000;-0.008909
8235.000000;-0.009083
8234.000000;-0.009277
8233.000000;-0.009413
8232.000000;-0.009482
8231.000000;-0.009526
8230.000000;-0.009598
8229.000000;-0.009723
8228.000000;-0.009878
8227.000000;-0.010020
8226.000000;-0.010133
8225.000000;-0.010239
8224.000000;-0.010343
8223.000000;-0.010411
8222.000000;-0.010425
8221.000000;-0.010441
8220.000000;-0.010545
8219.000000;-0.010760
8218.000000;-0.011020
8217.000000;-0.011246
8216.000000;-0.011402
8215.000000;-0.011512
8214.000000;-0.011623
8213.000000;-0.011761
8212.000000;-0.011910
8211.000000;-0.012035
8210.000000;-0.012137
8209.000000;-0.012254
8208.000000;-0.012408
8207.000000;-0.012568
8206.000000;-0.012690
8205.000000;-0.012778
8204.000000;-0.012871
8203.000000;-0.012986
8202.000000;-0.013114
8201.000000;-0.013232
8200.000000;-0.013324
8199.000000;-0.013382
8198.000000;-0.013420
8197.000000;-0.013482
8196.000000;-0.013597
8195.000000;-0.013756
8194.000000;-0.013926
8193.000000;-0.014092
8192.000000;-0.014251
8191.000000;-0.014382
8190.000000;-0.014460
8189.000000;-0.014490
8188.000000;-0.014510
8187.000000;-0.014552
8186.000000;-0.014620
8185.000000;-0.014697
8184.000000;-0.014766
8183.000000;-0.014817
8182.000000;-0.014860
8181.000000;-0.014912
8180.000000;-0.014975
8179.000000;-0.015041
8178.000000;-0.015115
8177.000000;-0.015234
8176.000000;-0.015422
8175.000000;-0.015653
8174.000000;-0.015867
8173.000000;-0.016025
8172.000000;-0.016139
8171.000000;-0.016249
8170.000000;-0.016368
8169.000000;-0.016468
8168.000000;-0.016509
8167.000000;-0.016484
8166.000000;-0.016442
8165.000000;-0.016452
8164.000000;-0.016542
8163.000000;-0.016683
8162.000000;-0.016819
8161.000000;-0.016907
8160.000000;-0.016934
8159.000000;-0.016936
8158.000000;-0.016980
8157.000000;-0.017109
8156.000000;-0.017276
8155.000000;-0.017381
8154.000000;-0.017377
8153.000000;-0.017324
8152.000000;-0.017310
8151.000000;-0.017361
8150.000000;-0.017446
8149.000000;-0.017544
8148.000000;-0.017663
8147.000000;-0.017796
8146.000000;-0.017906
8145.000000;-0.017958
8144.000000;-0.017949
8143.000000;-0.017907
8142.000000;-0.017873
8141.000000;-0.017889
8140.000000;-0.017979
8139.000000;-0.018130
8138.000000;-0.018303
8137.000000;-0.018449
8136.000000;-0.018528
8135.000000;-0.018526
8134.000000;-0.018461
8133.000000;-0.018381
8132.000000;-0.018335
8131.000000;-0.018345
8130.000000;-0.018403
8129.000000;-0.018495
8128.000000;-0.018610
8127.000000;-0.018748
8126.000000;-0.018917
8125.000000;-0.019108
8124.000000;-0.019272
8123.000000;-0.019337
8122.000000;-0.019282
8121.000000;-0.019176
8120.000000;-0.019129
8119.000000;-0.019188
8118.000000;-0.019302
8117.000000;-0.019389
8116.000000;-0.019416
8115.000000;-0.019416
8114.000000;-0.019429
8113.000000;-0.019475
8112.000000;-0.019554
8111.000000;-0.019665
8110.000000;-0.019785
8109.000000;-0.019861
8108.000000;-0.019856
8107.000000;-0.019802
8106.000000;-0.019779
8105.000000;-0.019829
8104.000000;-0.019918
8103.000000;-0.019993
8102.000000;-0.020044
8101.000000;-0.020086
8100.000000;-0.020117
8099.000000;-0.020123
8098.000000;-0.020114
8097.000000;-0.020125
8096.000000;-0.020173
8095.000000;-0.020245
8094.000000;-0.020320
8093.000000;-0.020377
8092.000000;-0.020399
8091.000000;-0.020382
8090.000000;-0.020350
8089.000000;-0.020331
8088.000000;-0.020336
8087.000000;-0.020355
8086.000000;-0.020376
8085.000000;-0.020387
8084.000000;-0.020381
8083.000000;-0.020390
8082.000000;-0.020469
8081.000000;-0.020623
8080.000000;-0.020764
8079.000000;-0.020795
8078.000000;-0.020724
8077.000000;-0.020641
8076.000000;-0.020617
8075.000000;-0.020653
8074.000000;-0.020728
8073.000000;-0.020818
8072.000000;-0.020875
8071.000000;-0.020860
8070.000000;-0.020809
8069.000000;-0.020814
8068.000000;-0.020907
8067.000000;-0.021020
8066.000000;-0.021068
8065.000000;-0.021039
8064.000000;-0.020965
8063.000000;-0.020872
8062.000000;-0.020782
8061.000000;-0.020740
8060.000000;-0.020771
8059.000000;-0.020848
8058.000000;-0.020920
8057.000000;-0.020967
8056.000000;-0.020992
8055.000000;-0.020995
8054.000000;-0.020975
8053.000000;-0.020945
8052.000000;-0.020922
8051.000000;-0.020901
8050.000000;-0.020865
8049.000000;-0.020809
8048.000000;-0.020754
8047.000000;-0.020738
8046.000000;-0.020799
8045.000000;-0.020944
8044.000000;-0.021120
8043.000000;-0.021254
8042.000000;-0.021319
8041.000000;-0.021341
8040.000000;-0.021339
8039.000000;-0.021304
8038.000000;-0.021244
8037.000000;-0.021211
8036.000000;-0.021247
8035.000000;-0.021319
8034.000000;-0.021359
8033.000000;-0.021344
8032.000000;-0.021312
8031.000000;-0.021313
8030.000000;-0.021348
8029.000000;-0.021371
8028.000000;-0.021333
8027.000000;-0.021236
8026.000000;-0.021144
8025.000000;-0.021113
8024.000000;-0.021136
8023.000000;-0.021159
8022.000000;-0.021161
8021.000000;-0.021167
8020.000000;-0.021188
8019.000000;-0.021196
8018.000000;-0.021174
8017.000000;-0.021141
8016.000000;-0.021118
8015.000000;-0.021085
8014.000000;-0.021022
8013.000000;-0.020960
8012.000000;-0.020942
8011.000000;-0.020967
8010.000000;-0.020998
8009.000000;-0.021015
8008.000000;-0.021024
8007.000000;-0.021028
8006.000000;-0.021020
8005.000000;-0.020997
8004.000000;-0.020969
8003.000000;-0.020943
8002.000000;-0.020918
8001.000000;-0.020891
8000.000000;-0.020857
7999.000000;-0.020822
7998.000000;-0.020810
7997.000000;-0.020842
7996.000000;-0.020897
7995.000000;-0.020919
7994.000000;-0.020876
7993.000000;-0.020793
7992.000000;-0.020717
7991.000000;-0.020674
7990.000000;-0.020672
7989.000000;-0.020720
7988.000000;-0.020812
7987.000000;-0.020917
7986.000000;-0.020996
7985.000000;-0.021022
7984.000000;-0.020985
7983.000000;-0.020893
7982.000000;-0.020773
7981.000000;-0.020660
7980.000000;-0.020564
7979.000000;-0.020474
7978.000000;-0.020407
7977.000000;-0.020411
7976.000000;-0.020496
7975.000000;-0.020602
7974.000000;-0.020664
7973.000000;-0.020684
7972.000000;-0.020710
7971.000000;-0.020750
7970.000000;-0.020741
7969.000000;-0.020623
7968.000000;-0.020408
7967.000000;-0.020189
7966.000000;-0.020073
7965.000000;-0.020093
7964.000000;-0.020181
7963.000000;-0.020236
7962.000000;-0.020221
7961.000000;-0.020180
7960.000000;-0.020157
7959.000000;-0.020153
7958.000000;-0.020155
7957.000000;-0.020160
7956.000000;-0.020165
7955.000000;-0.020148
7954.000000;-0.020100
7953.000000;-0.020038
7952.000000;-0.019972
7951.000000;-0.019895
7950.000000;-0.019822
7949.000000;-0.019794
7948.000000;-0.019824
7947.000000;-0.019863
7946.000000;-0.019867
7945.000000;-0.019842
7944.000000;-0.019811
7943.000000;-0.019765
7942.000000;-0.019695
7941.000000;-0.019643
7940.000000;-0.019660
7939.000000;-0.019721
7938.000000;-0.019750
7937.000000;-0.019709
7936.000000;-0.019631
7935.000000;-0.019565
7934.000000;-0.019521
7933.000000;-0.019489
7932.000000;-0.019455
7931.000000;-0.019404
7930.000000;-0.019330
7929.000000;-0.019247
7928.000000;-0.019182
7927.000000;-0.019139
7926.000000;-0.019111
7925.000000;-0.019110
7924.000000;-0.019145
7923.000000;-0.019181
7922.000000;-0.019157
7921.000000;-0.019057
7920.000000;-0.018937
7919.000000;-0.018864
7918.000000;-0.018846
7917.000000;-0.018840
7916.000000;-0.018816
7915.000000;-0.018791
7914.000000;-0.018795
7913.000000;-0.018821
7912.000000;-0.018819
7911.000000;-0.018742
7910.000000;-0.018599
7909.000000;-0.018436
7908.000000;-0.018292
7907.000000;-0.018183
7906.000000;-0.018127
7905.000000;-0.018131
7904.000000;-0.018154
7903.000000;-0.018113
7902.000000;-0.017985
7901.000000;-0.017854
7900.000000;-0.017821
7899.000000;-0.017873
7898.000000;-0.017897
7897.000000;-0.017821
7896.000000;-0.017687
7895.000000;-0.017587
7894.000000;-0.017564
7893.000000;-0.017586
7892.000000;-0.017598
7891.000000;-0.017561
7890.000000;-0.017472
7889.000000;-0.017347
7888.000000;-0.017205
7887.000000;-0.017065
7886.000000;-0.016957
7885.000000;-0.016918
7884.000000;-0.016954
7883.000000;-0.017013
7882.000000;-0.017027
7881.000000;-0.016975
7880.000000;-0.016893
7879.000000;-0.016826
7878.000000;-0.016796
7877.000000;-0.016802
7876.000000;-0.016825
7875.000000;-0.016832
7874.000000;-0.016800
7873.000000;-0.016743
7872.000000;-0.016696
7871.000000;-0.016669
7870.000000;-0.016628
7869.000000;-0.016533
7868.000000;-0.016385
7867.000000;-0.016223
7866.000000;-0.016081
7865.000000;-0.015956
7864.000000;-0.015815
7863.000000;-0.015642
7862.000000;-0.015479
7861.000000;-0.015392
7860.000000;-0.015400
7859.000000;-0.015446
7858.000000;-0.015463
7857.000000;-0.015456
7856.000000;-0.015482
7855.000000;-0.015562
7854.000000;-0.015622
7853.000000;-0.015563
7852.000000;-0.015362
7851.000000;-0.015108
7850.000000;-0.014927
7849.000000;-0.014875
7848.000000;-0.014887
7847.000000;-0.014850
7846.000000;-0.014731
7845.000000;-0.014603
7844.000000;-0.014552
7843.000000;-0.014569
7842.000000;-0.014574
7841.000000;-0.014520
7840.000000;-0.014430
7839.000000;-0.014343
7838.000000;-0.014262
7837.000000;-0.014167
7836.000000;-0.014056
7835.000000;-0.013950
7834.000000;-0.013862
7833.000000;-0.013790
7832.000000;-0.013724
7831.000000;-0.013653
7830.000000;-0.013568
7829.000000;-0.013463
7828.000000;-0.013342
7827.000000;-0.013208
7826.000000;-0.013072
7825.000000;-0.012951
7824.000000;-0.012858
7823.000000;-0.012780
7822.000000;-0.012678
7821.000000;-0.012525
7820.000000;-0.012339
7819.000000;-0.012178
7818.000000;-0.012094
7817.000000;-0.012099
7816.000000;-0.012162
7815.000000;-0.012235
7814.000000;-0.012278
7813.000000;-0.012275
7812.000000;-0.012223
7811.000000;-0.012136
7810.000000;-0.012042
7809.000000;-0.011959
7808.000000;-0.011879
7807.000000;-0.011778
7806.000000;-0.011651
7805.000000;-0.011514
7804.000000;-0.011377
7803.000000;-0.011240
7802.000000;-0.011112
7801.000000;-0.011010
7800.000000;-0.010933
7799.000000;-0.010842
7798.000000;-0.010705
7797.000000;-0.010543
7796.000000;-0.010418
7795.000000;-0.010361
7794.000000;-0.010347
7793.000000;-0.010318
7792.000000;-0.010233
7791.000000;-0.010094
7790.000000;-0.009935
7789.000000;-0.009788
7788.000000;-0.009659
7787.000000;-0.009532
7786.000000;-0.009396
7785.000000;-0.009251
7784.000000;-0.009098
7783.000000;-0.008933
7782.000000;-0.008779
7781.000000;-0.008681
7780.000000;-0.008652
7779.000000;-0.008644
7778.000000;-0.008585
7777.000000;-0.008459
7776.000000;-0.008298
7775.000000;-0.008135
7774.000000;-0.007975
7773.000000;-0.007821
7772.000000;-0.007695
7771.000000;-0.007610
7770.000000;-0.007544
7769.000000;-0.007458
7768.000000;-0.007338
7767.000000;-0.007211
7766.000000;-0.007125
7765.000000;-0.007100
7764.000000;-0.007102
7763.000000;-0.007064
7762.000000;-0.006940
7761.000000;-0.006744
7760.000000;-0.006535
7759.000000;-0.006365
7758.000000;-0.006247
7757.000000;-0.006149
7756.000000;-0.006024
7755.000000;-0.005862
7754.000000;-0.005698
7753.000000;-0.005573
7752.000000;-0.005486
7751.000000;-0.005394
7750.000000;-0.005271
7749.000000;-0.005122
7748.000000;-0.004941
7747.000000;-0.004706
7746.000000;-0.004437
7745.000000;-0.004222
7744.000000;-0.004134
7743.000000;-0.004136
7742.000000;-0.004112
7741.000000;-0.003987
7740.000000;-0.003788
7739.000000;-0.003592
7738.000000;-0.003454
7737.000000;-0.003376
7736.000000;-0.003332
7735.000000;-0.003290
7734.000000;-0.003221
7733.000000;-0.003106
7732.000000;-0.002940
7731.000000;-0.002742
7730.000000;-0.002553
7729.000000;-0.002412
7728.000000;-0.002319
7727.000000;-0.002228
7726.000000;-0.002087
7725.000000;-0.001879
7724.000000;-0.001632
7723.000000;-0.001395
7722.000000;-0.001217
7721.000000;-0.001131
7720.000000;-0.001120
7719.000000;-0.001115
7718.000000;-0.001043
7717.000000;-0.000864
7716.000000;-0.000586
7715.000000;-0.000262
7714.000000;0.000032
7713.000000;0.000239
7712.000000;0.000374
7711.000000;0.000506
7710.000000;0.000672
7709.000000;0.000830
7708.000000;0.000923
7707.000000;0.000969
7706.000000;0.001049
7705.000000;0.001204
7704.000000;0.001401
7703.000000;0.001582
7702.000000;0.001720
7701.000000;0.001826
7700.000000;0.001935
7699.000000;0.002082
7698.000000;0.002274
7697.000000;0.002468
7696.000000;0.002613
7695.000000;0.002710
7694.000000;0.002816
7693.000000;0.002985
7692.000000;0.003218
7691.000000;0.003467
7690.000000;0.003674
7689.000000;0.003807
7688.000000;0.003894
7687.000000;0.004010
7686.000000;0.004210
7685.000000;0.004473
7684.000000;0.004726
7683.000000;0.004930
7682.000000;0.005108
7681.000000;0.005291
7680.000000;0.005481
7679.000000;0.005663
7678.000000;0.005841
7677.000000;0.006030
7676.000000;0.006237
7675.000000;0.006454
7674.000000;0.006674
7673.000000;0.006893
7672.000000;0.007108
7671.000000;0.007316
7670.000000;0.007515
7669.000000;0.007712
7668.000000;0.007922
7667.000000;0.008149
7666.000000;0.008378
7665.000000;0.008588
7664.000000;0.008788
7663.000000;0.009012
7662.000000;0.009262
7661.000000;0.009492
7660.000000;0.009661
7659.000000;0.009787
7658.000000;0.009912
7657.000000;0.010048
7656.000000;0.010180
7655.000000;0.010314
7654.000000;0.010484
7653.000000;0.010702
7652.000000;0.010950
7651.000000;0.011210
7650.000000;0.011479
7649.000000;0.011756
7648.000000;0.012046
7647.000000;0.012362
7646.000000;0.012694
7645.000000;0.012977
7644.000000;0.013146
7643.000000;0.013227
7642.000000;0.013328
7641.000000;0.013522
7640.000000;0.013784
7639.000000;0.014053
7638.000000;0.014316
7637.000000;0.014594
7636.000000;0.014869
7635.000000;0.015094
7634.000000;0.015255
7633.000000;0.015402
7632.000000;0.015599
7631.000000;0.015865
7630.000000;0.016169
7629.000000;0.016464
7628.000000;0.016725
7627.000000;0.016967
7626.000000;0.017214
7625.000000;0.017474
7624.000000;0.017732
7623.000000;0.017986
7622.000000;0.018253
7621.000000;0.018542
7620.000000;0.018837
7619.000000;0.019120
7618.000000;0.019393
7617.000000;0.019673
7616.000000;0.019963
7615.000000;0.020250
7614.000000;0.020524
7613.000000;0.020795
7612.000000;0.021073
7611.000000;0.021362
7610.000000;0.021646
7609.000000;0.021909
7608.000000;0.022134
7607.000000;0.022328
7606.000000;0.022519
7605.000000;0.022749
7604.000000;0.023039
7603.000000;0.023361
7602.000000;0.023658
7601.000000;0.023908
7600.000000;0.024162
7599.000000;0.024491
7598.000000;0.024893
7597.000000;0.025292
7596.000000;0.025621
7595.000000;0.025888
7594.000000;0.026142
7593.000000;0.026399
7592.000000;0.026653
7591.000000;0.026918
7590.000000;0.027224
7589.000000;0.027574
7588.000000;0.027932
7587.000000;0.028268
7586.000000;0.028580
7585.000000;0.028883
7584.000000;0.029193
7583.000000;0.029516
7582.000000;0.029848
7581.000000;0.030169
7580.000000;0.030476
7579.000000;0.030786
7578.000000;0.031109
7577.000000;0.031420
7576.000000;0.031698
7575.000000;0.031977
7574.000000;0.032311
7573.000000;0.032702
7572.000000;0.033096
7571.000000;0.033458
7570.000000;0.033799
7569.000000;0.034141
7568.000000;0.034485
7567.000000;0.034831
7566.000000;0.035190
7565.000000;0.035557
7564.000000;0.035913
7563.000000;0.036254
7562.000000;0.036610
7561.000000;0.037000
7560.000000;0.037406
7559.000000;0.037797
7558.000000;0.038158
7557.000000;0.038488
7556.000000;0.038794
7555.000000;0.039098
7554.000000;0.039429
7553.000000;0.039798
7552.000000;0.040186
7551.000000;0.040570
7550.000000;0.040938
7549.000000;0.041288
7548.000000;0.041626
7547.000000;0.041977
7546.000000;0.042372
7545.000000;0.042797
7544.000000;0.043202
7543.000000;0.043554
7542.000000;0.043876
7541.000000;0.044213
7540.000000;0.044583
7539.000000;0.044971
7538.000000;0.045363
7537.000000;0.045758
7536.000000;0.046169
7535.000000;0.046612
7534.000000;0.047086
7533.000000;0.047558
7532.000000;0.047985
7531.000000;0.048361
7530.000000;0.048733
7529.000000;0.049159
7528.000000;0.049663
7527.000000;0.050209
7526.000000;0.050728
7525.000000;0.051163
7524.000000;0.051514
7523.000000;0.051834
7522.000000;0.052175
7521.000000;0.052536
7520.000000;0.052888
7519.000000;0.053221
7518.000000;0.053555
7517.000000;0.053906
7516.000000;0.054283
7515.000000;0.054704
7514.000000;0.055182
7513.000000;0.055693
7512.000000;0.056192
7511.000000;0.056660
7510.000000;0.057109
7509.000000;0.057530
7508.000000;0.057903
7507.000000;0.058233
7506.000000;0.058581
7505.000000;0.059000
7504.000000;0.059490
7503.000000;0.060005
7502.000000;0.060498
7501.000000;0.060939
7500.000000;0.061321
7499.000000;0.061652
7498.000000;0.061953
7497.000000;0.062197
7496.000000;0.062546
7495.000000;0.063002
7494.000000;0.063570
7493.000000;0.064192
7492.000000;0.064798
7491.000000;0.065365
7490.000000;0.065902
7489.000000;0.066407
7488.000000;0.066870
7487.000000;0.067306
7486.000000;0.067730
7485.000000;0.068126
7484.000000;0.068479
7483.000000;0.068816
7482.000000;0.069181
7481.000000;0.069571
7480.000000;0.069960
7479.000000;0.070359
7478.000000;0.070809
7477.000000;0.071300
7476.000000;0.071777
7475.000000;0.072214
7474.000000;0.072645
7473.000000;0.073106
7472.000000;0.073605
7471.000000;0.074140
7470.000000;0.074700
7469.000000;0.075246
7468.000000;0.075735
7467.000000;0.076164
7466.000000;0.076569
7465.000000;0.076968
7464.000000;0.077371
7463.000000;0.077816
7462.000000;0.078328
7461.000000;0.078855
7460.000000;0.079307
7459.000000;0.079664
7458.000000;0.079996
7457.000000;0.080369
7456.000000;0.080799
7455.000000;0.081278
7454.000000;0.081793
7453.000000;0.082302
7452.000000;0.082766
7451.000000;0.083215
7450.000000;0.083707
7449.000000;0.084235
7448.000000;0.084730
7447.000000;0.085163
7446.000000;0.085575
7445.000000;0.085990
7444.000000;0.086391
7443.000000;0.086793
7442.000000;0.087241
7441.000000;0.087725
7440.000000;0.088185
7439.000000;0.088626
7438.000000;0.089111
7437.000000;0.089649
7436.000000;0.090148
7435.000000;0.090552
7434.000000;0.090914
7433.000000;0.091307
7432.000000;0.091733
7431.000000;0.092165
7430.000000;0.092596
7429.000000;0.093022
7428.000000;0.093419
7427.000000;0.093794
7426.000000;0.094187
7425.000000;0.094602
7424.000000;0.095007
7423.000000;0.095436
7422.000000;0.095984
7421.000000;0.096634
7420.000000;0.097213
7419.000000;0.097594
7418.000000;0.097856
7417.000000;0.098150
7416.000000;0.098524
7415.000000;0.098938
7414.000000;0.099379
7413.000000;0.099863
7412.000000;0.100373
7411.000000;0.100855
7410.000000;0.101249
7409.000000;0.101528
7408.000000;0.101747
7407.000000;0.102048
7406.000000;0.102523
7405.000000;0.103082
7404.000000;0.103559
7403.000000;0.103928
7402.000000;0.104311
7401.000000;0.104803
7400.000000;0.105394
7399.000000;0.105999
7398.000000;0.106487
7397.000000;0.106790
7396.000000;0.107020
7395.000000;0.107367
7394.000000;0.107794
7393.000000;0.108012
7392.000000;0.107908
7391.000000;0.107792
7390.000000;0.108066
7389.000000;0.108753
7388.000000;0.109594
7387.000000;0.110443
7386.000000;0.111261
7385.000000;0.111851
7384.000000;0.112035
7383.000000;0.112125
7382.000000;0.112681
7381.000000;0.113658
7380.000000;0.114300
7379.000000;0.114230
7378.000000;0.114132
7377.000000;0.114842
7376.000000;0.116186
7375.000000;0.117237
7374.000000;0.117501
7373.000000;0.117331
7372.000000;0.117300
7371.000000;0.117641
7370.000000;0.118256
7369.000000;0.118871
7368.000000;0.119219
7367.000000;0.119343
7366.000000;0.119623
7365.000000;0.120250
7364.000000;0.120910
7363.000000;0.121306
7362.000000;0.121659
7361.000000;0.122253
7360.000000;0.122790
7359.000000;0.122895
7358.000000;0.122938
7357.000000;0.123568
7356.000000;0.124648
7355.000000;0.125420
7354.000000;0.125656
7353.000000;0.125834
7352.000000;0.126270
7351.000000;0.126866
7350.000000;0.127620
7349.000000;0.128542
7348.000000;0.129176
7347.000000;0.129118
7346.000000;0.128872
7345.000000;0.129268
7344.000000;0.130167
7343.000000;0.130832
7342.000000;0.131425
7341.000000;0.132833
7340.000000;0.134832
7339.000000;0.135869
7338.000000;0.135321
7337.000000;0.134509
7336.000000;0.134779
7335.000000;0.135891
7334.000000;0.136924
7333.000000;0.137569
7332.000000;0.137862
7331.000000;0.137781
7330.000000;0.137807
7329.000000;0.138753
7328.000000;0.140373
7327.000000;0.141265
7326.000000;0.140933
7325.000000;0.140713
7324.000000;0.141755
7323.000000;0.143331
7322.000000;0.144099
7321.000000;0.144125
7320.000000;0.144535
7319.000000;0.145718
7318.000000;0.147098
7317.000000;0.148272
7316.000000;0.149208
7315.000000;0.149748
7314.000000;0.149968
7313.000000;0.150668
7312.000000;0.152321
7311.000000;0.153962
7310.000000;0.154389
7309.000000;0.154031
7308.000000;0.154310
7307.000000;0.155491
7306.000000;0.156510
7305.000000;0.156875
7304.000000;0.157345
7303.000000;0.158421
7302.000000;0.159618
7301.000000;0.160552
7300.000000;0.161550
7299.000000;0.162670
7298.000000;0.163283
7297.000000;0.163357
7296.000000;0.163962
7295.000000;0.165740
7294.000000;0.167786
7293.000000;0.168928
7292.000000;0.169458
7291.000000;0.170564
7290.000000;0.172604
7289.000000;0.174857
7288.000000;0.176591
7287.000000;0.177685
7286.000000;0.178352
7285.000000;0.178842
7284.000000;0.179491
7283.000000;0.180541
7282.000000;0.181889
7281.000000;0.183261
7280.000000;0.184611
7279.000000;0.186079
7278.000000;0.187637
7277.000000;0.189129
7276.000000;0.190576
7275.000000;0.192152
7274.000000;0.193897
7273.000000;0.195626
7272.000000;0.197155
7271.000000;0.198497
7270.000000;0.199836
7269.000000;0.201378
7268.000000;0.203163
7267.000000;0.204981
7266.000000;0.206611
7265.000000;0.208193
7264.000000;0.210132
7263.000000;0.212510
7262.000000;0.214829
7261.000000;0.216584
7260.000000;0.217925
7259.000000;0.219411
7258.000000;0.221266
7257.000000;0.223245
7256.000000;0.225223
7255.000000;0.227449
7254.000000;0.230067
7253.000000;0.232787
7252.000000;0.235164
7251.000000;0.237119
7250.000000;0.239060
7249.000000;0.241427
7248.000000;0.244098
7247.000000;0.246442
7246.000000;0.248210
7245.000000;0.250108
7244.000000;0.252993
7243.000000;0.256638
7242.000000;0.259843
7241.000000;0.261980
7240.000000;0.263833
7239.000000;0.266473
7238.000000;0.269829
7237.000000;0.272894
7236.000000;0.275160
7235.000000;0.277311
7234.000000;0.280345
7233.000000;0.284352
7232.000000;0.288280
7231.000000;0.291020
7230.000000;0.292711
7229.000000;0.294665
7228.000000;0.297909
7227.000000;0.302124
7226.000000;0.306182
7225.000000;0.309379
7224.000000;0.311915
7223.000000;0.314463
7222.000000;0.317532
7221.000000;0.321177
7220.000000;0.325027
7219.000000;0.328623
7218.000000;0.331880
7217.000000;0.335171
7216.000000;0.338882
7215.000000;0.342951
7214.000000;0.346988
7213.000000;0.350831
7212.000000;0.354737
7211.000000;0.358936
7210.000000;0.363265
7209.000000;0.367470
7208.000000;0.371645
7207.000000;0.376117
7206.000000;0.381012
7205.000000;0.386066
7204.000000;0.390839
7203.000000;0.395110
7202.000000;0.399088
7201.000000;0.403219
7200.000000;0.407745
7199.000000;0.412480
7198.000000;0.417114
7197.000000;0.421679
7196.000000;0.426502
7195.000000;0.431643
7194.000000;0.436712
7193.000000;0.441446
7192.000000;0.446145
7191.000000;0.451230
7190.000000;0.456633
7189.000000;0.462039
7188.000000;0.467464
7187.000000;0.473050
7186.000000;0.478502
7185.000000;0.483393
7184.000000;0.488010
7183.000000;0.493182
7182.000000;0.499151
7181.000000;0.505229
7180.000000;0.510846
7179.000000;0.516346
7178.000000;0.522334
7177.000000;0.528748
7176.000000;0.535091
7175.000000;0.541140
7174.000000;0.547021
7173.000000;0.552847
7172.000000;0.558725
7171.000000;0.564934
7170.000000;0.571571
7169.000000;0.578262
7168.000000;0.584625
7167.000000;0.590726
7166.000000;0.596706
7165.000000;0.602355
7164.000000;0.607616
7163.000000;0.613079
7162.000000;0.619375
7161.000000;0.626272
7160.000000;0.632957
7159.000000;0.639167
7158.000000;0.645438
7157.000000;0.652148
7156.000000;0.658981
7155.000000;0.665523
7154.000000;0.671834
7153.000000;0.678230
7152.000000;0.684828
7151.000000;0.691508
7150.000000;0.698092
7149.000000;0.704476
7148.000000;0.710721
7147.000000;0.717063
7146.000000;0.723771
7145.000000;0.730856
7144.000000;0.737924
7143.000000;0.744497
7142.000000;0.750588
7141.000000;0.756714
7140.000000;0.763205
7139.000000;0.769761
7138.000000;0.775997
7137.000000;0.782166
7136.000000;0.788810
7135.000000;0.795874
7134.000000;0.802705
7133.000000;0.809015
7132.000000;0.815272
7131.000000;0.821923
7130.000000;0.828745
7129.000000;0.835328
7128.000000;0.841714
7127.000000;0.848088
7126.000000;0.854302
7125.000000;0.860251
7124.000000;0.866302
7123.000000;0.872691
7122.000000;0.878873
7121.000000;0.884230
7120.000000;0.889213
7119.000000;0.894939
7118.000000;0.901638
7117.000000;0.908290
7116.000000;0.914047
7115.000000;0.919265
7114.000000;0.924696
7113.000000;0.930405
7112.000000;0.936037
7111.000000;0.941604
7110.000000;0.947426
7109.000000;0.953497
7108.000000;0.959414
7107.000000;0.964873
7106.000000;0.969928
7105.000000;0.974856
7104.000000;0.979951
7103.000000;0.985333
7102.000000;0.990853
7101.000000;0.996296
7100.000000;1.001618
7099.000000;1.006848
7098.000000;1.011931
7097.000000;1.016828
7096.000000;1.021658
7095.000000;1.026528
7094.000000;1.031343
7093.000000;1.036016
7092.000000;1.040726
7091.000000;1.045694
7090.000000;1.050767
7089.000000;1.055490
7088.000000;1.059591
7087.000000;1.063209
7086.000000;1.066683
7085.000000;1.070314
7084.000000;1.074305
7083.000000;1.078673
7082.000000;1.083213
7081.000000;1.087678
7080.000000;1.091954
7079.000000;1.096088
7078.000000;1.100249
7077.000000;1.104629
7076.000000;1.109177
7075.000000;1.113467
7074.000000;1.117078
7073.000000;1.120060
7072.000000;1.122835
7071.000000;1.125688
7070.000000;1.128633
7069.000000;1.131731
7068.000000;1.135061
7067.000000;1.138376
7066.000000;1.141281
7065.000000;1.143906
7064.000000;1.146914
7063.000000;1.150626
7062.000000;1.154630
7061.000000;1.158447
7060.000000;1.162011
7059.000000;1.165195
7058.000000;1.167578
7057.000000;1.169179
7056.000000;1.170849
7055.000000;1.173396
7054.000000;1.176680
7053.000000;1.179994
7052.000000;1.182957
7051.000000;1.185610
7050.000000;1.187989
7049.000000;1.190133
7048.000000;1.192233
7047.000000;1.194338
7046.000000;1.196255
7045.000000;1.198112
7044.000000;1.200535
7043.000000;1.203760
7042.000000;1.207045
7041.000000;1.209553
7040.000000;1.211388
7039.000000;1.213117
7038.000000;1.214772
7037.000000;1.216101
7036.000000;1.217439
7035.000000;1.219415
7034.000000;1.221948
7033.000000;1.224314
7032.000000;1.226164
7031.000000;1.227762
7030.000000;1.229271
7029.000000;1.230558
7028.000000;1.231759
7027.000000;1.233309
7026.000000;1.235237
7025.000000;1.237007
7024.000000;1.238254
7023.000000;1.239242
7022.000000;1.240381
7021.000000;1.241678
7020.000000;1.242850
7019.000000;1.243733
7018.000000;1.244475
7017.000000;1.245489
7016.000000;1.247160
7015.000000;1.249366
7014.000000;1.251418
7013.000000;1.252770
7012.000000;1.253660
7011.000000;1.254701
7010.000000;1.256013
7009.000000;1.257204
7008.000000;1.258074
7007.000000;1.258877
7006.000000;1.259872
7005.000000;1.261021
7004.000000;1.262209
7003.000000;1.263426
7002.000000;1.264633
7001.000000;1.265648
7000.000000;1.266293
6999.000000;1.266593
6998.000000;1.266852
6997.000000;1.267512
6996.000000;1.268749
6995.000000;1.270105
6994.000000;1.270798
6993.000000;1.270571
6992.000000;1.270020
6991.000000;1.269959
6990.000000;1.270704
6989.000000;1.272049
6988.000000;1.273573
6987.000000;1.274727
6986.000000;1.275046
6985.000000;1.274647
6984.000000;1.274277
6983.000000;1.274549
6982.000000;1.275361
6981.000000;1.276301
6980.000000;1.277245
6979.000000;1.278213
6978.000000;1.278957
6977.000000;1.279155
6976.000000;1.278919
6975.000000;1.278744
6974.000000;1.278971
6973.000000;1.279474
6972.000000;1.279813
6971.000000;1.279639
6970.000000;1.279106
6969.000000;1.278833
6968.000000;1.279221
6967.000000;1.279885
6966.000000;1.280138
6965.000000;1.280013
6964.000000;1.280201
6963.000000;1.280907
6962.000000;1.281483
6961.000000;1.281454
6960.000000;1.281226
6959.000000;1.281348
6958.000000;1.281688
6957.000000;1.281800
6956.000000;1.281597
6955.000000;1.281166
6954.000000;1.280398
6953.000000;1.279294
6952.000000;1.278243
6951.000000;1.277563
6950.000000;1.277153
6949.000000;1.276982
6948.000000;1.277464
6947.000000;1.278792
6946.000000;1.280293
6945.000000;1.281033
6944.000000;1.280813
6943.000000;1.280071
6942.000000;1.279069
6941.000000;1.277762
6940.000000;1.276257
6939.000000;1.274910
6938.000000;1.274051
6937.000000;1.273902
6936.000000;1.274489
6935.000000;1.275314
6934.000000;1.275522
6933.000000;1.274823
6932.000000;1.273926
6931.000000;1.273620
6930.000000;1.273778
6929.000000;1.273733
6928.000000;1.273253
6927.000000;1.272628
6926.000000;1.272057
6925.000000;1.271519
6924.000000;1.271060
6923.000000;1.270660
6922.000000;1.269997
6921.000000;1.268929
6920.000000;1.267998
6919.000000;1.267872
6918.000000;1.268380
6917.000000;1.268692
6916.000000;1.268430
6915.000000;1.268029
6914.000000;1.267952
6913.000000;1.268051
6912.000000;1.267845
6911.000000;1.267099
6910.000000;1.265968
6909.000000;1.264784
6908.000000;1.263765
6907.000000;1.262847
6906.000000;1.261815
6905.000000;1.260638
6904.000000;1.259542
6903.000000;1.258677
6902.000000;1.257976
6901.000000;1.257456
6900.000000;1.257327
6899.000000;1.257580
6898.000000;1.257792
6897.000000;1.257611
6896.000000;1.257148
6895.000000;1.256612
6894.000000;1.255885
6893.000000;1.254792
6892.000000;1.253517
6891.000000;1.252403
6890.000000;1.251579
6889.000000;1.251039
6888.000000;1.250802
6887.000000;1.250703
6886.000000;1.250347
6885.000000;1.249607
6884.000000;1.248891
6883.000000;1.248604
6882.000000;1.248605
6881.000000;1.248488
6880.000000;1.248082
6879.000000;1.247366
6878.000000;1.246263
6877.000000;1.244881
6876.000000;1.243652
6875.000000;1.242855
6874.000000;1.242285
6873.000000;1.241656
6872.000000;1.241019
6871.000000;1.240454
6870.000000;1.239750
6869.000000;1.238780
6868.000000;1.237827
6867.000000;1.237139
6866.000000;1.236497
6865.000000;1.235650
6864.000000;1.234817
6863.000000;1.234298
6862.000000;1.233880
6861.000000;1.233117
6860.000000;1.231979
6859.000000;1.230769
6858.000000;1.229636
6857.000000;1.228584
6856.000000;1.227709
6855.000000;1.226994
6854.000000;1.226086
6853.000000;1.224680
6852.000000;1.222939
6851.000000;1.221162
6850.000000;1.219319
6849.000000;1.217325
6848.000000;1.215509
6847.000000;1.214320
6846.000000;1.213747
6845.000000;1.213421
6844.000000;1.213062
6843.000000;1.212424
6842.000000;1.211094
6841.000000;1.208910
6840.000000;1.206424
6839.000000;1.204393
6838.000000;1.202942
6837.000000;1.201647
6836.000000;1.200273
6835.000000;1.198945
6834.000000;1.197730
6833.000000;1.196537
6832.000000;1.195368
6831.000000;1.194234
6830.000000;1.192858
6829.000000;1.190922
6828.000000;1.188556
6827.000000;1.186180
6826.000000;1.183943
6825.000000;1.181680
6824.000000;1.179369
6823.000000;1.177172
6822.000000;1.175067
6821.000000;1.172828
6820.000000;1.170403
6819.000000;1.167974
6818.000000;1.165651
6817.000000;1.163429
6816.000000;1.161384
6815.000000;1.159561
6814.000000;1.157705
6813.000000;1.155431
6812.000000;1.152674
6811.000000;1.149703
6810.000000;1.146739
6809.000000;1.143888
6808.000000;1.141380
6807.000000;1.139475
6806.000000;1.138033
6805.000000;1.136498
6804.000000;1.134429
6803.000000;1.131876
6802.000000;1.129191
6801.000000;1.126656
6800.000000;1.124321
6799.000000;1.122026
6798.000000;1.119542
6797.000000;1.116812
6796.000000;1.114016
6795.000000;1.111309
6794.000000;1.108611
6793.000000;1.105796
6792.000000;1.102983
6791.000000;1.100421
6790.000000;1.098140
6789.000000;1.095903
6788.000000;1.093472
6787.000000;1.090751
6786.000000;1.087766
6785.000000;1.084681
6784.000000;1.081732
6783.000000;1.079003
6782.000000;1.076311
6781.000000;1.073478
6780.000000;1.070577
6779.000000;1.067793
6778.000000;1.065168
6777.000000;1.062663
6776.000000;1.060290
6775.000000;1.057991
6774.000000;1.055512
6773.000000;1.052667
6772.000000;1.049621
6771.000000;1.046677
6770.000000;1.043878
6769.000000;1.041061
6768.000000;1.038189
6767.000000;1.035381
6766.000000;1.032673
6765.000000;1.029997
6764.000000;1.027342
6763.000000;1.024723
6762.000000;1.022044
6761.000000;1.019185
6760.000000;1.016180
6759.000000;1.013115
6758.000000;1.009960
6757.000000;1.006692
6756.000000;1.003536
6755.000000;1.000791
6754.000000;0.998434
6753.000000;0.996095
6752.000000;0.993437
6751.000000;0.990439
6750.000000;0.987308
6749.000000;0.984282
6748.000000;0.981475
6747.000000;0.978782
6746.000000;0.975971
6745.000000;0.972968
6744.000000;0.969969
6743.000000;0.967187
6742.000000;0.964588
6741.000000;0.962034
6740.000000;0.959529
6739.000000;0.957127
6738.000000;0.954680
6737.000000;0.951939
6736.000000;0.948911
6735.000000;0.945888
6734.000000;0.943099
6733.000000;0.940467
6732.000000;0.937753
6731.000000;0.934820
6730.000000;0.931758
6729.000000;0.928827
6728.000000;0.926216
6727.000000;0.923826
6726.000000;0.921328
6725.000000;0.918543
6724.000000;0.915634
6723.000000;0.912837
6722.000000;0.910141
6721.000000;0.907400
6720.000000;0.904639
6719.000000;0.902011
6718.000000;0.899524
6717.000000;0.897017
6716.000000;0.894393
6715.000000;0.891686
6714.000000;0.888908
6713.000000;0.886045
6712.000000;0.883149
6711.000000;0.880368
6710.000000;0.877753
6709.000000;0.875185
6708.000000;0.872533
6707.000000;0.869768
6706.000000;0.866906
6705.000000;0.864009
6704.000000;0.861245
6703.000000;0.858848
6702.000000;0.856483
6701.000000;0.854099
6700.000000;0.851611
6699.000000;0.849043
6698.000000;0.846426
6697.000000;0.843778
6696.000000;0.841151
6695.000000;0.838578
6694.000000;0.836010
6693.000000;0.833391
6692.000000;0.830756
6691.000000;0.828156
6690.000000;0.825565
6689.000000;0.822964
6688.000000;0.820457
6687.000000;0.818145
6686.000000;0.815923
6685.000000;0.813565
6684.000000;0.810999
6683.000000;0.808339
6682.000000;0.805674
6681.000000;0.802967
6680.000000;0.800209
6679.000000;0.797504
6678.000000;0.794963
6677.000000;0.792604
6676.000000;0.790393
6675.000000;0.788289
6674.000000;0.786186
6673.000000;0.783909
6672.000000;0.781337
6671.000000;0.778529
6670.000000;0.775674
6669.000000;0.772960
6668.000000;0.770456
6667.000000;0.768109
6666.000000;0.765814
6665.000000;0.763518
6664.000000;0.761241
6663.000000;0.758993
6662.000000;0.756714
6661.000000;0.754335
6660.000000;0.751849
6659.000000;0.749303
6658.000000;0.746761
6657.000000;0.744304
6656.000000;0.741998
6655.000000;0.739823
6654.000000;0.737676
6653.000000;0.735492
6652.000000;0.733315
6651.000000;0.731180
6650.000000;0.729030
6649.000000;0.726795
6648.000000;0.724493
6647.000000;0.722163
6646.000000;0.719795
6645.000000;0.717392
6644.000000;0.715047
6643.000000;0.712826
6642.000000;0.710644
6641.000000;0.708366
6640.000000;0.706006
6639.000000;0.703695
6638.000000;0.701490
6637.000000;0.699308
6636.000000;0.697064
6635.000000;0.694748
6634.000000;0.692372
6633.000000;0.689944
6632.000000;0.687526
6631.000000;0.685233
6630.000000;0.683138
6629.000000;0.681199
6628.000000;0.679290
6627.000000;0.677293
6626.000000;0.675156
6625.000000;0.672925
6624.000000;0.670721
6623.000000;0.668632
6622.000000;0.666632
6621.000000;0.664616
6620.000000;0.662518
6619.000000;0.660360
6618.000000;0.658215
6617.000000;0.656133
6616.000000;0.654099
6615.000000;0.652037
6614.000000;0.649882
6613.000000;0.647675
6612.000000;0.645530
6611.000000;0.643499
6610.000000;0.641521
6609.000000;0.639529
6608.000000;0.637536
6607.000000;0.635575
6606.000000;0.633620
6605.000000;0.631633
6604.000000;0.629631
6603.000000;0.627645
6602.000000;0.625670
6601.000000;0.623681
6600.000000;0.621697
6599.000000;0.619743
6598.000000;0.617813
6597.000000;0.615903
6596.000000;0.614049
6595.000000;0.612257
6594.000000;0.610453
6593.000000;0.608547
6592.000000;0.606538
6591.000000;0.604501
6590.000000;0.602520
6589.000000;0.600663
6588.000000;0.598955
6587.000000;0.597317
6586.000000;0.595581
6585.000000;0.593647
6584.000000;0.591595
6583.000000;0.589583
6582.000000;0.587688
6581.000000;0.585885
6580.000000;0.584136
6579.000000;0.582396
6578.000000;0.580593
6577.000000;0.578693
6576.000000;0.576770
6575.000000;0.574924
6574.000000;0.573153
6573.000000;0.571372
6572.000000;0.569556
6571.000000;0.567769
6570.000000;0.566061
6569.000000;0.564400
6568.000000;0.562732
6567.000000;0.561041
6566.000000;0.559350
6565.000000;0.557692
6564.000000;0.556075
6563.000000;0.554458
6562.000000;0.552772
6561.000000;0.551004
6560.000000;0.549218
6559.000000;0.547487
6558.000000;0.545815
6557.000000;0.544173
6556.000000;0.542555
6555.000000;0.540952
6554.000000;0.539313
6553.000000;0.537605
6552.000000;0.535884
6551.000000;0.534223
6550.000000;0.532619
6549.000000;0.531002
6548.000000;0.529354
6547.000000;0.527716
6546.000000;0.526118
6545.000000;0.524549
6544.000000;0.522998
6543.000000;0.521458
6542.000000;0.519892
6541.000000;0.518258
6540.000000;0.516575
6539.000000;0.514915
6538.000000;0.513331
6537.000000;0.511815
6536.000000;0.510336
6535.000000;0.508857
6534.000000;0.507345
6533.000000;0.505782
6532.000000;0.504177
6531.000000;0.502545
6530.000000;0.500896
6529.000000;0.499264
6528.000000;0.497729
6527.000000;0.496329
6526.000000;0.494997
6525.000000;0.493610
6524.000000;0.492106
6523.000000;0.490521
6522.000000;0.488928
6521.000000;0.487388
6520.000000;0.485930
6519.000000;0.484542
6518.000000;0.483173
6517.000000;0.481777
6516.000000;0.480358
6515.000000;0.478938
6514.000000;0.477520
6513.000000;0.476109
6512.000000;0.474737
6511.000000;0.473414
6510.000000;0.472090
6509.000000;0.470703
6508.000000;0.469263
6507.000000;0.467839
6506.000000;0.466468
6505.000000;0.465128
6504.000000;0.463788
6503.000000;0.462437
6502.000000;0.461074
6501.000000;0.459713
6500.000000;0.458385
6499.000000;0.457096
6498.000000;0.455799
6497.000000;0.454438
6496.000000;0.453019
6495.000000;0.451600
6494.000000;0.450232
6493.000000;0.448931
6492.000000;0.447686
6491.000000;0.446461
6490.000000;0.445210
6489.000000;0.443915
6488.000000;0.442616
6487.000000;0.441358
6486.000000;0.440122
6485.000000;0.438857
6484.000000;0.437561
6483.000000;0.436278
6482.000000;0.435043
6481.000000;0.433846
6480.000000;0.432666
6479.000000;0.431482
6478.000000;0.430270
6477.000000;0.429013
6476.000000;0.427732
6475.000000;0.426470
6474.000000;0.425247
6473.000000;0.424049
6472.000000;0.422863
6471.000000;0.421688
6470.000000;0.420531
6469.000000;0.419395
6468.000000;0.418269
6467.000000;0.417112
6466.000000;0.415882
6465.000000;0.414601
6464.000000;0.413350
6463.000000;0.412189
6462.000000;0.411083
6461.000000;0.409966
6460.000000;0.408818
6459.000000;0.407663
6458.000000;0.406508
6457.000000;0.405335
6456.000000;0.404148
6455.000000;0.402972
6454.000000;0.401827
6453.000000;0.400724
6452.000000;0.399676
6451.000000;0.398673
6450.000000;0.397655
6449.000000;0.396563
6448.000000;0.395412
6447.000000;0.394267
6446.000000;0.393173
6445.000000;0.392126
6444.000000;0.391106
6443.000000;0.390090
6442.000000;0.389043
6441.000000;0.387944
6440.000000;0.386814
6439.000000;0.385695
6438.000000;0.384602
6437.000000;0.383533
6436.000000;0.382505
6435.000000;0.381542
6434.000000;0.380619
6433.000000;0.379671
6432.000000;0.378667
6431.000000;0.377632
6430.000000;0.376612
6429.000000;0.375622
6428.000000;0.374652
6427.000000;0.373690
6426.000000;0.372731
6425.000000;0.371773
6424.000000;0.370817
6423.000000;0.369849
6422.000000;0.368850
6421.000000;0.367829
6420.000000;0.366830
6419.000000;0.365883
6418.000000;0.364962
6417.000000;0.364021
6416.000000;0.363054
6415.000000;0.362089
6414.000000;0.361140
6413.000000;0.360193
6412.000000;0.359243
6411.000000;0.358305
6410.000000;0.357390
6409.000000;0.356493
6408.000000;0.355608
6407.000000;0.354734
6406.000000;0.353865
6405.000000;0.352983
6404.000000;0.352080
6403.000000;0.351159
6402.000000;0.350232
6401.000000;0.349315
6400.000000;0.348423
6399.000000;0.347562
6398.000000;0.346730
6397.000000;0.345920
6396.000000;0.345115
6395.000000;0.344286
6394.000000;0.343421
6393.000000;0.342557
6392.000000;0.341745
6391.000000;0.340982
6390.000000;0.340198
6389.000000;0.339342
6388.000000;0.338434
6387.000000;0.337534
6386.000000;0.336672
6385.000000;0.335843
6384.000000;0.335036
6383.000000;0.334235
6382.000000;0.333427
6381.000000;0.332616
6380.000000;0.331831
6379.000000;0.331079
6378.000000;0.330327
6377.000000;0.329541
6376.000000;0.328722
6375.000000;0.327886
6374.000000;0.327041
6373.000000;0.326209
6372.000000;0.325428
6371.000000;0.324707
6370.000000;0.323999
6369.000000;0.323254
6368.000000;0.322475
6367.000000;0.321695
6366.000000;0.320926
6365.000000;0.320172
6364.000000;0.319449
6363.000000;0.318763
6362.000000;0.318075
6361.000000;0.317332
6360.000000;0.316524
6359.000000;0.315694
6358.000000;0.314890
6357.000000;0.314147
6356.000000;0.313476
6355.000000;0.312852
6354.000000;0.312225
6353.000000;0.311564
6352.000000;0.310885
6351.000000;0.310197
6350.000000;0.309480
6349.000000;0.308723
6348.000000;0.307970
6347.000000;0.307271
6346.000000;0.306617
6345.000000;0.305967
6344.000000;0.305306
6343.000000;0.304639
6342.000000;0.303951
6341.000000;0.303226
6340.000000;0.302499
6339.000000;0.301836
6338.000000;0.301255
6337.000000;0.300711
6336.000000;0.300148
6335.000000;0.299541
6334.000000;0.298891
6333.000000;0.298217
6332.000000;0.297548
6331.000000;0.296905
6330.000000;0.296282
6329.000000;0.295664
6328.000000;0.295050
6327.000000;0.294446
6326.000000;0.293835
6325.000000;0.293197
6324.000000;0.292542
6323.000000;0.291896
6322.000000;0.291268
6321.000000;0.290655
6320.000000;0.290054
6319.000000;0.289465
6318.000000;0.288870
6317.000000;0.288263
6316.000000;0.287671
6315.000000;0.287124
6314.000000;0.286607
6313.000000;0.286082
6312.000000;0.285536
6311.000000;0.284980
6310.000000;0.284417
6309.000000;0.283835
6308.000000;0.283237
6307.000000;0.282627
6306.000000;0.282002
6305.000000;0.281364
6304.000000;0.280737
6303.000000;0.280147
6302.000000;0.279585
6301.000000;0.279031
6300.000000;0.278494
6299.000000;0.277985
6298.000000;0.277482
6297.000000;0.276947
6296.000000;0.276383
6295.000000;0.275832
6294.000000;0.275313
6293.000000;0.274804
6292.000000;0.274283
6291.000000;0.273750
6290.000000;0.273213
6289.000000;0.272678
6288.000000;0.272157
6287.000000;0.271667
6286.000000;0.271204
6285.000000;0.270749
6284.000000;0.270290
6283.000000;0.269824
6282.000000;0.269335
6281.000000;0.268819
6280.000000;0.268308
6279.000000;0.267840
6278.000000;0.267402
6277.000000;0.266939
6276.000000;0.266422
6275.000000;0.265879
6274.000000;0.265350
6273.000000;0.264848
6272.000000;0.264365
6271.000000;0.263895
6270.000000;0.263432
6269.000000;0.262963
6268.000000;0.262484
6267.000000;0.262005
6266.000000;0.261542
6265.000000;0.261099
6264.000000;0.260666
6263.000000;0.260221
6262.000000;0.259752
6261.000000;0.259275
6260.000000;0.258813
6259.000000;0.258367
6258.000000;0.257906
6257.000000;0.257415
6256.000000;0.256929
6255.000000;0.256491
6254.000000;0.256096
6253.000000;0.255705
6252.000000;0.255299
6251.000000;0.254899
6250.000000;0.254531
6249.000000;0.254194
6248.000000;0.253860
6247.000000;0.253488
6246.000000;0.253050
6245.000000;0.252552
6244.000000;0.252036
6243.000000;0.251549
6242.000000;0.251104
6241.000000;0.250687
6240.000000;0.250286
6239.000000;0.249896
6238.000000;0.249504
6237.000000;0.249099
6236.000000;0.248681
6235.000000;0.248260
6234.000000;0.247849
6233.000000;0.247460
6232.000000;0.247098
6231.000000;0.246741
6230.000000;0.246359
6229.000000;0.245957
6228.000000;0.245577
6227.000000;0.245244
6226.000000;0.244922
6225.000000;0.244567
6224.000000;0.244168
6223.000000;0.243745
6222.000000;0.243311
6221.000000;0.242881
6220.000000;0.242482
6219.000000;0.242130
6218.000000;0.241796
6217.000000;0.241447
6216.000000;0.241089
6215.000000;0.240745
6214.000000;0.240414
6213.000000;0.240080
6212.000000;0.239741
6211.000000;0.239403
6210.000000;0.239046
6209.000000;0.238643
6208.000000;0.238210
6207.000000;0.237794
6206.000000;0.237427
6205.000000;0.237103
6204.000000;0.236800
6203.000000;0.236498
6202.000000;0.236177
6201.000000;0.235829
6200.000000;0.235475
6199.000000;0.235143
6198.000000;0.234827
6197.000000;0.234499
6196.000000;0.234140
6195.000000;0.233756
6194.000000;0.233362
6193.000000;0.232977
6192.000000;0.232618
6191.000000;0.232287
6190.000000;0.231957
6189.000000;0.231607
6188.000000;0.231252
6187.000000;0.230925
6186.000000;0.230641
6185.000000;0.230394
6184.000000;0.230169
6183.000000;0.229951
6182.000000;0.229717
6181.000000;0.229455
6180.000000;0.229185
6179.000000;0.228926
6178.000000;0.228661
6177.000000;0.228353
6176.000000;0.227997
6175.000000;0.227621
6174.000000;0.227254
6173.000000;0.226908
6172.000000;0.226584
6171.000000;0.226280
6170.000000;0.225990
6169.000000;0.225708
6168.000000;0.225440
6167.000000;0.225193
6166.000000;0.224949
6165.000000;0.224687
6164.000000;0.224400
6163.000000;0.224097
6162.000000;0.223784
6161.000000;0.223470
6160.000000;0.223172
6159.000000;0.222893
6158.000000;0.222610
6157.000000;0.222301
6156.000000;0.221981
6155.000000;0.221678
6154.000000;0.221398
6153.000000;0.221124
6152.000000;0.220855
6151.000000;0.220596
6150.000000;0.220341
6149.000000;0.220082
6148.000000;0.219834
6147.000000;0.219620
6146.000000;0.219429
6145.000000;0.219221
6144.000000;0.218965
6143.000000;0.218666
6142.000000;0.218354
6141.000000;0.218059
6140.000000;0.217798
6139.000000;0.217557
6138.000000;0.217308
6137.000000;0.217041
6136.000000;0.216776
6135.000000;0.216533
6134.000000;0.216299
6133.000000;0.216061
6132.000000;0.215827
6131.000000;0.215610
6130.000000;0.215397
6129.000000;0.215168
6128.000000;0.214926
6127.000000;0.214690
6126.000000;0.214466
6125.000000;0.214248
6124.000000;0.214033
6123.000000;0.213811
6122.000000;0.213564
6121.000000;0.213291
6120.000000;0.213031
6119.000000;0.212816
6118.000000;0.212626
6117.000000;0.212416
6116.000000;0.212177
6115.000000;0.211940
6114.000000;0.211720
6113.000000;0.211501
6112.000000;0.211267
6111.000000;0.211019
6110.000000;0.210763
6109.000000;0.210508
6108.000000;0.210279
6107.000000;0.210093
6106.000000;0.209931
6105.000000;0.209753
6104.000000;0.209546
6103.000000;0.209331
6102.000000;0.209133
6101.000000;0.208956
6100.000000;0.208793
6099.000000;0.208629
6098.000000;0.208432
6097.000000;0.208191
6096.000000;0.207935
6095.000000;0.207713
6094.000000;0.207539
6093.000000;0.207390
6092.000000;0.207235
6091.000000;0.207061
6090.000000;0.206860
6089.000000;0.206636
6088.000000;0.206409
6087.000000;0.206206
6086.000000;0.206031
6085.000000;0.205868
6084.000000;0.205709
6083.000000;0.205561
6082.000000;0.205426
6081.000000;0.205287
6080.000000;0.205123
6079.000000;0.204917
6078.000000;0.204676
6077.000000;0.204432
6076.000000;0.204227
6075.000000;0.204070
6074.000000;0.203922
6073.000000;0.203749
6072.000000;0.203567
6071.000000;0.203410
6070.000000;0.203273
6069.000000;0.203121
6068.000000;0.202940
6067.000000;0.202755
6066.000000;0.202584
6065.000000;0.202422
6064.000000;0.202260
6063.000000;0.202101
6062.000000;0.201952
6061.000000;0.201812
6060.000000;0.201686
6059.000000;0.201580
6058.000000;0.201481
6057.000000;0.201375
6056.000000;0.201261
6055.000000;0.201143
6054.000000;0.201016
6053.000000;0.200868
6052.000000;0.200708
6051.000000;0.200551
6050.000000;0.200401
6049.000000;0.200252
6048.000000;0.200111
6047.000000;0.199991
6046.000000;0.199888
6045.000000;0.199782
6044.000000;0.199664
6043.000000;0.199536
6042.000000;0.199400
6041.000000;0.199254
6040.000000;0.199110
6039.000000;0.198982
6038.000000;0.198869
6037.000000;0.198761
6036.000000;0.198653
6035.000000;0.198541
6034.000000;0.198410
6033.000000;0.198257
6032.000000;0.198104
6031.000000;0.197983
6030.000000;0.197895
6029.000000;0.197815
6028.000000;0.197720
6027.000000;0.197606
6026.000000;0.197480
6025.000000;0.197353
6024.000000;0.197238
6023.000000;0.197134
6022.000000;0.197022
6021.000000;0.196895
6020.000000;0.196772
6019.000000;0.196678
6018.000000;0.196610
6017.000000;0.196547
6016.000000;0.196476
6015.000000;0.196390
6014.000000;0.196279
6013.000000;0.196140
6012.000000;0.196001
6011.000000;0.195897
6010.000000;0.195839
6009.000000;0.195805
6008.000000;0.195771
6007.000000;0.195718
6006.000000;0.195635
6005.000000;0.195535
6004.000000;0.195454
6003.000000;0.195409
6002.000000;0.195381
6001.000000;0.195344
6000.000000;0.195304
5999.000000;0.195278
5998.000000;0.195258
5997.000000;0.195218
5996.000000;0.195157
5995.000000;0.195092
5994.000000;0.195027
5993.000000;0.194951
5992.000000;0.194870
5991.000000;0.194805
5990.000000;0.194761
5989.000000;0.194723
5988.000000;0.194678
5987.000000;0.194635
5986.000000;0.194606
5985.000000;0.194587
5984.000000;0.194554
5983.000000;0.194486
5982.000000;0.194376
5981.000000;0.194253
5980.000000;0.194160
5979.000000;0.194116
5978.000000;0.194107
5977.000000;0.194113
5976.000000;0.194129
5975.000000;0.194147
5974.000000;0.194147
5973.000000;0.194120
5972.000000;0.194085
5971.000000;0.194062
5970.000000;0.194041
5969.000000;0.194013
5968.000000;0.194003
5967.000000;0.194042
5966.000000;0.194122
5965.000000;0.194203
5964.000000;0.194262
5963.000000;0.194294
5962.000000;0.194290
5961.000000;0.194248
5960.000000;0.194186
5959.000000;0.194135
5958.000000;0.194105
5957.000000;0.194091
5956.000000;0.194102
5955.000000;0.194148
5954.000000;0.194214
5953.000000;0.194267
5952.000000;0.194295
5951.000000;0.194306
5950.000000;0.194304
5949.000000;0.194287
5948.000000;0.194270
5947.000000;0.194273
5946.000000;0.194298
5945.000000;0.194326
5944.000000;0.194348
5943.000000;0.194365
5942.000000;0.194380
5941.000000;0.194394
5940.000000;0.194416
5939.000000;0.194452
5938.000000;0.194491
5937.000000;0.194522
5936.000000;0.194555
5935.000000;0.194606
5934.000000;0.194676
5933.000000;0.194756
5932.000000;0.194840
5931.000000;0.194921
5930.000000;0.194988
5929.000000;0.195034
5928.000000;0.195073
5927.000000;0.195121
5926.000000;0.195172
5925.000000;0.195222
5924.000000;0.195284
5923.000000;0.195374
5922.000000;0.195478
5921.000000;0.195579
5920.000000;0.195677
5919.000000;0.195776
5918.000000;0.195862
5917.000000;0.195918
5916.000000;0.195954
5915.000000;0.195984
5914.000000;0.196006
5913.000000;0.196013
5912.000000;0.196019
5911.000000;0.196043
5910.000000;0.196090
5909.000000;0.196158
5908.000000;0.196257
5907.000000;0.196390
5906.000000;0.196526
5905.000000;0.196632
5904.000000;0.196712
5903.000000;0.196786
5902.000000;0.196855
5901.000000;0.196917
5900.000000;0.196988
5899.000000;0.197077
5898.000000;0.197164
5897.000000;0.197226
5896.000000;0.197275
5895.000000;0.197336
5894.000000;0.197410
5893.000000;0.197484
5892.000000;0.197571
5891.000000;0.197693
5890.000000;0.197838
5889.000000;0.197973
5888.000000;0.198085
5887.000000;0.198189
5886.000000;0.198299
5885.000000;0.198422
5884.000000;0.198570
5883.000000;0.198743
5882.000000;0.198903
5881.000000;0.199021
5880.000000;0.199121
5879.000000;0.199253
5878.000000;0.199427
5877.000000;0.199606
5876.000000;0.199763
5875.000000;0.199905
5874.000000;0.200041
5873.000000;0.200166
5872.000000;0.200285
5871.000000;0.200418
5870.000000;0.200573
5869.000000;0.200739
5868.000000;0.200912
5867.000000;0.201084
5866.000000;0.201233
5865.000000;0.201337
5864.000000;0.201418
5863.000000;0.201521
5862.000000;0.201673
5861.000000;0.201866
5860.000000;0.202095
5859.000000;0.202358
5858.000000;0.202636
5857.000000;0.202897
5856.000000;0.203124
5855.000000;0.203326
5854.000000;0.203509
5853.000000;0.203670
5852.000000;0.203815
5851.000000;0.203965
5850.000000;0.204134
5849.000000;0.204326
5848.000000;0.204548
5847.000000;0.204794
5846.000000;0.205045
5845.000000;0.205282
5844.000000;0.205516
5843.000000;0.205771
5842.000000;0.206046
5841.000000;0.206319
5840.000000;0.206578
5839.000000;0.206827
5838.000000;0.207067
5837.000000;0.207297
5836.000000;0.207529
5835.000000;0.207777
5834.000000;0.208037
5833.000000;0.208295
5832.000000;0.208554
5831.000000;0.208814
5830.000000;0.209062
5829.000000;0.209297
5828.000000;0.209545
5827.000000;0.209830
5826.000000;0.210135
5825.000000;0.210421
5824.000000;0.210679
5823.000000;0.210936
5822.000000;0.211217
5821.000000;0.211531
5820.000000;0.211874
5819.000000;0.212228
5818.000000;0.212560
5817.000000;0.212859
5816.000000;0.213150
5815.000000;0.213464
5814.000000;0.213790
5813.000000;0.214108
5812.000000;0.214428
5811.000000;0.214772
5810.000000;0.215125
5809.000000;0.215456
5808.000000;0.215772
5807.000000;0.216105
5806.000000;0.216455
5805.000000;0.216784
5804.000000;0.217072
5803.000000;0.217348
5802.000000;0.217650
5801.000000;0.217996
5800.000000;0.218384
5799.000000;0.218794
5798.000000;0.219191
5797.000000;0.219555
5796.000000;0.219909
5795.000000;0.220295
5794.000000;0.220723
5793.000000;0.221161
5792.000000;0.221578
5791.000000;0.221969
5790.000000;0.222341
5789.000000;0.222715
5788.000000;0.223113
5787.000000;0.223535
5786.000000;0.223950
5785.000000;0.224327
5784.000000;0.224681
5783.000000;0.225046
5782.000000;0.225437
5781.000000;0.225849
5780.000000;0.226288
5779.000000;0.226757
5778.000000;0.227229
5777.000000;0.227676
5776.000000;0.228108
5775.000000;0.228556
5774.000000;0.229026
5773.000000;0.229506
5772.000000;0.229993
5771.000000;0.230494
5770.000000;0.230987
5769.000000;0.231447
5768.000000;0.231891
5767.000000;0.232365
5766.000000;0.232884
5765.000000;0.233421
5764.000000;0.233945
5763.000000;0.234455
5762.000000;0.234955
5761.000000;0.235451
5760.000000;0.235955
5759.000000;0.236470
5758.000000;0.236980
5757.000000;0.237472
5756.000000;0.237963
5755.000000;0.238480
5754.000000;0.239018
5753.000000;0.239551
5752.000000;0.240071
5751.000000;0.240587
5750.000000;0.241097
5749.000000;0.241603
5748.000000;0.242135
5747.000000;0.242716
5746.000000;0.243330
5745.000000;0.243943
5744.000000;0.244550
5743.000000;0.245169
5742.000000;0.245795
5741.000000;0.246410
5740.000000;0.247017
5739.000000;0.247632
5738.000000;0.248237
5737.000000;0.248808
5736.000000;0.249363
5735.000000;0.249953
5734.000000;0.250587
5733.000000;0.251227
5732.000000;0.251845
5731.000000;0.252460
5730.000000;0.253092
5729.000000;0.253749
5728.000000;0.254436
5727.000000;0.255155
5726.000000;0.255880
5725.000000;0.256579
5724.000000;0.257246
5723.000000;0.257904
5722.000000;0.258564
5721.000000;0.259220
5720.000000;0.259882
5719.000000;0.260563
5718.000000;0.261251
5717.000000;0.261931
5716.000000;0.262614
5715.000000;0.263324
5714.000000;0.264055
5713.000000;0.264782
5712.000000;0.265513
5711.000000;0.266270
5710.000000;0.267037
5709.000000;0.267766
5708.000000;0.268450
5707.000000;0.269138
5706.000000;0.269863
5705.000000;0.270606
5704.000000;0.271336
5703.000000;0.272056
5702.000000;0.272785
5701.000000;0.273534
5700.000000;0.274302
5699.000000;0.275079
5698.000000;0.275805
5697.000000;0.276539
5696.000000;0.277276
5695.000000;0.278038
5694.000000;0.278824
5693.000000;0.279615
5692.000000;0.280405
5691.000000;0.281194
5690.000000;0.281970
5689.000000;0.282735
5688.000000;0.283518
5687.000000;0.284339
5686.000000;0.285163
5685.000000;0.285946
5684.000000;0.286690
5683.000000;0.287430
5682.000000;0.288168
5681.000000;0.288887
5680.000000;0.289602
5679.000000;0.290352
5678.000000;0.291144
5677.000000;0.291950
5676.000000;0.292754
5675.000000;0.293560
5674.000000;0.294354
5673.000000;0.295112
5672.000000;0.295849
5671.000000;0.296611
5670.000000;0.297415
5669.000000;0.298231
5668.000000;0.299027
5667.000000;0.299794
5666.000000;0.300531
5665.000000;0.301243
5664.000000;0.301950
5663.000000;0.302664
5662.000000;0.303368
5661.000000;0.304038
5660.000000;0.304696
5659.000000;0.305387
5658.000000;0.306117
5657.000000;0.306853
5656.000000;0.307571
5655.000000;0.308281
5654.000000;0.308991
5653.000000;0.309703
5652.000000;0.310424
5651.000000;0.311158
5650.000000;0.311886
5649.000000;0.312591
5648.000000;0.313277
5647.000000;0.313948
5646.000000;0.314580
5645.000000;0.315158
5644.000000;0.315726
5643.000000;0.316347
5642.000000;0.317034
5641.000000;0.317750
5640.000000;0.318459
5639.000000;0.319147
5638.000000;0.319790
5637.000000;0.320375
5636.000000;0.320926
5635.000000;0.321485
5634.000000;0.322053
5633.000000;0.322610
5632.000000;0.323154
5631.000000;0.323707
5630.000000;0.324274
5629.000000;0.324841
5628.000000;0.325412
5627.000000;0.325988
5626.000000;0.326542
5625.000000;0.327039
5624.000000;0.327482
5623.000000;0.327902
5622.000000;0.328319
5621.000000;0.328745
5620.000000;0.329210
5619.000000;0.329724
5618.000000;0.330247
5617.000000;0.330730
5616.000000;0.331173
5615.000000;0.331595
5614.000000;0.331980
5613.000000;0.332311
5612.000000;0.332638
5611.000000;0.333032
5610.000000;0.333489
5609.000000;0.333929
5608.000000;0.334295
5607.000000;0.334595
5606.000000;0.334863
5605.000000;0.335129
5604.000000;0.335417
5603.000000;0.335731
5602.000000;0.336045
5601.000000;0.336332
5600.000000;0.336601
5599.000000;0.336869
5598.000000;0.337124
5597.000000;0.337365
5596.000000;0.337631
5595.000000;0.337944
5594.000000;0.338261
5593.000000;0.338526
5592.000000;0.338744
5591.000000;0.338947
5590.000000;0.339134
5589.000000;0.339292
5588.000000;0.339449
5587.000000;0.339626
5586.000000;0.339785
5585.000000;0.339882
5584.000000;0.339953
5583.000000;0.340061
5582.000000;0.340206
5581.000000;0.340347
5580.000000;0.340482
5579.000000;0.340623
5578.000000;0.340739
5577.000000;0.340794
5576.000000;0.340830
5575.000000;0.340905
5574.000000;0.341007
5573.000000;0.341091
5572.000000;0.341169
5571.000000;0.341282
5570.000000;0.341392
5569.000000;0.341422
5568.000000;0.341394
5567.000000;0.341400
5566.000000;0.341455
5565.000000;0.341485
5564.000000;0.341466
5563.000000;0.341451
5562.000000;0.341464
5561.000000;0.341471
5560.000000;0.341476
5559.000000;0.341534
5558.000000;0.341644
5557.000000;0.341724
5556.000000;0.341723
5555.000000;0.341693
5554.000000;0.341692
5553.000000;0.341702
5552.000000;0.341673
5551.000000;0.341603
5550.000000;0.341523
5549.000000;0.341452
5548.000000;0.341406
5547.000000;0.341386
5546.000000;0.341363
5545.000000;0.341309
5544.000000;0.341246
5543.000000;0.341210
5542.000000;0.341175
5541.000000;0.341085
5540.000000;0.340959
5539.000000;0.340886
5538.000000;0.340891
5537.000000;0.340890
5536.000000;0.340825
5535.000000;0.340746
5534.000000;0.340727
5533.000000;0.340752
5532.000000;0.340754
5531.000000;0.340711
5530.000000;0.340653
5529.000000;0.340611
5528.000000;0.340600
5527.000000;0.340600
5526.000000;0.340555
5525.000000;0.340446
5524.000000;0.340339
5523.000000;0.340317
5522.000000;0.340371
5521.000000;0.340395
5520.000000;0.340349
5519.000000;0.340316
5518.000000;0.340347
5517.000000;0.340374
5516.000000;0.340313
5515.000000;0.340189
5514.000000;0.340120
5513.000000;0.340151
5512.000000;0.340203
5511.000000;0.340196
5510.000000;0.340149
5509.000000;0.340130
5508.000000;0.340151
5507.000000;0.340147
5506.000000;0.340097
5505.000000;0.340118
5504.000000;0.340291
5503.000000;0.340492
5502.000000;0.340542
5501.000000;0.340444
5500.000000;0.340441
5499.000000;0.340693
5498.000000;0.341000
5497.000000;0.341085
5496.000000;0.341027
5495.000000;0.341138
5494.000000;0.341486
5493.000000;0.341758
5492.000000;0.341715
5491.000000;0.341585
5490.000000;0.341721
5489.000000;0.342085
5488.000000;0.342336
5487.000000;0.342314
5486.000000;0.342202
5485.000000;0.342239
5484.000000;0.342409
5483.000000;0.342561
5482.000000;0.342758
5481.000000;0.343129
5480.000000;0.343550
5479.000000;0.343793
5478.000000;0.343903
5477.000000;0.344194
5476.000000;0.344799
5475.000000;0.345364
5474.000000;0.345542
5473.000000;0.345568
5472.000000;0.345880
5471.000000;0.346456
5470.000000;0.346910
5469.000000;0.347066
5468.000000;0.347194
5467.000000;0.347589
5466.000000;0.348124
5465.000000;0.348555
5464.000000;0.348918
5463.000000;0.349384
5462.000000;0.349987
5461.000000;0.350615
5460.000000;0.351138
5459.000000;0.351542
5458.000000;0.351918
5457.000000;0.352384
5456.000000;0.352993
5455.000000;0.353618
5454.000000;0.354049
5453.000000;0.354389
5452.000000;0.355015
5451.000000;0.356020
5450.000000;0.357010
5449.000000;0.357627
5448.000000;0.358140
5447.000000;0.359089
5446.000000;0.360363
5445.000000;0.361320
5444.000000;0.361798
5443.000000;0.362321
5442.000000;0.363319
5441.000000;0.364591
5440.000000;0.365578
5439.000000;0.366131
5438.000000;0.366689
5437.000000;0.367648
5436.000000;0.368992
5435.000000;0.370417
5434.000000;0.371584
5433.000000;0.372492
5432.000000;0.373480
5431.000000;0.374783
5430.000000;0.376294
5429.000000;0.377696
5428.000000;0.378809
5427.000000;0.379803
5426.000000;0.380970
5425.000000;0.382381
5424.000000;0.383882
5423.000000;0.385265
5422.000000;0.386492
5421.000000;0.387866
5420.000000;0.389714
5419.000000;0.391851
5418.000000;0.393802
5417.000000;0.395513
5416.000000;0.397466
5415.000000;0.399959
5414.000000;0.402554
5413.000000;0.404694
5412.000000;0.406561
5411.000000;0.408727
5410.000000;0.411215
5409.000000;0.413520
5408.000000;0.415459
5407.000000;0.417403
5406.000000;0.419666
5405.000000;0.422084
5404.000000;0.424423
5403.000000;0.426855
5402.000000;0.429532
5401.000000;0.432333
5400.000000;0.435304
5399.000000;0.438611
5398.000000;0.442152
5397.000000;0.445617
5396.000000;0.448946
5395.000000;0.452471
5394.000000;0.456279
5393.000000;0.460004
5392.000000;0.463507
5391.000000;0.467174
5390.000000;0.471266
5389.000000;0.475509
5388.000000;0.479595
5387.000000;0.483718
5386.000000;0.488195
5385.000000;0.492827
5384.000000;0.497354
5383.000000;0.502140
5382.000000;0.507493
5381.000000;0.512988
5380.000000;0.518163
5379.000000;0.523305
5378.000000;0.529023
5377.000000;0.535236
5376.000000;0.541306
5375.000000;0.547154
5374.000000;0.553306
5373.000000;0.559894
5372.000000;0.566505
5371.000000;0.573010
5370.000000;0.579840
5369.000000;0.587240
5368.000000;0.594863
5367.000000;0.602468
5366.000000;0.610365
5365.000000;0.618769
5364.000000;0.627405
5363.000000;0.636062
5362.000000;0.644929
5361.000000;0.654264
5360.000000;0.664065
5359.000000;0.674206
5358.000000;0.684598
5357.000000;0.695097
5356.000000;0.705646
5355.000000;0.716612
5354.000000;0.728463
5353.000000;0.740918
5352.000000;0.753227
5351.000000;0.765483
5350.000000;0.778470
5349.000000;0.792204
5348.000000;0.805809
5347.000000;0.819033
5346.000000;0.832943
5345.000000;0.848450
5344.000000;0.864840
5343.000000;0.880837
5342.000000;0.896516
5341.000000;0.912814
5340.000000;0.930016
5339.000000;0.947836
5338.000000;0.966254
5337.000000;0.985391
5336.000000;1.004840
5335.000000;1.024127
5334.000000;1.043679
5333.000000;1.064243
5332.000000;1.085655
5331.000000;1.107295
5330.000000;1.129314
5329.000000;1.152429
5328.000000;1.176754
5327.000000;1.201695
5326.000000;1.227012
5325.000000;1.252997
5324.000000;1.279491
5323.000000;1.305979
5322.000000;1.332676
5321.000000;1.360330
5320.000000;1.389064
5319.000000;1.418491
5318.000000;1.448743
5317.000000;1.480246
5316.000000;1.512621
5315.000000;1.545110
5314.000000;1.577997
5313.000000;1.611984
5312.000000;1.646471
5311.000000;1.680407
5310.000000;1.714492
5309.000000;1.750397
5308.000000;1.787914
5307.000000;1.825198
5306.000000;1.861908
5305.000000;1.899342
5304.000000;1.937222
5303.000000;1.973388
5302.000000;2.007042
5301.000000;2.039423
5300.000000;2.071270
5299.000000;2.102659
5298.000000;2.134964
5297.000000;2.169601
5296.000000;2.205110
5295.000000;2.239016
5294.000000;2.271814
5293.000000;2.304772
5292.000000;2.335663
5291.000000;2.362048
5290.000000;2.386623
5289.000000;2.412882
5288.000000;2.438139
5287.000000;2.458089
5286.000000;2.474441
5285.000000;2.489905
5284.000000;2.501030
5283.000000;2.505004
5282.000000;2.507962
5281.000000;2.516713
5280.000000;2.528287
5279.000000;2.535773
5278.000000;2.539486
5277.000000;2.543690
5276.000000;2.547642
5275.000000;2.548783
5274.000000;2.550239
5273.000000;2.556691
5272.000000;2.566900
5271.000000;2.576868
5270.000000;2.586130
5269.000000;2.594576
5268.000000;2.598227
5267.000000;2.595556
5266.000000;2.591752
5265.000000;2.590231
5264.000000;2.587385
5263.000000;2.581868
5262.000000;2.581679
5261.000000;2.592965
5260.000000;2.608314
5259.000000;2.614442
5258.000000;2.608340
5257.000000;2.597081
5256.000000;2.587056
5255.000000;2.582333
5254.000000;2.585972
5253.000000;2.595151
5252.000000;2.600417
5251.000000;2.596643
5250.000000;2.589750
5249.000000;2.587241
5248.000000;2.589162
5247.000000;2.593095
5246.000000;2.601298
5245.000000;2.614820
5244.000000;2.627141
5243.000000;2.631842
5242.000000;2.629969
5241.000000;2.624585
5240.000000;2.615872
5239.000000;2.606161
5238.000000;2.602342
5237.000000;2.606285
5236.000000;2.609216
5235.000000;2.603444
5234.000000;2.593610
5233.000000;2.587661
5232.000000;2.585482
5231.000000;2.583693
5230.000000;2.584274
5229.000000;2.590279
5228.000000;2.597834
5227.000000;2.600489
5226.000000;2.598555
5225.000000;2.596683
5224.000000;2.595735
5223.000000;2.594234
5222.000000;2.593599
5221.000000;2.594929
5220.000000;2.594849
5219.000000;2.590946
5218.000000;2.586854
5217.000000;2.586457
5216.000000;2.588092
5215.000000;2.588757
5214.000000;2.589428
5213.000000;2.591567
5212.000000;2.592843
5211.000000;2.591322
5210.000000;2.589544
5209.000000;2.589572
5208.000000;2.588498
5207.000000;2.584170
5206.000000;2.581277
5205.000000;2.584899
5204.000000;2.592323
5203.000000;2.596924
5202.000000;2.596129
5201.000000;2.591286
5200.000000;2.584058
5199.000000;2.577383
5198.000000;2.575417
5197.000000;2.577933
5196.000000;2.578528
5195.000000;2.573089
5194.000000;2.566108
5193.000000;2.563930
5192.000000;2.567421
5191.000000;2.574799
5190.000000;2.585735
5189.000000;2.597680
5188.000000;2.603206
5187.000000;2.598721
5186.000000;2.591826
5185.000000;2.592224
5184.000000;2.600011
5183.000000;2.607681
5182.000000;2.610202
5181.000000;2.607133
5180.000000;2.597691
5179.000000;2.582250
5178.000000;2.566102
5177.000000;2.555351
5176.000000;2.550607
5175.000000;2.548319
5174.000000;2.547249
5173.000000;2.548964
5172.000000;2.553214
5171.000000;2.557563
5170.000000;2.560728
5169.000000;2.563300
5168.000000;2.566121
5167.000000;2.570325
5166.000000;2.577174
5165.000000;2.585054
5164.000000;2.589019
5163.000000;2.586417
5162.000000;2.580740
5161.000000;2.576820
5160.000000;2.575165
5159.000000;2.573534
5158.000000;2.570727
5157.000000;2.566546
5156.000000;2.560983
5155.000000;2.555679
5154.000000;2.553269
5153.000000;2.553162
5152.000000;2.551024
5151.000000;2.544784
5150.000000;2.537940
5149.000000;2.534860
5148.000000;2.536325
5147.000000;2.541227
5146.000000;2.549331
5145.000000;2.559853
5144.000000;2.569710
5143.000000;2.575702
5142.000000;2.577003
5141.000000;2.574207
5140.000000;2.568906
5139.000000;2.564929
5138.000000;2.565092
5137.000000;2.566021
5136.000000;2.561141
5135.000000;2.550348
5134.000000;2.541298
5133.000000;2.539675
5132.000000;2.543356
5131.000000;2.547190
5130.000000;2.549371
5129.000000;2.550531
5128.000000;2.550958
5127.000000;2.552251
5126.000000;2.557184
5125.000000;2.565176
5124.000000;2.571930
5123.000000;2.575566
5122.000000;2.579336
5121.000000;2.585298
5120.000000;2.589030
5119.000000;2.585729
5118.000000;2.578189
5117.000000;2.571917
5116.000000;2.566970
5115.000000;2.560475
5114.000000;2.552914
5113.000000;2.546614
5112.000000;2.541261
5111.000000;2.535807
5110.000000;2.532080
5109.000000;2.532176
5108.000000;2.534217
5107.000000;2.534326
5106.000000;2.532304
5105.000000;2.531686
5104.000000;2.535011
5103.000000;2.542119
5102.000000;2.551005
5101.000000;2.558293
5100.000000;2.561006
5099.000000;2.560187
5098.000000;2.560679
5097.000000;2.565127
5096.000000;2.570681
5095.000000;2.573552
5094.000000;2.573637
5093.000000;2.571364
5092.000000;2.564195
5091.000000;2.551326
5090.000000;2.538412
5089.000000;2.532470
5088.000000;2.534275
5087.000000;2.538615
5086.000000;2.540650
5085.000000;2.539610
5084.000000;2.537306
5083.000000;2.536126
5082.000000;2.537399
5081.000000;2.539373
5080.000000;2.538420
5079.000000;2.534210
5078.000000;2.531298
5077.000000;2.533008
5076.000000;2.535950
5075.000000;2.534273
5074.000000;2.528257
5073.000000;2.523691
5072.000000;2.523941
5071.000000;2.526322
5070.000000;2.526203
5069.000000;2.523136
5068.000000;2.522024
5067.000000;2.527989
5066.000000;2.539897
5065.000000;2.549752
5064.000000;2.549279
5063.000000;2.538229
5062.000000;2.524496
5061.000000;2.515150
5060.000000;2.511451
5059.000000;2.511946
5058.000000;2.515290
5057.000000;2.518759
5056.000000;2.518124
5055.000000;2.511869
5054.000000;2.503485
5053.000000;2.497722
5052.000000;2.495740
5051.000000;2.495275
5050.000000;2.494433
5049.000000;2.493496
5048.000000;2.493622
5047.000000;2.495283
5046.000000;2.497322
5045.000000;2.496879
5044.000000;2.492126
5043.000000;2.485352
5042.000000;2.481006
5041.000000;2.480374
5040.000000;2.480471
5039.000000;2.479132
5038.000000;2.478017
5037.000000;2.478979
5036.000000;2.480806
5035.000000;2.481475
5034.000000;2.481332
5033.000000;2.481880
5032.000000;2.483101
5031.000000;2.483814
5030.000000;2.482844
5029.000000;2.478204
5028.000000;2.468166
5027.000000;2.455327
5026.000000;2.446094
5025.000000;2.443937
5024.000000;2.444923
5023.000000;2.441993
5022.000000;2.433322
5021.000000;2.423463
5020.000000;2.417167
5019.000000;2.415309
5018.000000;2.415821
5017.000000;2.416073
5016.000000;2.414391
5015.000000;2.410693
5014.000000;2.406049
5013.000000;2.401444
5012.000000;2.397022
5011.000000;2.392896
5010.000000;2.389799
5009.000000;2.387745
5008.000000;2.385652
5007.000000;2.383380
5006.000000;2.382060
5005.000000;2.381146
5004.000000;2.377098
5003.000000;2.366941
5002.000000;2.352143
5001.000000;2.337298
5000.000000;2.326566
4999.000000;2.321647
4998.000000;2.321393
4997.000000;2.322043
4996.000000;2.319601
4995.000000;2.313705
4994.000000;2.307884
4993.000000;2.304739
4992.000000;2.302677
4991.000000;2.298679
4990.000000;2.292323
4989.000000;2.284825
4988.000000;2.276059
4987.000000;2.265501
4986.000000;2.255028
4985.000000;2.247767
4984.000000;2.244204
4983.000000;2.241543
4982.000000;2.237107
4981.000000;2.230810
4980.000000;2.224094
4979.000000;2.217876
4978.000000;2.212256
4977.000000;2.207172
4976.000000;2.202541
4975.000000;2.198025
4974.000000;2.193099
4973.000000;2.187250
4972.000000;2.180134
4971.000000;2.171984
4970.000000;2.163604
4969.000000;2.155632
4968.000000;2.148250
4967.000000;2.141920
4966.000000;2.137554
4965.000000;2.135096
4964.000000;2.132493
4963.000000;2.127179
4962.000000;2.118590
4961.000000;2.108182
4960.000000;2.097390
4959.000000;2.086906
4958.000000;2.077671
4957.000000;2.071028
4956.000000;2.067364
4955.000000;2.065244
4954.000000;2.062458
4953.000000;2.057774
4952.000000;2.051456
4951.000000;2.044445
4950.000000;2.037489
4949.000000;2.030847
4948.000000;2.024395
4947.000000;2.017925
4946.000000;2.011433
4945.000000;2.005109
4944.000000;1.999149
4943.000000;1.993587
4942.000000;1.988188
4941.000000;1.982542
4940.000000;1.976399
4939.000000;1.969930
4938.000000;1.963414
4937.000000;1.956629
4936.000000;1.948974
4935.000000;1.940380
4934.000000;1.931679
4933.000000;1.923696
4932.000000;1.916352
4931.000000;1.909153
4930.000000;1.902247
4929.000000;1.896395
4928.000000;1.891913
4927.000000;1.888132
4926.000000;1.884000
4925.000000;1.878896
4924.000000;1.872724
4923.000000;1.865681
4922.000000;1.858225
4921.000000;1.850956
4920.000000;1.844090
4919.000000;1.837150
4918.000000;1.829507
4917.000000;1.821305
4916.000000;1.813527
4915.000000;1.806998
4914.000000;1.801473
4913.000000;1.795969
4912.000000;1.789942
4911.000000;1.783877
4910.000000;1.778601
4909.000000;1.774208
4908.000000;1.769830
4907.000000;1.764416
4906.000000;1.757724
4905.000000;1.750550
4904.000000;1.743994
4903.000000;1.738404
4902.000000;1.733001
4901.000000;1.726635
4900.000000;1.719032
4899.000000;1.711176
4898.000000;1.704356
4897.000000;1.698986
4896.000000;1.694426
4895.000000;1.689749
4894.000000;1.684475
4893.000000;1.678670
4892.000000;1.672649
4891.000000;1.666642
4890.000000;1.660612
4889.000000;1.654295
4888.000000;1.647505
4887.000000;1.640393
4886.000000;1.633345
4885.000000;1.626694
4884.000000;1.620625
4883.000000;1.615181
4882.000000;1.610156
4881.000000;1.605053
4880.000000;1.599434
4879.000000;1.593360
4878.000000;1.587357
4877.000000;1.581922
4876.000000;1.577135
4875.000000;1.572685
4874.000000;1.568086
4873.000000;1.562945
4872.000000;1.557237
4871.000000;1.551313
4870.000000;1.545478
4869.000000;1.539629
4868.000000;1.533554
4867.000000;1.527480
4866.000000;1.521972
4865.000000;1.517224
4864.000000;1.512753
4863.000000;1.507931
4862.000000;1.502574
4861.000000;1.496882
4860.000000;1.491117
4859.000000;1.485555
4858.000000;1.480503
4857.000000;1.476006
4856.000000;1.471632
4855.000000;1.466794
4854.000000;1.461283
4853.000000;1.455354
4852.000000;1.449386
4851.000000;1.443650
4850.000000;1.438300
4849.000000;1.433350
4848.000000;1.428633
4847.000000;1.423931
4846.000000;1.419122
4845.000000;1.414118
4844.000000;1.408808
4843.000000;1.403283
4842.000000;1.397996
4841.000000;1.393369
4840.000000;1.389189
4839.000000;1.384694
4838.000000;1.379410
4837.000000;1.373716
4836.000000;1.368428
4835.000000;1.364009
4834.000000;1.360305
4833.000000;1.356817
4832.000000;1.353004
4831.000000;1.348492
4830.000000;1.343289
4829.000000;1.337824
4828.000000;1.332566
4827.000000;1.327569
4826.000000;1.322547
4825.000000;1.317393
4824.000000;1.312366
4823.000000;1.307697
4822.000000;1.303244
4821.000000;1.298705
4820.000000;1.294033
4819.000000;1.289431
4818.000000;1.284994
4817.000000;1.280582
4816.000000;1.276057
4815.000000;1.271486
4814.000000;1.267044
4813.000000;1.262845
4812.000000;1.258897
4811.000000;1.255110
4810.000000;1.251252
4809.000000;1.247000
4808.000000;1.242218
4807.000000;1.237136
4806.000000;1.232203
4805.000000;1.227711
4804.000000;1.223629
4803.000000;1.219744
4802.000000;1.215862
4801.000000;1.211871
4800.000000;1.207728
4799.000000;1.203483
4798.000000;1.199271
4797.000000;1.195195
4796.000000;1.191207
4795.000000;1.187165
4794.000000;1.183024
4793.000000;1.178928
4792.000000;1.175056
4791.000000;1.171376
4790.000000;1.167615
4789.000000;1.163495
4788.000000;1.159005
4787.000000;1.154409
4786.000000;1.150005
4785.000000;1.145914
4784.000000;1.142087
4783.000000;1.138451
4782.000000;1.134995
4781.000000;1.131685
4780.000000;1.128376
4779.000000;1.124876
4778.000000;1.121124
4777.000000;1.117264
4776.000000;1.113490
4775.000000;1.109815
4774.000000;1.106054
4773.000000;1.102073
4772.000000;1.097991
4771.000000;1.094089
4770.000000;1.090506
4769.000000;1.087122
4768.000000;1.083738
4767.000000;1.080324
4766.000000;1.076989
4765.000000;1.073741
4764.000000;1.070386
4763.000000;1.066711
4762.000000;1.062727
4761.000000;1.058665
4760.000000;1.054755
4759.000000;1.051087
4758.000000;1.047658
4757.000000;1.044443
4756.000000;1.041354
4755.000000;1.038212
4754.000000;1.034888
4753.000000;1.031474
4752.000000;1.028212
4751.000000;1.025213
4750.000000;1.022305
4749.000000;1.019207
4748.000000;1.015807
4747.000000;1.012237
4746.000000;1.008714
4745.000000;1.005387
4744.000000;1.002297
4743.000000;0.999394
4742.000000;0.996565
4741.000000;0.993685
4740.000000;0.990674
4739.000000;0.987510
4738.000000;0.984219
4737.000000;0.980884
4736.000000;0.977635
4735.000000;0.974559
4734.000000;0.971605
4733.000000;0.968650
4732.000000;0.965662
4731.000000;0.962766
4730.000000;0.960072
4729.000000;0.957494
4728.000000;0.954801
4727.000000;0.951851
4726.000000;0.948737
4725.000000;0.945669
4724.000000;0.942759
4723.000000;0.939960
4722.000000;0.937177
4721.000000;0.934392
4720.000000;0.931645
4719.000000;0.928961
4718.000000;0.926318
4717.000000;0.923687
4716.000000;0.921071
4715.000000;0.918499
4714.000000;0.915997
4713.000000;0.913551
4712.000000;0.911098
4711.000000;0.908587
4710.000000;0.906073
4709.000000;0.903698
4708.000000;0.901528
4707.000000;0.899430
4706.000000;0.897189
4705.000000;0.894743
4704.000000;0.892230
4703.000000;0.889797
4702.000000;0.887428
4701.000000;0.885015
4700.000000;0.882511
4699.000000;0.879980
4698.000000;0.877523
4697.000000;0.875208
4696.000000;0.873060
4695.000000;0.871042
4694.000000;0.869070
4693.000000;0.867055
4692.000000;0.864957
4691.000000;0.862786
4690.000000;0.860591
4689.000000;0.858449
4688.000000;0.856433
4687.000000;0.854538
4686.000000;0.852657
4685.000000;0.850666
4684.000000;0.848536
4683.000000;0.846352
4682.000000;0.844248
4681.000000;0.842316
4680.000000;0.840539
4679.000000;0.838795
4678.000000;0.836949
4677.000000;0.834981
4676.000000;0.832978
4675.000000;0.831000
4674.000000;0.829016
4673.000000;0.826993
4672.000000;0.824987
4671.000000;0.823090
4670.000000;0.821327
4669.000000;0.819656
4668.000000;0.818028
4667.000000;0.816403
4666.000000;0.814735
4665.000000;0.813021
4664.000000;0.811338
4663.000000;0.809766
4662.000000;0.808277
4661.000000;0.806750
4660.000000;0.805092
4659.000000;0.803312
4658.000000;0.801499
4657.000000;0.799775
4656.000000;0.798222
4655.000000;0.796818
4654.000000;0.795453
4653.000000;0.794030
4652.000000;0.792554
4651.000000;0.791069
4650.000000;0.789581
4649.000000;0.788081
4648.000000;0.786609
4647.000000;0.785200
4646.000000;0.783807
4645.000000;0.782353
4644.000000;0.780867
4643.000000;0.779469
4642.000000;0.778221
4641.000000;0.777060
4640.000000;0.775887
4639.000000;0.774656
4638.000000;0.773349
4637.000000;0.771950
4636.000000;0.770486
4635.000000;0.769057
4634.000000;0.767786
4633.000000;0.766711
4632.000000;0.765754
4631.000000;0.764775
4630.000000;0.763678
4629.000000;0.762474
4628.000000;0.761236
4627.000000;0.760010
4626.000000;0.758790
4625.000000;0.757614
4624.000000;0.756579
4623.000000;0.755714
4622.000000;0.754877
4621.000000;0.753881
4620.000000;0.752715
4619.000000;0.751530
4618.000000;0.750443
4617.000000;0.749422
4616.000000;0.748398
4615.000000;0.747360
4614.000000;0.746327
4613.000000;0.745294
4612.000000;0.744269
4611.000000;0.743319
4610.000000;0.742505
4609.000000;0.741811
4608.000000;0.741145
4607.000000;0.740403
4606.000000;0.739529
4605.000000;0.738561
4604.000000;0.737627
4603.000000;0.736856
4602.000000;0.736254
4601.000000;0.735706
4600.000000;0.735114
4599.000000;0.734473
4598.000000;0.733812
4597.000000;0.733122
4596.000000;0.732387
4595.000000;0.731653
4594.000000;0.730999
4593.000000;0.730444
4592.000000;0.729904
4591.000000;0.729271
4590.000000;0.728509
4589.000000;0.727692
4588.000000;0.726944
4587.000000;0.726348
4586.000000;0.725896
4585.000000;0.725537
4584.000000;0.725208
4583.000000;0.724841
4582.000000;0.724393
4581.000000;0.723920
4580.000000;0.723564
4579.000000;0.723401
4578.000000;0.723326
4577.000000;0.723164
4576.000000;0.722860
4575.000000;0.722494
4574.000000;0.722123
4573.000000;0.721747
4572.000000;0.721407
4571.000000;0.721205
4570.000000;0.721153
4569.000000;0.721118
4568.000000;0.720970
4567.000000;0.720749
4566.000000;0.720592
4565.000000;0.720558
4564.000000;0.720593
4563.000000;0.720631
4562.000000;0.720664
4561.000000;0.720704
4560.000000;0.720732
4559.000000;0.720709
4558.000000;0.720621
4557.000000;0.720524
4556.000000;0.720524
4555.000000;0.720698
4554.000000;0.721011
4553.000000;0.721334
4552.000000;0.721559
4551.000000;0.721689
4550.000000;0.721822
4549.000000;0.722050
4548.000000;0.722394
4547.000000;0.722790
4546.000000;0.723143
4545.000000;0.723414
4544.000000;0.723656
4543.000000;0.723949
4542.000000;0.724307
4541.000000;0.724686
4540.000000;0.725050
4539.000000;0.725397
4538.000000;0.725743
4537.000000;0.726116
4536.000000;0.726558
4535.000000;0.727079
4534.000000;0.727616
4533.000000;0.728111
4532.000000;0.728602
4531.000000;0.729158
4530.000000;0.729730
4529.000000;0.730165
4528.000000;0.730401
4527.000000;0.730559
4526.000000;0.730785
4525.000000;0.731095
4524.000000;0.731418
4523.000000;0.731728
4522.000000;0.732051
4521.000000;0.732402
4520.000000;0.732777
4519.000000;0.733190
4518.000000;0.733664
4517.000000;0.734182
4516.000000;0.734693
4515.000000;0.735130
4514.000000;0.735437
4513.000000;0.735629
4512.000000;0.735840
4511.000000;0.736259
4510.000000;0.736940
4509.000000;0.737726
4508.000000;0.738408
4507.000000;0.738934
4506.000000;0.739414
4505.000000;0.739954
4504.000000;0.740556
4503.000000;0.741167
4502.000000;0.741754
4501.000000;0.742319
4500.000000;0.742882
4499.000000;0.743465
4498.000000;0.744077
4497.000000;0.744707
4496.000000;0.745348
4495.000000;0.746033
4494.000000;0.746818
4493.000000;0.747722
4492.000000;0.748681
4491.000000;0.749577
4490.000000;0.750338
4489.000000;0.751025
4488.000000;0.751802
4487.000000;0.752759
4486.000000;0.753794
4485.000000;0.754720
4484.000000;0.755483
4483.000000;0.756207
4482.000000;0.757048
4481.000000;0.758054
4480.000000;0.759202
4479.000000;0.760450
4478.000000;0.761714
4477.000000;0.762884
4476.000000;0.763939
4475.000000;0.765021
4474.000000;0.766281
4473.000000;0.767697
4472.000000;0.769098
4471.000000;0.770375
4470.000000;0.771596
4469.000000;0.772884
4468.000000;0.774254
4467.000000;0.775604
4466.000000;0.776845
4465.000000;0.778018
4464.000000;0.779272
4463.000000;0.780743
4462.000000;0.782431
4461.000000;0.784204
4460.000000;0.785903
4459.000000;0.787455
4458.000000;0.788903
4457.000000;0.790368
4456.000000;0.791948
4455.000000;0.793610
4454.000000;0.795215
4453.000000;0.796683
4452.000000;0.798144
4451.000000;0.799820
4450.000000;0.801775
4449.000000;0.803837
4448.000000;0.805817
4447.000000;0.807711
4446.000000;0.809616
4445.000000;0.811527
4444.000000;0.813326
4443.000000;0.814975
4442.000000;0.816623
4441.000000;0.818482
4440.000000;0.820597
4439.000000;0.822778
4438.000000;0.824772
4437.000000;0.826506
4436.000000;0.828158
4435.000000;0.829968
4434.000000;0.831996
4433.000000;0.834113
4432.000000;0.836200
4431.000000;0.838282
4430.000000;0.840436
4429.000000;0.842662
4428.000000;0.844904
4427.000000;0.847161
4426.000000;0.849488
4425.000000;0.851911
4424.000000;0.854407
4423.000000;0.856959
4422.000000;0.859562
4421.000000;0.862177
4420.000000;0.864713
4419.000000;0.867080
4418.000000;0.869255
4417.000000;0.871309
4416.000000;0.873397
4415.000000;0.875698
4414.000000;0.878287
4413.000000;0.881063
4412.000000;0.883804
4411.000000;0.886365
4410.000000;0.888796
4409.000000;0.891260
4408.000000;0.893829
4407.000000;0.896408
4406.000000;0.898896
4405.000000;0.901381
4404.000000;0.904111
4403.000000;0.907209
4402.000000;0.910518
4401.000000;0.913766
4400.000000;0.916853
4399.000000;0.919846
4398.000000;0.922755
4397.000000;0.925470
4396.000000;0.927977
4395.000000;0.930505
4394.000000;0.933332
4393.000000;0.936475
4392.000000;0.939661
4391.000000;0.942591
4390.000000;0.945205
4389.000000;0.947700
4388.000000;0.950351
4387.000000;0.953330
4386.000000;0.956614
4385.000000;0.960054
4384.000000;0.963525
4383.000000;0.967017
4382.000000;0.970581
4381.000000;0.974202
4380.000000;0.977762
4379.000000;0.981132
4378.000000;0.984285
4377.000000;0.987315
4376.000000;0.990362
4375.000000;0.993498
4374.000000;0.996679
4373.000000;0.999828
4372.000000;1.002975
4371.000000;1.006280
4370.000000;1.009854
4369.000000;1.013582
4368.000000;1.017193
4367.000000;1.020550
4366.000000;1.023827
4365.000000;1.027297
4364.000000;1.030990
4363.000000;1.034673
4362.000000;1.038198
4361.000000;1.041756
4360.000000;1.045659
4359.000000;1.049947
4358.000000;1.054343
4357.000000;1.058592
4356.000000;1.062715
4355.000000;1.066894
4354.000000;1.071222
4353.000000;1.075597
4352.000000;1.079826
4351.000000;1.083808
4350.000000;1.087688
4349.000000;1.091782
4348.000000;1.096229
4347.000000;1.100741
4346.000000;1.104915
4345.000000;1.108783
4344.000000;1.112806
4343.000000;1.117238
4342.000000;1.121765
4341.000000;1.125980
4340.000000;1.129998
4339.000000;1.134323
4338.000000;1.139207
4337.000000;1.144431
4336.000000;1.149664
4335.000000;1.154769
4334.000000;1.159714
4333.000000;1.164431
4332.000000;1.168891
4331.000000;1.173209
4330.000000;1.177605
4329.000000;1.182271
4328.000000;1.187248
4327.000000;1.192355
4326.000000;1.197336
4325.000000;1.202160
4324.000000;1.207084
4323.000000;1.212304
4322.000000;1.217696
4321.000000;1.223061
4320.000000;1.228421
4319.000000;1.233825
4318.000000;1.239036
4317.000000;1.243795
4316.000000;1.248342
4315.000000;1.253259
4314.000000;1.258740
4313.000000;1.264377
4312.000000;1.269786
4311.000000;1.275098
4310.000000;1.280631
4309.000000;1.286352
4308.000000;1.291904
4307.000000;1.296989
4306.000000;1.301570
4305.000000;1.305875
4304.000000;1.310394
4303.000000;1.315668
4302.000000;1.321826
4301.000000;1.328388
4300.000000;1.334707
4299.000000;1.340545
4298.000000;1.346085
4297.000000;1.351530
4296.000000;1.356949
4295.000000;1.362472
4294.000000;1.368339
4293.000000;1.374608
4292.000000;1.380996
4291.000000;1.387159
4290.000000;1.393079
4289.000000;1.398956
4288.000000;1.404728
4287.000000;1.410042
4286.000000;1.414871
4285.000000;1.419826
4284.000000;1.425526
4283.000000;1.431831
4282.000000;1.438111
4281.000000;1.444202
4280.000000;1.450628
4279.000000;1.457783
4278.000000;1.465304
4277.000000;1.472467
4276.000000;1.478935
4275.000000;1.484968
4274.000000;1.491126
4273.000000;1.497901
4272.000000;1.505276
4271.000000;1.512492
4270.000000;1.518658
4269.000000;1.523836
4268.000000;1.529080
4267.000000;1.535170
4266.000000;1.541754
4265.000000;1.548060
4264.000000;1.554069
4263.000000;1.560456
4262.000000;1.567653
4261.000000;1.575433
4260.000000;1.583217
4259.000000;1.590367
4258.000000;1.596407
4257.000000;1.601400
4256.000000;1.606070
4255.000000;1.611374
4254.000000;1.618126
4253.000000;1.626866
4252.000000;1.637320
4251.000000;1.647732
4250.000000;1.655726
4249.000000;1.660667
4248.000000;1.664501
4247.000000;1.669701
4246.000000;1.676911
4245.000000;1.685398
4244.000000;1.694474
4243.000000;1.703527
4242.000000;1.711510
4241.000000;1.717918
4240.000000;1.723879
4239.000000;1.730915
4238.000000;1.738843
4237.000000;1.746132
4236.000000;1.752149
4235.000000;1.757721
4234.000000;1.763432
4233.000000;1.768784
4232.000000;1.773556
4231.000000;1.778970
4230.000000;1.786809
4229.000000;1.797744
4228.000000;1.810599
4227.000000;1.822967
4226.000000;1.832967
4225.000000;1.840804
4224.000000;1.848101
4223.000000;1.855653
4222.000000;1.863062
4221.000000;1.870818
4220.000000;1.880715
4219.000000;1.892918
4218.000000;1.904380
4217.000000;1.912238
4216.000000;1.917717
4215.000000;1.924182
4214.000000;1.932535
4213.000000;1.941054
4212.000000;1.948785
4211.000000;1.956171
4210.000000;1.962702
4209.000000;1.966966
4208.000000;1.969353
4207.000000;1.972004
4206.000000;1.975967
4205.000000;1.980949
4204.000000;1.987575
4203.000000;1.997166
4202.000000;2.009274
4201.000000;2.022051
4200.000000;2.035267
4199.000000;2.050033
4198.000000;2.065053
4197.000000;2.076618
4196.000000;2.083660
4195.000000;2.089268
4194.000000;2.095964
4193.000000;2.102886
4192.000000;2.108639
4191.000000;2.113769
4190.000000;2.119067
4189.000000;2.125119
4188.000000;2.134855
4187.000000;2.151819
4186.000000;2.173608
4185.000000;2.190633
4184.000000;2.195865
4183.000000;2.193868
4182.000000;2.195168
4181.000000;2.204761
4180.000000;2.218781
4179.000000;2.229672
4178.000000;2.233737
4177.000000;2.235185
4176.000000;2.242823
4175.000000;2.261295
4174.000000;2.284673
4173.000000;2.300506
4172.000000;2.303173
4171.000000;2.298725
4170.000000;2.294261
4169.000000;2.291280
4168.000000;2.291470
4167.000000;2.300290
4166.000000;2.319719
4165.000000;2.342399
4164.000000;2.359580
4163.000000;2.372743
4162.000000;2.389303
4161.000000;2.410502
4160.000000;2.430558
4159.000000;2.445165
4158.000000;2.453309
4157.000000;2.451994
4156.000000;2.440424
4155.000000;2.428211
4154.000000;2.427377
4153.000000;2.437817
4152.000000;2.446397
4151.000000;2.442955
4150.000000;2.434936
4149.000000;2.438084
4148.000000;2.456639
4147.000000;2.478842
4146.000000;2.491909
4145.000000;2.497392
4144.000000;2.505625
4143.000000;2.520243
4142.000000;2.534806
4141.000000;2.542451
4140.000000;2.544988
4139.000000;2.551107
4138.000000;2.567666
4137.000000;2.592132
4136.000000;2.612845
4135.000000;2.615654
4134.000000;2.599412
4133.000000;2.586100
4132.000000;2.595800
4131.000000;2.623684
4130.000000;2.643811
4129.000000;2.643586
4128.000000;2.645373
4127.000000;2.665315
4126.000000;2.685322
4125.000000;2.685259
4124.000000;2.674551
4123.000000;2.671979
4122.000000;2.683313
4121.000000;2.702535
4120.000000;2.721841
4119.000000;2.735092
4118.000000;2.735498
4117.000000;2.722996
4116.000000;2.709930
4115.000000;2.702380
4114.000000;2.690499
4113.000000;2.673994
4112.000000;2.664684
4111.000000;2.670312
4110.000000;2.688147
4109.000000;2.700704
4108.000000;2.703389
4107.000000;2.714321
4106.000000;2.743313
4105.000000;2.779282
4104.000000;2.809717
4103.000000;2.843022
4102.000000;2.890148
4101.000000;2.941059
4100.000000;2.955443
4099.000000;2.906190
4098.000000;2.855321
4097.000000;2.868326
4096.000000;2.957391
4095.000000;3.038114
4094.000000;2.986363
4093.000000;2.910302
4092.000000;2.872842
4091.000000;2.860747
4090.000000;2.878896
4089.000000;2.921884
4088.000000;2.949813
4087.000000;2.932932
4086.000000;2.885863
4085.000000;2.845526
4084.000000;2.837273
4083.000000;2.864656
4082.000000;2.912728
4081.000000;2.960666
4080.000000;3.005929
4079.000000;3.068884
4078.000000;3.127428
4077.000000;3.112511
4076.000000;3.051698
4075.000000;2.996748
4074.000000;2.944264
4073.000000;2.899136
4072.000000;2.887657
4071.000000;2.914692
4070.000000;2.949996
4069.000000;2.978648
4068.000000;3.020072
4067.000000;3.075056
4066.000000;3.089658
4065.000000;3.053394
4064.000000;3.034135
4063.000000;3.042494
4062.000000;3.029750
4061.000000;2.974128
4060.000000;2.921537
4059.000000;2.922710
4058.000000;2.977028
4057.000000;3.043147
4056.000000;3.089257
4055.000000;3.115340
4054.000000;3.122571
4053.000000;3.131064
4052.000000;3.135245
4051.000000;3.088703
4050.000000;3.027393
4049.000000;3.004028
4048.000000;3.036546
4047.000000;3.134381
4046.000000;3.270135
4045.000000;3.334731
4044.000000;3.294395
4043.000000;3.274726
4042.000000;3.304959
4041.000000;3.203515
4040.000000;3.016711
4039.000000;2.882297
4038.000000;2.823138
4037.000000;2.829678
4036.000000;2.883286
4035.000000;2.965132
4034.000000;3.048015
4033.000000;3.115025
4032.000000;3.168412
4031.000000;3.121617
4030.000000;3.047369
4029.000000;3.084042
4028.000000;3.231878
4027.000000;3.366683
4026.000000;3.383024
4025.000000;3.347649
4024.000000;3.252924
4023.000000;3.137152
4022.000000;3.032729
4021.000000;2.967947
4020.000000;2.956477
4019.000000;2.981484
4018.000000;3.001217
4017.000000;3.002040
4016.000000;3.025090
4015.000000;3.093426
4014.000000;3.176563
4013.000000;3.252258
4012.000000;3.289219
4011.000000;3.234954
4010.000000;3.145349
4009.000000;3.110012
4008.000000;3.124417
4007.000000;3.071629
4006.000000;2.981980
4005.000000;2.977875
4004.000000;3.132999
4003.000000;3.619128
4002.000000;3.804704
4001.000000;3.500223
4000.000000;3.685504
3999.000000;3.770024
3998.000000;3.811689
3997.000000;3.618689
3996.000000;3.363767
3995.000000;3.159339
3994.000000;3.010776
3993.000000;2.919965
3992.000000;2.885803
3991.000000;2.907775
3990.000000;2.977009
3989.000000;3.031880
3988.000000;2.977146
3987.000000;2.909373
3986.000000;2.922362
3985.000000;3.017746
3984.000000;3.154506
3983.000000;3.242500
3982.000000;3.200214
3981.000000;3.116730
3980.000000;3.093777
3979.000000;3.159350
3978.000000;3.311812
3977.000000;3.474044
3976.000000;3.372850
3975.000000;3.230294
3974.000000;3.263929
3973.000000;3.415902
3972.000000;3.361854
3971.000000;3.423092
3970.000000;3.809397
3969.000000;3.410755
3968.000000;3.208237
3967.000000;3.371199
3966.000000;3.870285
3965.000000;3.550934
3964.000000;3.302747
3963.000000;3.294819
3962.000000;3.345947
3961.000000;3.457652
3960.000000;3.780730
3959.000000;3.725741
3958.000000;3.255269
3957.000000;3.037467
3956.000000;2.963434
3955.000000;2.978362
3954.000000;3.014159
3953.000000;3.034918
3952.000000;3.100297
3951.000000;3.258354
3950.000000;3.459282
3949.000000;3.517888
3948.000000;3.444444
3947.000000;3.324377
3946.000000;3.210943
3945.000000;3.181291
3944.000000;3.317646
3943.000000;3.802152
3942.000000;3.497603
3941.000000;3.152312
3940.000000;3.114703
3939.000000;3.178265
3938.000000;3.383168
3937.000000;3.693410
3936.000000;3.779467
3935.000000;3.694371
3934.000000;3.707134
3933.000000;3.583225
3932.000000;3.358863
3931.000000;3.181400
3930.000000;3.070221
3929.000000;3.046092
3928.000000;3.072198
3927.000000;3.058307
3926.000000;3.088951
3925.000000;3.229143
3924.000000;3.399606
3923.000000;3.557773
3922.000000;3.857970
3921.000000;4.159836
3920.000000;3.760178
3919.000000;3.636793
3918.000000;3.676547
3917.000000;3.645868
3916.000000;3.446874
3915.000000;3.255307
3914.000000;3.116428
3913.000000;3.025086
3912.000000;2.976885
3911.000000;2.996312
3910.000000;3.103755
3909.000000;3.448105
3908.000000;3.703417
3907.000000;3.465582
3906.000000;3.439746
3905.000000;3.507771
3904.000000;3.600569
3903.000000;3.735218
3902.000000;3.933220
3901.000000;4.354857
3900.000000;4.400583
3899.000000;4.047569
3898.000000;4.597735
3897.000000;3.511211
3896.000000;3.167547
3895.000000;3.069799
3894.000000;3.147625
3893.000000;3.339676
3892.000000;3.439728
3891.000000;3.278482
3890.000000;3.173839
3889.000000;3.186143
3888.000000;3.348375
3887.000000;3.555682
3886.000000;3.386428
3885.000000;3.195725
3884.000000;3.179737
3883.000000;3.255362
3882.000000;3.239544
3881.000000;3.133957
3880.000000;3.063153
3879.000000;3.022080
3878.000000;3.053169
3877.000000;3.230493
3876.000000;3.933071
3875.000000;3.314424
3874.000000;3.212718
3873.000000;3.347883
3872.000000;3.477934
3871.000000;3.553310
3870.000000;3.429081
3869.000000;3.275827
3868.000000;3.301386
3867.000000;3.528277
3866.000000;3.778083
3865.000000;3.447719
3864.000000;3.342072
3863.000000;3.549066
3862.000000;3.587284
3861.000000;3.287929
3860.000000;3.275788
3859.000000;3.429018
3858.000000;3.852174
3857.000000;4.224958
3856.000000;4.199479
3855.000000;4.077722
3854.000000;3.851744
3853.000000;3.626528
3852.000000;3.499741
3851.000000;3.470565
3850.000000;3.381157
3849.000000;3.238034
3848.000000;3.193422
3847.000000;3.234174
3846.000000;3.336450
3845.000000;3.371736
3844.000000;3.277355
3843.000000;3.377631
3842.000000;3.684327
3841.000000;3.250963
3840.000000;3.038753
3839.000000;3.002833
3838.000000;3.077756
3837.000000;3.160887
3836.000000;3.231196
3835.000000;3.298451
3834.000000;3.288393
3833.000000;3.238078
3832.000000;3.159131
3831.000000;3.009749
3830.000000;2.914923
3829.000000;2.929685
3828.000000;3.159061
3827.000000;3.151556
3826.000000;2.919767
3825.000000;2.941596
3824.000000;3.110367
3823.000000;3.254298
3822.000000;3.234635
3821.000000;3.155460
3820.000000;3.158720
3819.000000;3.207611
3818.000000;3.237426
3817.000000;3.306445
3816.000000;3.288889
3815.000000;3.145393
3814.000000;3.145414
3813.000000;3.206409
3812.000000;3.302950
3811.000000;3.417377
3810.000000;3.452461
3809.000000;3.427826
3808.000000;3.405730
3807.000000;3.349814
3806.000000;3.197325
3805.000000;3.076244
3804.000000;3.023203
3803.000000;2.999454
3802.000000;3.011835
3801.000000;3.104053
3800.000000;3.205362
3799.000000;3.209015
3798.000000;3.149607
3797.000000;3.065994
3796.000000;2.998974
3795.000000;2.974271
3794.000000;2.867126
3793.000000;2.711410
3792.000000;2.677517
3791.000000;2.812415
3790.000000;2.925618
3789.000000;2.814380
3788.000000;2.806646
3787.000000;2.937760
3786.000000;3.007993
3785.000000;2.873248
3784.000000;2.914895
3783.000000;3.217281
3782.000000;3.480124
3781.000000;3.486649
3780.000000;3.092674
3779.000000;2.710769
3778.000000;2.563314
3777.000000;2.584757
3776.000000;2.723259
3775.000000;3.315645
3774.000000;3.252381
3773.000000;2.884508
3772.000000;2.880091
3771.000000;3.020959
3770.000000;3.048361
3769.000000;2.984369
3768.000000;3.064243
3767.000000;3.117616
3766.000000;2.925884
3765.000000;2.751123
3764.000000;2.685223
3763.000000;2.723982
3762.000000;2.826587
3761.000000;2.938085
3760.000000;3.016848
3759.000000;3.032937
3758.000000;2.997907
3757.000000;2.973524
3756.000000;2.956210
3755.000000;2.954306
3754.000000;3.041009
3753.000000;3.233715
3752.000000;3.639877
3751.000000;3.811983
3750.000000;3.535189
3749.000000;3.678880
3748.000000;3.514527
3747.000000;3.374634
3746.000000;3.356810
3745.000000;3.304669
3744.000000;3.226335
3743.000000;3.190638
3742.000000;3.323737
3741.000000;3.503996
3740.000000;3.454042
3739.000000;3.482066
3738.000000;3.444072
3737.000000;3.567809
3736.000000;3.611602
3735.000000;3.384204
3734.000000;3.223703
3733.000000;3.161012
3732.000000;3.146873
3731.000000;3.228467
3730.000000;3.170119
3729.000000;2.937125
3728.000000;2.914297
3727.000000;3.067624
3726.000000;3.223938
3725.000000;3.137524
3724.000000;3.020063
3723.000000;3.004725
3722.000000;3.139726
3721.000000;3.129593
3720.000000;2.909848
3719.000000;2.823554
3718.000000;2.990275
3717.000000;2.883118
3716.000000;2.753570
3715.000000;2.818246
3714.000000;2.907161
3713.000000;2.858060
3712.000000;2.730291
3711.000000;2.650538
3710.000000;2.700380
3709.000000;2.861356
3708.000000;2.894351
3707.000000;2.796619
3706.000000;2.754618
3705.000000;2.785072
3704.000000;2.850822
3703.000000;2.863091
3702.000000;2.882408
3701.000000;2.901116
3700.000000;2.920831
3699.000000;3.000192
3698.000000;3.017861
3697.000000;2.800385
3696.000000;2.650129
3695.000000;2.660451
3694.000000;2.951394
3693.000000;3.164665
3692.000000;2.855448
3691.000000;2.802277
3690.000000;3.021991
3689.000000;3.759281
3688.000000;3.240714
3687.000000;3.155377
3686.000000;3.091299
3685.000000;3.041183
3684.000000;3.013424
3683.000000;2.869525
3682.000000;2.650359
3681.000000;2.492747
3680.000000;2.479811
3679.000000;2.640556
3678.000000;3.047057
3677.000000;3.724563
3676.000000;3.408734
3675.000000;3.181885
3674.000000;3.012058
3673.000000;2.898993
3672.000000;2.845245
3671.000000;2.791742
3670.000000;2.734468
3669.000000;2.728439
3668.000000;2.733886
3667.000000;2.636447
3666.000000;2.534012
3665.000000;2.565402
3664.000000;2.766608
3663.000000;2.721652
3662.000000;2.567661
3661.000000;2.579855
3660.000000;2.869416
3659.000000;3.179456
3658.000000;2.789501
3657.000000;2.759506
3656.000000;2.903737
3655.000000;3.097428
3654.000000;3.130035
3653.000000;3.186746
3652.000000;3.151579
3651.000000;3.146478
3650.000000;3.193297
3649.000000;2.883695
3648.000000;2.595550
3647.000000;2.546180
3646.000000;2.627223
3645.000000;2.798851
3644.000000;2.894276
3643.000000;2.690265
3642.000000;2.501467
3641.000000;2.488513
3640.000000;2.676929
3639.000000;2.627363
3638.000000;2.375059
3637.000000;2.269320
3636.000000;2.318188
3635.000000;2.509832
3634.000000;3.036612
3633.000000;2.706459
3632.000000;2.616345
3631.000000;2.743497
3630.000000;2.866170
3629.000000;2.836123
3628.000000;2.755007
3627.000000;2.803666
3626.000000;3.202294
3625.000000;2.846621
3624.000000;2.634377
3623.000000;2.681675
3622.000000;2.579651
3621.000000;2.504879
3620.000000;2.509054
3619.000000;2.685711
3618.000000;2.820392
3617.000000;2.526268
3616.000000;2.398170
3615.000000;2.597086
3614.000000;3.029098
3613.000000;2.686152
3612.000000;2.682418
3611.000000;3.084603
3610.000000;2.918014
3609.000000;2.700302
3608.000000;2.678033
3607.000000;2.789397
3606.000000;2.928658
3605.000000;3.202681
3604.000000;2.541937
3603.000000;2.389438
3602.000000;2.471732
3601.000000;2.699022
3600.000000;2.312578
3599.000000;2.025689
3598.000000;1.969477
3597.000000;2.064880
3596.000000;2.251053
3595.000000;2.455183
3594.000000;2.552344
3593.000000;2.489697
3592.000000;2.478125
3591.000000;2.657747
3590.000000;2.895758
3589.000000;3.081863
3588.000000;3.215723
3587.000000;2.927389
3586.000000;2.641291
3585.000000;2.441946
3584.000000;2.297022
3583.000000;2.228464
3582.000000;2.232603
3581.000000;2.316776
3580.000000;2.397590
3579.000000;2.302878
3578.000000;2.265549
3577.000000;2.408099
3576.000000;2.878713
3575.000000;3.135013
3574.000000;2.828892
3573.000000;2.668980
3572.000000;2.456188
3571.000000;2.405728
3570.000000;2.543163
3569.000000;2.896568
3568.000000;3.605907
3567.000000;3.476565
3566.000000;2.811068
3565.000000;2.449963
3564.000000;2.213531
3563.000000;2.073358
3562.000000;2.074695
3561.000000;2.239949
3560.000000;2.596083
3559.000000;2.581083
3558.000000;2.496575
3557.000000;2.409773
3556.000000;2.243867
3555.000000;2.275160
3554.000000;2.461357
3553.000000;2.110269
3552.000000;1.961649
3551.000000;2.060208
3550.000000;2.461308
3549.000000;2.904955
3548.000000;2.442534
3547.000000;2.414748
3546.000000;2.514923
3545.000000;2.738573
3544.000000;2.923830
3543.000000;2.662955
3542.000000;2.308935
3541.000000;2.166875
3540.000000;2.197195
3539.000000;2.371691
3538.000000;3.038348
3537.000000;3.094394
3536.000000;2.527820
3535.000000;2.308521
3534.000000;2.179319
3533.000000;2.264740
3532.000000;2.639566
3531.000000;2.669527
3530.000000;2.575884
3529.000000;2.738523
3528.000000;2.414459
3527.000000;2.274787
3526.000000;2.318117
3525.000000;2.426865
3524.000000;2.543492
3523.000000;2.681871
3522.000000;2.803687
3521.000000;2.796500
3520.000000;2.817553
3519.000000;2.901620
3518.000000;2.910810
3517.000000;2.980859
3516.000000;2.736277
3515.000000;2.664217
3514.000000;2.728442
3513.000000;2.572399
3512.000000;2.504645
3511.000000;2.599461
3510.000000;2.729851
3509.000000;2.802614
3508.000000;3.133601
3507.000000;2.943574
3506.000000;2.510506
3505.000000;2.333503
3504.000000;2.284379
3503.000000;2.284517
3502.000000;2.299837
3501.000000;2.370578
3500.000000;2.506731
3499.000000;2.443698
3498.000000;2.303698
3497.000000;2.243362
3496.000000;2.224576
3495.000000;2.240925
3494.000000;2.238190
3493.000000;2.238858
3492.000000;2.338890
3491.000000;2.490370
3490.000000;2.368650
3489.000000;2.134338
3488.000000;2.033691
3487.000000;2.075738
3486.000000;2.297485
3485.000000;2.430128
3484.000000;2.257912
3483.000000;2.181695
3482.000000;2.177046
3481.000000;2.212089
3480.000000;2.264930
3479.000000;2.297978
3478.000000;2.286339
3477.000000;2.252018
3476.000000;2.220101
3475.000000;2.218253
3474.000000;2.263981
3473.000000;2.359503
3472.000000;2.446716
3471.000000;2.401530
3470.000000;2.336582
3469.000000;2.314593
3468.000000;2.324318
3467.000000;2.394191
3466.000000;2.552088
3465.000000;2.630540
3464.000000;2.581840
3463.000000;2.740262
3462.000000;3.157333
3461.000000;2.720449
3460.000000;2.419578
3459.000000;2.346470
3458.000000;2.372282
3457.000000;2.451227
3456.000000;2.547223
3455.000000;2.786491
3454.000000;3.074857
3453.000000;2.819008
3452.000000;2.724638
3451.000000;2.688963
3450.000000;2.529338
3449.000000;2.419580
3448.000000;2.432109
3447.000000;2.525974
3446.000000;2.531771
3445.000000;2.492877
3444.000000;2.516534
3443.000000;2.706352
3442.000000;2.583457
3441.000000;2.351774
3440.000000;2.338834
3439.000000;2.440687
3438.000000;2.525788
3437.000000;2.488983
3436.000000;2.411033
3435.000000;2.387430
3434.000000;2.361841
3433.000000;2.244191
3432.000000;2.118568
3431.000000;2.092682
3430.000000;2.200445
3429.000000;2.513509
3428.000000;3.011082
3427.000000;2.900695
3426.000000;2.769000
3425.000000;2.747713
3424.000000;2.818031
3423.000000;3.118871
3422.000000;2.976053
3421.000000;2.707634
3420.000000;2.610765
3419.000000;2.537506
3418.000000;2.391971
3417.000000;2.276396
3416.000000;2.275753
3415.000000;2.395993
3414.000000;2.567956
3413.000000;2.633266
3412.000000;2.561651
3411.000000;2.510937
3410.000000;2.542762
3409.000000;2.605235
3408.000000;2.598211
3407.000000;2.578831
3406.000000;2.632521
3405.000000;2.769848
3404.000000;2.924320
3403.000000;2.683811
3402.000000;2.471163
3401.000000;2.448213
3400.000000;2.760290
3399.000000;2.935855
3398.000000;2.587457
3397.000000;2.499868
3396.000000;2.504018
3395.000000;2.491146
3394.000000;2.481432
3393.000000;2.532613
3392.000000;2.708979
3391.000000;2.688757
3390.000000;2.481734
3389.000000;2.478586
3388.000000;2.717477
3387.000000;3.281435
3386.000000;2.987992
3385.000000;2.720923
3384.000000;2.537432
3383.000000;2.431779
3382.000000;2.417924
3381.000000;2.582383
3380.000000;2.989980
3379.000000;3.008838
3378.000000;2.839669
3377.000000;2.843846
3376.000000;2.772464
3375.000000;2.665199
3374.000000;2.591213
3373.000000;2.628495
3372.000000;2.817381
3371.000000;2.989801
3370.000000;2.882753
3369.000000;2.678628
3368.000000;2.511641
3367.000000;2.433150
3366.000000;2.491137
3365.000000;2.693360
3364.000000;3.788349
3363.000000;2.786991
3362.000000;2.496557
3361.000000;2.386056
3360.000000;2.391781
3359.000000;2.498705
3358.000000;2.667247
3357.000000;2.987608
3356.000000;3.490469
3355.000000;2.620770
3354.000000;2.350401
3353.000000;2.268382
3352.000000;2.337456
3351.000000;2.533810
3350.000000;2.925312
3349.000000;3.230689
3348.000000;3.034147
3347.000000;2.920981
3346.000000;3.251569
3345.000000;3.017381
3344.000000;2.674292
3343.000000;2.613962
3342.000000;2.619837
3341.000000;2.648282
3340.000000;2.690021
3339.000000;2.785379
3338.000000;2.755394
3337.000000;2.597931
3336.000000;2.569665
3335.000000;2.672900
3334.000000;2.810881
3333.000000;2.868671
3332.000000;2.846371
3331.000000;2.739849
3330.000000;2.628347
3329.000000;2.562273
3328.000000;2.542165
3327.000000;2.540595
3326.000000;2.542336
3325.000000;2.616327
3324.000000;2.792913
3323.000000;2.738687
3322.000000;2.548723
3321.000000;2.451582
3320.000000;2.405164
3319.000000;2.432997
3318.000000;2.571204
3317.000000;2.841282
3316.000000;2.979837
3315.000000;2.906660
3314.000000;2.803541
3313.000000;2.809607
3312.000000;3.258642
3311.000000;3.167306
3310.000000;2.984837
3309.000000;3.233192
3308.000000;2.832811
3307.000000;2.567923
3306.000000;2.448001
3305.000000;2.409100
3304.000000;2.438982
3303.000000;2.525365
3302.000000;2.618099
3301.000000;2.686328
3300.000000;2.833183
3299.000000;3.030944
3298.000000;3.126629
3297.000000;3.328034
3296.000000;2.949888
3295.000000;2.715345
3294.000000;2.735986
3293.000000;2.828165
3292.000000;2.823358
3291.000000;2.869733
3290.000000;3.155105
3289.000000;3.172024
3288.000000;2.840670
3287.000000;2.656081
3286.000000;2.602098
3285.000000;2.595828
3284.000000;2.583508
3283.000000;2.564172
3282.000000;2.533696
3281.000000;2.520385
3280.000000;2.582734
3279.000000;2.769557
3278.000000;3.101677
3277.000000;3.103814
3276.000000;2.892292
3275.000000;2.752454
3274.000000;2.632342
3273.000000;2.531726
3272.000000;2.461699
3271.000000;2.469068
3270.000000;2.582035
3269.000000;2.824273
3268.000000;2.970602
3267.000000;2.678406
3266.000000;2.475325
3265.000000;2.457876
3264.000000;2.550925
3263.000000;2.617072
3262.000000;2.695097
3261.000000;2.881475
3260.000000;2.980428
3259.000000;3.102773
3258.000000;2.926384
3257.000000;2.671059
3256.000000;2.571279
3255.000000;2.593674
3254.000000;2.710792
3253.000000;2.773535
3252.000000;2.747599
3251.000000;2.849946
3250.000000;2.802733
3249.000000;2.637624
3248.000000;2.703266
3247.000000;2.871854
3246.000000;2.923167
3245.000000;2.873825
3244.000000;2.653978
3243.000000;2.550678
3242.000000;2.611650
3241.000000;2.860116
3240.000000;2.999156
3239.000000;2.762286
3238.000000;2.637818
3237.000000;2.634978
3236.000000;2.785872
3235.000000;2.817650
3234.000000;2.631904
3233.000000;2.536231
3232.000000;2.492446
3231.000000;2.498655
3230.000000;2.608406
3229.000000;3.041242
3228.000000;2.984423
3227.000000;2.633736
3226.000000;2.613741
3225.000000;2.760570
3224.000000;3.025392
3223.000000;3.237785
3222.000000;3.088203
3221.000000;2.906199
3220.000000;2.931177
3219.000000;2.901717
3218.000000;2.724181
3217.000000;2.884304
3216.000000;3.188035
3215.000000;2.797504
3214.000000;2.634943
3213.000000;2.675261
3212.000000;2.938144
3211.000000;2.885682
3210.000000;2.647871
3209.000000;2.548340
3208.000000;2.543381
3207.000000;2.751613
3206.000000;2.824264
3205.000000;2.657071
3204.000000;2.743779
3203.000000;3.000234
3202.000000;2.753517
3201.000000;2.655914
3200.000000;2.585070
3199.000000;2.447739
3198.000000;2.387958
3197.000000;2.491893
3196.000000;2.838547
3195.000000;2.841863
3194.000000;2.595394
3193.000000;2.783376
3192.000000;3.268563
3191.000000;2.838818
3190.000000;2.540865
3189.000000;2.400713
3188.000000;2.359746
3187.000000;2.431276
3186.000000;2.628939
3185.000000;2.995319
3184.000000;3.170998
3183.000000;3.084210
3182.000000;2.864437
3181.000000;2.564697
3180.000000;2.375049
3179.000000;2.326051
3178.000000;2.438630
3177.000000;2.739768
3176.000000;3.328945
3175.000000;2.913883
3174.000000;2.639840
3173.000000;2.515600
3172.000000;2.499092
3171.000000;2.591963
3170.000000;2.806634
3169.000000;2.852333
3168.000000;2.701206
3167.000000;2.674060
3166.000000;2.704226
3165.000000;2.729777
3164.000000;2.700777
3163.000000;2.648313
3162.000000;2.626034
3161.000000;2.654977
3160.000000;2.728234
3159.000000;2.841305
3158.000000;2.922877
3157.000000;2.905835
3156.000000;2.900595
3155.000000;2.946437
3154.000000;3.194773
3153.000000;2.947356
3152.000000;2.727748
3151.000000;2.765522
3150.000000;3.001965
3149.000000;3.385138
3148.000000;3.706164
3147.000000;3.380465
3146.000000;3.001925
3145.000000;2.845144
3144.000000;2.885662
3143.000000;2.998136
3142.000000;2.898131
3141.000000;2.784285
3140.000000;2.766031
3139.000000;2.810788
3138.000000;2.869362
3137.000000;2.915340
3136.000000;2.961547
3135.000000;2.877222
3134.000000;2.647453
3133.000000;2.501208
3132.000000;2.499385
3131.000000;2.746328
3130.000000;3.212910
3129.000000;2.746725
3128.000000;2.587634
3127.000000;2.671032
3126.000000;3.197131
3125.000000;2.871577
3124.000000;2.592347
3123.000000;2.586146
3122.000000;2.736806
3121.000000;3.176361
3120.000000;3.028944
3119.000000;2.675351
3118.000000;2.558434
3117.000000;2.579161
3116.000000;2.787578
3115.000000;3.326261
3114.000000;3.104750
3113.000000;2.854630
3112.000000;2.859306
3111.000000;2.914540
3110.000000;2.871013
3109.000000;2.777165
3108.000000;2.737276
3107.000000;2.747142
3106.000000;2.777379
3105.000000;2.799135
3104.000000;2.840634
3103.000000;2.997255
3102.000000;3.232957
3101.000000;2.851555
3100.000000;2.629830
3099.000000;2.612676
3098.000000;2.700354
3097.000000;2.792233
3096.000000;2.843966
3095.000000;2.958857
3094.000000;3.211504
3093.000000;3.411205
3092.000000;3.408873
3091.000000;3.562784
3090.000000;3.334714
3089.000000;2.976922
3088.000000;2.668630
3087.000000;2.531808
3086.000000;2.560006
3085.000000;2.769190
3084.000000;3.115589
3083.000000;3.213938
3082.000000;3.290162
3081.000000;3.207015
3080.000000;2.959396
3079.000000;2.921437
3078.000000;2.968527
3077.000000;2.944369
3076.000000;2.997122
3075.000000;3.152302
3074.000000;3.079824
3073.000000;3.056361
3072.000000;3.471553
3071.000000;2.790445
3070.000000;2.509681
3069.000000;2.453234
3068.000000;2.512389
3067.000000;2.653326
3066.000000;2.901306
3065.000000;2.969207
3064.000000;2.915291
3063.000000;3.005873
3062.000000;2.978120
3061.000000;2.812499
3060.000000;2.737364
3059.000000;2.825513
3058.000000;2.899473
3057.000000;2.807408
3056.000000;2.738599
3055.000000;2.667910
3054.000000;2.599343
3053.000000;2.581764
3052.000000;2.672363
3051.000000;2.882699
3050.000000;3.351623
3049.000000;3.128949
3048.000000;2.788444
3047.000000;2.714111
3046.000000;2.796521
3045.000000;3.197209
3044.000000;3.081997
3043.000000;2.936691
3042.000000;2.890420
3041.000000;2.779875
3040.000000;2.766581
3039.000000;2.864230
3038.000000;2.811410
3037.000000;2.677796
3036.000000;2.619909
3035.000000;2.629910
3034.000000;2.717274
3033.000000;2.871745
3032.000000;3.063327
3031.000000;3.034675
3030.000000;2.971831
3029.000000;3.219329
3028.000000;3.544448
3027.000000;3.214371
3026.000000;3.023662
3025.000000;3.062128
3024.000000;3.131217
3023.000000;3.006024
3022.000000;2.893705
3021.000000;2.854626
3020.000000;2.935806
3019.000000;3.141481
3018.000000;3.650153
3017.000000;3.156989
3016.000000;2.808593
3015.000000;2.651095
3014.000000;2.586286
3013.000000;2.586557
3012.000000;2.665946
3011.000000;2.804147
3010.000000;2.712574
3009.000000;2.566522
3008.000000;2.532493
3007.000000;2.559019
3006.000000;2.571674
3005.000000;2.577625
3004.000000;2.668551
3003.000000;2.935883
3002.000000;3.153669
3001.000000;3.033931
3000.000000;3.001958
2999.000000;2.895586
2998.000000;2.727085
2997.000000;2.612925
2996.000000;2.594290
2995.000000;2.652797
2994.000000;2.753214
2993.000000;2.982348
2992.000000;2.987651
2991.000000;2.790877
2990.000000;2.774154
2989.000000;3.053693
2988.000000;2.779394
2987.000000;2.522135
2986.000000;2.497631
2985.000000;2.660967
2984.000000;3.031578
2983.000000;3.117606
2982.000000;2.899074
2981.000000;2.854170
2980.000000;3.130731
2979.000000;3.800558
2978.000000;2.901669
2977.000000;2.762339
2976.000000;2.706362
2975.000000;2.732120
2974.000000;2.812949
2973.000000;2.971848
2972.000000;3.207873
2971.000000;3.087775
2970.000000;2.827096
2969.000000;2.720860
2968.000000;2.697630
2967.000000;2.696856
2966.000000;2.680480
2965.000000;2.644629
2964.000000;2.601263
2963.000000;2.572687
2962.000000;2.567296
2961.000000;2.577279
2960.000000;2.620741
2959.000000;2.753131
2958.000000;3.033932
2957.000000;3.475885
2956.000000;3.152431
2955.000000;2.939651
2954.000000;2.832402
2953.000000;2.730320
2952.000000;2.670030
2951.000000;2.735511
2950.000000;2.930727
2949.000000;3.073808
2948.000000;3.137365
2947.000000;3.488660
2946.000000;3.428518
2945.000000;3.091572
2944.000000;2.950949
2943.000000;2.850584
2942.000000;2.817342
2941.000000;2.849065
2940.000000;2.945915
2939.000000;3.079501
2938.000000;3.178301
2937.000000;3.203574
2936.000000;3.139749
2935.000000;2.943799
2934.000000;2.780241
2933.000000;2.746468
2932.000000;2.875431
2931.000000;3.287136
2930.000000;3.634886
2929.000000;3.497416
2928.000000;3.368036
2927.000000;2.875602
2926.000000;2.716266
2925.000000;2.679892
2924.000000;2.742816
2923.000000;2.849169
2922.000000;2.898480
2921.000000;2.814656
2920.000000;2.687202
2919.000000;2.590488
2918.000000;2.540455
2917.000000;2.530053
2916.000000;2.559263
2915.000000;2.643520
2914.000000;2.801022
2913.000000;2.980424
2912.000000;3.006508
2911.000000;2.969077
2910.000000;3.029261
2909.000000;3.266030
2908.000000;3.086308
2907.000000;2.876359
2906.000000;2.819748
2905.000000;2.837996
2904.000000;2.845880
2903.000000;2.822389
2902.000000;2.851365
2901.000000;2.948198
2900.000000;2.986619
2899.000000;3.010442
2898.000000;3.359076
2897.000000;4.013531
2896.000000;3.235258
2895.000000;3.114998
2894.000000;3.061739
2893.000000;3.130853
2892.000000;3.206144
2891.000000;3.673455
2890.000000;3.174478
2889.000000;2.790328
2888.000000;2.707330
2887.000000;2.718750
2886.000000;2.796962
2885.000000;2.884282
2884.000000;2.974180
2883.000000;3.135723
2882.000000;3.239851
2881.000000;2.930686
2880.000000;2.761660
2879.000000;2.695365
2878.000000;2.672269
2877.000000;2.683050
2876.000000;2.724284
2875.000000;2.898020
2874.000000;3.264882
2873.000000;2.966203
2872.000000;2.946836
2871.000000;3.293275
2870.000000;2.967306
2869.000000;2.667854
2868.000000;2.592213
2867.000000;2.570474
2866.000000;2.586993
2865.000000;2.624346
2864.000000;2.667744
2863.000000;2.679401
2862.000000;2.678032
2861.000000;2.735966
2860.000000;2.792549
2859.000000;2.781767
2858.000000;2.835587
2857.000000;3.028325
2856.000000;3.764460
2855.000000;3.237733
2854.000000;3.027507
2853.000000;2.918374
2852.000000;2.774908
2851.000000;2.729135
2850.000000;2.957742
2849.000000;3.297447
2848.000000;2.633958
2847.000000;2.513228
2846.000000;2.551896
2845.000000;2.763548
2844.000000;3.083853
2843.000000;3.176510
2842.000000;3.164735
2841.000000;3.487768
2840.000000;3.735314
2839.000000;3.240233
2838.000000;2.993016
2837.000000;2.874433
2836.000000;2.867554
2835.000000;2.853884
2834.000000;2.769181
2833.000000;2.701626
2832.000000;2.677666
2831.000000;2.701742
2830.000000;2.805813
2829.000000;3.074560
2828.000000;3.424986
2827.000000;3.021418
2826.000000;2.916688
2825.000000;3.007201
2824.000000;2.920178
2823.000000;2.738417
2822.000000;2.684060
2821.000000;2.748568
2820.000000;2.941404
2819.000000;3.127622
2818.000000;3.024200
2817.000000;2.923951
2816.000000;2.859759
2815.000000;2.805661
2814.000000;2.776932
2813.000000;2.808792
2812.000000;2.869525
2811.000000;2.837968
2810.000000;2.766121
2809.000000;2.770416
2808.000000;2.876981
2807.000000;3.068242
2806.000000;3.126876
2805.000000;2.930403
2804.000000;2.745485
2803.000000;2.656166
2802.000000;2.648859
2801.000000;2.693237
2800.000000;2.756035
2799.000000;2.814915
2798.000000;2.845945
2797.000000;2.802839
2796.000000;2.749297
2795.000000;2.802253
2794.000000;2.987324
2793.000000;3.005450
2792.000000;2.847756
2791.000000;2.710845
2790.000000;2.595594
2789.000000;2.545232
2788.000000;2.564468
2787.000000;2.661234
2786.000000;2.809512
2785.000000;2.958413
2784.000000;2.921473
2783.000000;2.778726
2782.000000;2.764416
2781.000000;2.897506
2780.000000;3.545240
2779.000000;3.457342
2778.000000;3.144985
2777.000000;3.064343
2776.000000;2.926187
2775.000000;2.849573
2774.000000;2.879827
2773.000000;3.058683
2772.000000;2.970642
2771.000000;2.826744
2770.000000;2.849759
2769.000000;2.904259
2768.000000;2.873701
2767.000000;2.851163
2766.000000;2.973292
2765.000000;3.090753
2764.000000;2.826204
2763.000000;2.716209
2762.000000;2.721801
2761.000000;2.788844
2760.000000;2.978760
2759.000000;3.432191
2758.000000;3.168139
2757.000000;2.917047
2756.000000;2.887117
2755.000000;2.907898
2754.000000;3.009046
2753.000000;3.250463
2752.000000;3.363992
2751.000000;3.156665
2750.000000;3.022310
2749.000000;2.876048
2748.000000;2.784483
2747.000000;2.739541
2746.000000;2.654199
2745.000000;2.541007
2744.000000;2.475836
2743.000000;2.500427
2742.000000;2.624994
2741.000000;2.787954
2740.000000;2.827838
2739.000000;2.805376
2738.000000;2.822871
2737.000000;2.884520
2736.000000;2.887315
2735.000000;2.801556
2734.000000;2.716236
2733.000000;2.643715
2732.000000;2.629930
2731.000000;2.714611
2730.000000;2.917021
2729.000000;3.263502
2728.000000;3.688079
2727.000000;3.612722
2726.000000;3.322776
2725.000000;3.146380
2724.000000;3.113462
2723.000000;3.160724
2722.000000;3.002781
2721.000000;2.843095
2720.000000;2.840731
2719.000000;3.005698
2718.000000;3.646083
2717.000000;3.293721
2716.000000;3.010299
2715.000000;2.982568
2714.000000;3.142825
2713.000000;3.296775
2712.000000;3.197709
2711.000000;3.272946
2710.000000;3.368503
2709.000000;3.253762
2708.000000;3.429715
2707.000000;3.782933
2706.000000;3.171110
2705.000000;2.875372
2704.000000;2.713306
2703.000000;2.614278
2702.000000;2.568859
2701.000000;2.625156
2700.000000;2.793937
2699.000000;3.436177
2698.000000;3.361994
2697.000000;3.056337
2696.000000;3.132052
2695.000000;3.573268
2694.000000;3.048169
2693.000000;2.747041
2692.000000;2.648744
2691.000000;2.655300
2690.000000;2.721044
2689.000000;2.763030
2688.000000;2.763557
2687.000000;2.820265
2686.000000;3.009172
2685.000000;3.151219
2684.000000;2.993882
2683.000000;2.915868
2682.000000;2.851016
2681.000000;2.810543
2680.000000;2.889519
2679.000000;3.142421
2678.000000;3.286445
2677.000000;3.005662
2676.000000;2.755588
2675.000000;2.665837
2674.000000;2.725719
2673.000000;2.863269
2672.000000;2.936713
2671.000000;2.990011
2670.000000;3.222391
2669.000000;3.093089
2668.000000;2.872775
2667.000000;2.865087
2666.000000;3.047373
2665.000000;3.556453
2664.000000;3.801173
2663.000000;3.671284
2662.000000;3.354188
2661.000000;3.070251
2660.000000;2.931870
2659.000000;2.895946
2658.000000;2.955530
2657.000000;3.216519
2656.000000;3.577676
2655.000000;3.170051
2654.000000;3.029649
2653.000000;3.028640
2652.000000;3.029825
2651.000000;2.914139
2650.000000;2.788931
2649.000000;2.730652
2648.000000;2.726936
2647.000000;2.750319
2646.000000;2.798919
2645.000000;2.822481
2644.000000;2.813653
2643.000000;2.833931
2642.000000;2.889450
2641.000000;2.961621
2640.000000;2.990630
2639.000000;2.850318
2638.000000;2.730931
2637.000000;2.740750
2636.000000;2.844060
2635.000000;2.935001
2634.000000;2.982586
2633.000000;2.915683
2632.000000;2.785955
2631.000000;2.730291
2630.000000;2.766755
2629.000000;2.883035
2628.000000;3.066145
2627.000000;3.212809
2626.000000;3.102110
2625.000000;2.991432
2624.000000;3.009412
2623.000000;3.179583
2622.000000;3.534471
2621.000000;3.154300
2620.000000;2.830190
2619.000000;2.712989
2618.000000;2.690052
2617.000000;2.734036
2616.000000;2.814137
2615.000000;2.936783
2614.000000;3.173627
2613.000000;3.176558
2612.000000;2.932272
2611.000000;2.823640
2610.000000;2.802065
2609.000000;2.801481
2608.000000;2.811629
2607.000000;2.895232
2606.000000;3.027032
2605.000000;2.992514
2604.000000;2.942558
2603.000000;2.921785
2602.000000;2.926665
2601.000000;2.988217
2600.000000;2.991730
2599.000000;2.907952
2598.000000;2.795286
2597.000000;2.689690
2596.000000;2.627213
2595.000000;2.611853
2594.000000;2.660187
2593.000000;2.822175
2592.000000;3.060456
2591.000000;3.023856
2590.000000;2.901351
2589.000000;2.812303
2588.000000;2.728062
2587.000000;2.696074
2586.000000;2.713093
2585.000000;2.725471
2584.000000;2.704344
2583.000000;2.702248
2582.000000;2.788375
2581.000000;3.133335
2580.000000;3.312433
2579.000000;2.791280
2578.000000;2.741430
2577.000000;2.873012
2576.000000;3.057400
2575.000000;3.044459
2574.000000;3.082693
2573.000000;3.154015
2572.000000;3.129620
2571.000000;3.172114
2570.000000;3.296547
2569.000000;3.196757
2568.000000;3.140097
2567.000000;3.406714
2566.000000;3.526330
2565.000000;3.304767
2564.000000;3.246441
2563.000000;3.160616
2562.000000;3.105501
2561.000000;3.089958
2560.000000;3.049795
2559.000000;2.985689
2558.000000;2.962820
2557.000000;3.013364
2556.000000;3.122876
2555.000000;3.237551
2554.000000;3.086945
2553.000000;2.965754
2552.000000;2.940056
2551.000000;2.954655
2550.000000;3.018387
2549.000000;3.264113
2548.000000;3.470092
2547.000000;3.489856
2546.000000;3.746940
2545.000000;3.206370
2544.000000;3.045380
2543.000000;3.044663
2542.000000;3.034480
2541.000000;3.035089
2540.000000;3.085297
2539.000000;3.154587
2538.000000;3.250585
2537.000000;3.905801
2536.000000;3.674321
2535.000000;3.274020
2534.000000;3.157042
2533.000000;3.108521
2532.000000;3.168080
2531.000000;3.260014
2530.000000;3.237806
2529.000000;3.121988
2528.000000;2.972697
2527.000000;2.853963
2526.000000;2.778533
2525.000000;2.735783
2524.000000;2.747458
2523.000000;2.838172
2522.000000;2.979659
2521.000000;3.120866
2520.000000;3.523680
2519.000000;3.742277
2518.000000;3.336689
2517.000000;3.440548
2516.000000;3.151403
2515.000000;2.894756
2514.000000;2.858573
2513.000000;3.009533
2512.000000;3.266295
2511.000000;3.330760
2510.000000;3.349898
2509.000000;3.427931
2508.000000;3.411057
2507.000000;3.236318
2506.000000;3.101660
2505.000000;3.051298
2504.000000;3.007813
2503.000000;2.910727
2502.000000;2.894135
2501.000000;2.984462
2500.000000;3.023329
2499.000000;3.048468
2498.000000;3.035462
2497.000000;2.915615
2496.000000;2.806435
2495.000000;2.756736
2494.000000;2.817937
2493.000000;2.897657
2492.000000;2.793998
2491.000000;2.744265
2490.000000;2.866930
2489.000000;3.156945
2488.000000;3.100049
2487.000000;2.893311
2486.000000;2.869809
2485.000000;2.855100
2484.000000;2.823390
2483.000000;2.866982
2482.000000;2.992673
2481.000000;3.027687
2480.000000;2.883423
2479.000000;2.762425
2478.000000;2.747932
2477.000000;2.835082
2476.000000;3.003062
2475.000000;3.162644
2474.000000;3.286406
2473.000000;3.439096
2472.000000;3.129336
2471.000000;3.035017
2470.000000;3.257970
2469.000000;3.233755
2468.000000;2.864366
2467.000000;2.738148
2466.000000;2.671498
2465.000000;2.642241
2464.000000;2.637369
2463.000000;2.654679
2462.000000;2.676943
2461.000000;2.708439
2460.000000;2.770981
2459.000000;2.856270
2458.000000;2.878917
2457.000000;2.824296
2456.000000;2.801893
2455.000000;2.809503
2454.000000;2.785677
2453.000000;2.831598
2452.000000;3.003566
2451.000000;3.107813
2450.000000;3.177435
2449.000000;3.426602
2448.000000;3.249724
2447.000000;3.131715
2446.000000;3.173093
2445.000000;3.188227
2444.000000;3.091785
2443.000000;3.013467
2442.000000;2.990738
2441.000000;2.971464
2440.000000;2.924804
2439.000000;2.885231
2438.000000;2.885023
2437.000000;2.913869
2436.000000;2.897041
2435.000000;2.801912
2434.000000;2.704291
2433.000000;2.651402
2432.000000;2.646362
2431.000000;2.674430
2430.000000;2.739167
2429.000000;2.872166
2428.000000;3.113178
2427.000000;3.345717
2426.000000;3.313981
2425.000000;3.202346
2424.000000;3.064371
2423.000000;3.029975
2422.000000;3.144605
2421.000000;3.205002
2420.000000;3.067789
2419.000000;2.952191
2418.000000;2.873887
2417.000000;2.842360
2416.000000;2.832395
2415.000000;2.844050
2414.000000;2.912261
2413.000000;3.272556
2412.000000;3.414547
2411.000000;2.877281
2410.000000;2.818322
2409.000000;2.930383
2408.000000;3.433475
2407.000000;3.488317
2406.000000;3.188534
2405.000000;3.334430
2404.000000;3.623488
2403.000000;3.238802
2402.000000;2.958653
2401.000000;2.882238
2400.000000;2.904116
2399.000000;2.984039
2398.000000;3.022413
2397.000000;3.042408
2396.000000;3.153113
2395.000000;3.751376
2394.000000;3.333296
2393.000000;3.018833
2392.000000;2.979761
2391.000000;3.136555
2390.000000;3.366524
2389.000000;3.203515
2388.000000;3.041533
2387.000000;3.003839
2386.000000;3.030898
2385.000000;3.020035
2384.000000;3.023620
2383.000000;3.164983
2382.000000;3.462298
2381.000000;3.420641
2380.000000;3.165226
2379.000000;3.088225
2378.000000;3.181516
2377.000000;3.470086
2376.000000;3.464196
2375.000000;3.301781
2374.000000;3.258721
2373.000000;3.251191
2372.000000;3.213014
2371.000000;3.152027
2370.000000;3.113361
2369.000000;3.112711
2368.000000;3.161295
2367.000000;3.282314
2366.000000;3.488777
2365.000000;3.655581
2364.000000;3.633684
2363.000000;3.471453
2362.000000;3.278753
2361.000000;3.191343
2360.000000;3.222949
2359.000000;3.312966
2358.000000;3.300810
2357.000000;3.235586
2356.000000;3.247210
2355.000000;3.345017
2354.000000;3.733419
2353.000000;4.083879
2352.000000;3.799219
2351.000000;3.841294
2350.000000;3.489262
2349.000000;3.327127
2348.000000;3.271400
2347.000000;3.226314
2346.000000;3.204407
2345.000000;3.224641
2344.000000;3.274372
2343.000000;3.324517
2342.000000;3.414343
2341.000000;3.537429
2340.000000;3.595406
2339.000000;3.642374
2338.000000;3.776267
2337.000000;3.680455
2336.000000;3.440972
2335.000000;3.322747
2334.000000;3.266090
2333.000000;3.260041
2332.000000;3.298447
2331.000000;3.340012
2330.000000;3.319862
2329.000000;3.298684
2328.000000;3.481575
2327.000000;3.542703
2326.000000;3.248459
2325.000000;3.158741
2324.000000;3.278372
2323.000000;3.345115
2322.000000;3.206204
2321.000000;3.193720
2320.000000;3.332669
2319.000000;3.284878
2318.000000;3.153966
2317.000000;3.163145
2316.000000;3.313289
2315.000000;3.668104
2314.000000;3.797540
2313.000000;3.850157
2312.000000;3.822829
2311.000000;3.209847
2310.000000;3.007733
2309.000000;2.986465
2308.000000;3.136480
2307.000000;3.338367
2306.000000;3.326970
2305.000000;3.202447
2304.000000;3.039993
2303.000000;2.928445
2302.000000;2.865121
2301.000000;2.846638
2300.000000;2.825845
2299.000000;2.757423
2298.000000;2.681737
2297.000000;2.677432
2296.000000;2.756172
2295.000000;3.082321
2294.000000;3.133384
2293.000000;2.826547
2292.000000;2.783246
2291.000000;2.939652
2290.000000;3.362008
2289.000000;3.294032
2288.000000;3.191501
2287.000000;3.367088
2286.000000;3.631269
2285.000000;3.158126
2284.000000;2.900161
2283.000000;2.782242
2282.000000;2.783351
2281.000000;2.893144
2280.000000;3.136663
2279.000000;3.389257
2278.000000;3.659944
2277.000000;3.886546
2276.000000;3.175762
2275.000000;2.916798
2274.000000;2.824469
2273.000000;2.841400
2272.000000;2.901563
2271.000000;2.958120
2270.000000;3.157425
2269.000000;3.114770
2268.000000;2.810340
2267.000000;2.672206
2266.000000;2.662696
2265.000000;2.721420
2264.000000;2.824608
2263.000000;3.016199
2262.000000;3.704925
2261.000000;3.373639
2260.000000;3.252017
2259.000000;3.707565
2258.000000;3.129499
2257.000000;2.869623
2256.000000;2.825032
2255.000000;2.902881
2254.000000;3.034289
2253.000000;3.164940
2252.000000;3.116772
2251.000000;2.940675
2250.000000;2.816395
2249.000000;2.746324
2248.000000;2.708012
2247.000000;2.707221
2246.000000;2.785147
2245.000000;2.992451
2244.000000;2.971909
2243.000000;2.764708
2242.000000;2.659908
2241.000000;2.641687
2240.000000;2.725691
2239.000000;2.948167
2238.000000;2.908626
2237.000000;2.764693
2236.000000;2.766918
2235.000000;2.790777
2234.000000;2.745494
2233.000000;2.757924
2232.000000;2.914724
2231.000000;3.025710
2230.000000;2.862712
2229.000000;2.772012
2228.000000;2.733007
2227.000000;2.755925
2226.000000;2.879286
2225.000000;3.219985
2224.000000;3.688694
2223.000000;3.186724
2222.000000;2.888183
2221.000000;2.727993
2220.000000;2.634159
2219.000000;2.575338
2218.000000;2.578921
2217.000000;2.668067
2216.000000;2.852214
2215.000000;3.145100
2214.000000;3.733913
2213.000000;3.160115
2212.000000;2.879517
2211.000000;2.820561
2210.000000;2.853510
2209.000000;2.922264
2208.000000;2.928188
2207.000000;2.924150
2206.000000;2.973833
2205.000000;3.079414
2204.000000;3.188695
2203.000000;3.298611
2202.000000;3.663080
2201.000000;3.808351
2200.000000;3.391708
2199.000000;3.551083
2198.000000;3.512618
2197.000000;3.264207
2196.000000;3.241282
2195.000000;3.433173
2194.000000;3.955315
2193.000000;3.817691
2192.000000;3.488177
2191.000000;3.143012
2190.000000;2.894349
2189.000000;2.824256
2188.000000;2.892887
2187.000000;3.141326
2186.000000;3.102042
2185.000000;2.872131
2184.000000;2.793243
2183.000000;2.837940
2182.000000;2.988175
2181.000000;3.205796
2180.000000;3.366040
2179.000000;3.331236
2178.000000;3.202711
2177.000000;3.071307
2176.000000;3.009089
2175.000000;3.042744
2174.000000;3.145479
2173.000000;3.230011
2172.000000;3.262993
2171.000000;3.304943
2170.000000;3.487360
2169.000000;3.505445
2168.000000;3.080677
2167.000000;2.839892
2166.000000;2.744668
2165.000000;2.739794
2164.000000;2.780852
2163.000000;2.843968
2162.000000;2.930437
2161.000000;3.067173
2160.000000;3.320183
2159.000000;3.592279
2158.000000;3.409511
2157.000000;3.217610
2156.000000;3.113910
2155.000000;3.105933
2154.000000;3.218767
2153.000000;3.459022
2152.000000;3.903463
2151.000000;3.915563
2150.000000;3.753227
2149.000000;3.605629
2148.000000;3.279660
2147.000000;3.093313
2146.000000;3.047196
2145.000000;3.099160
2144.000000;3.207115
2143.000000;3.334377
2142.000000;3.549622
2141.000000;3.870937
2140.000000;3.685167
2139.000000;3.298500
2138.000000;3.047171
2137.000000;2.885836
2136.000000;2.778246
2135.000000;2.730441
2134.000000;2.760529
2133.000000;2.871747
2132.000000;3.064611
2131.000000;3.147057
2130.000000;2.944411
2129.000000;2.818881
2128.000000;2.839281
2127.000000;2.972149
2126.000000;3.151274
2125.000000;3.304609
2124.000000;3.406757
2123.000000;3.276433
2122.000000;3.165762
2121.000000;3.282025
2120.000000;3.574022
2119.000000;3.258359
2118.000000;3.113197
2117.000000;3.081215
2116.000000;3.044456
2115.000000;3.025730
2114.000000;3.006458
2113.000000;2.996558
2112.000000;3.010105
2111.000000;2.997261
2110.000000;3.011573
2109.000000;3.060396
2108.000000;3.142254
2107.000000;3.168915
2106.000000;3.294952
2105.000000;3.199414
2104.000000;2.993724
2103.000000;2.976873
2102.000000;3.112501
2101.000000;3.559029
2100.000000;3.645717
2099.000000;3.190719
2098.000000;3.028984
2097.000000;3.161062
2096.000000;3.827330
2095.000000;3.448290
2094.000000;3.297442
2093.000000;3.144614
2092.000000;3.021872
2091.000000;3.011785
2090.000000;3.092788
2089.000000;3.207110
2088.000000;3.429845
2087.000000;3.207598
2086.000000;2.907582
2085.000000;2.831192
2084.000000;2.857596
2083.000000;2.914598
2082.000000;2.880075
2081.000000;2.768893
2080.000000;2.686419
2079.000000;2.706906
2078.000000;2.844338
2077.000000;2.992753
2076.000000;3.075649
2075.000000;3.357568
2074.000000;3.599193
2073.000000;3.322779
2072.000000;3.179675
2071.000000;3.034079
2070.000000;2.984184
2069.000000;3.063653
2068.000000;3.316197
2067.000000;3.663337
2066.000000;3.766593
2065.000000;3.512283
2064.000000;3.626766
2063.000000;4.030174
2062.000000;3.308839
2061.000000;3.039521
2060.000000;2.869140
2059.000000;2.804927
2058.000000;2.886545
2057.000000;3.124409
2056.000000;3.218089
2055.000000;3.172047
2054.000000;3.065428
2053.000000;3.010769
2052.000000;3.078768
2051.000000;3.291940
2050.000000;2.995488
2049.000000;2.679976
2048.000000;2.547828
2047.000000;2.550935
2046.000000;2.658106
2045.000000;2.804855
2044.000000;2.934582
2043.000000;3.111332
2042.000000;3.119629
2041.000000;2.793602
2040.000000;2.634236
2039.000000;2.608911
2038.000000;2.691423
2037.000000;2.828778
2036.000000;3.011033
2035.000000;3.243386
2034.000000;3.288937
2033.000000;3.411584
2032.000000;3.256745
2031.000000;2.905303
2030.000000;2.791305
2029.000000;2.799169
2028.000000;2.851619
2027.000000;2.882951
2026.000000;2.931764
2025.000000;3.039390
2024.000000;3.182449
2023.000000;3.339979
2022.000000;3.717593
2021.000000;3.336681
2020.000000;3.242041
2019.000000;2.948413
2018.000000;2.712662
2017.000000;2.659323
2016.000000;2.699908
2015.000000;2.731344
2014.000000;2.708550
2013.000000;2.689654
2012.000000;2.721457
2011.000000;2.803052
2010.000000;2.932113
2009.000000;3.173086
2008.000000;3.561909
2007.000000;3.311133
2006.000000;2.964550
2005.000000;2.782730
2004.000000;2.709617
2003.000000;2.758945
2002.000000;2.917792
2001.000000;3.138627
2000.000000;3.287356
1999.000000;3.233318
1998.000000;3.130058
1997.000000;3.126551
1996.000000;3.216279
1995.000000;3.260664
1994.000000;3.201012
1993.000000;3.114344
1992.000000;2.995299
1991.000000;2.877947
1990.000000;2.841623
1989.000000;2.959579
1988.000000;3.371425
1987.000000;4.119182
1986.000000;3.700245
1985.000000;3.992849
1984.000000;3.116109
1983.000000;2.944206
1982.000000;2.902995
1981.000000;2.974607
1980.000000;3.083017
1979.000000;3.162120
1978.000000;3.127568
1977.000000;3.007080
1976.000000;2.873983
1975.000000;2.784762
1974.000000;2.763143
1973.000000;2.824361
1972.000000;2.987174
1971.000000;3.250174
1970.000000;3.359405
1969.000000;3.455511
1968.000000;3.545046
1967.000000;3.389602
1966.000000;3.240453
1965.000000;3.022644
1964.000000;2.857969
1963.000000;2.778262
1962.000000;2.762662
1961.000000;2.798760
1960.000000;2.871353
1959.000000;2.923458
1958.000000;2.931667
1957.000000;2.968150
1956.000000;3.258247
1955.000000;3.699798
1954.000000;3.301743
1953.000000;3.325707
1952.000000;3.421640
1951.000000;3.758377
1950.000000;3.581718
1949.000000;3.093558
1948.000000;2.837168
1947.000000;2.734242
1946.000000;2.770600
1945.000000;2.969421
1944.000000;3.308249
1943.000000;3.767101
1942.000000;3.129928
1941.000000;2.910742
1940.000000;2.939458
1939.000000;3.082681
1938.000000;3.228817
1937.000000;3.278061
1936.000000;3.173342
1935.000000;3.055341
1934.000000;3.026797
1933.000000;3.103977
1932.000000;3.286687
1931.000000;3.684104
1930.000000;4.391159
1929.000000;3.700665
1928.000000;3.839533
1927.000000;3.640479
1926.000000;3.171656
1925.000000;3.027233
1924.000000;3.090316
1923.000000;3.163842
1922.000000;3.036420
1921.000000;2.930666
1920.000000;2.875902
1919.000000;2.874246
1918.000000;2.992571
1917.000000;3.146020
1916.000000;3.512263
1915.000000;3.164491
1914.000000;2.903323
1913.000000;2.910230
1912.000000;3.019414
1911.000000;3.054464
1910.000000;2.955147
1909.000000;2.868175
1908.000000;2.829182
1907.000000;2.809892
1906.000000;2.843889
1905.000000;3.055880
1904.000000;3.431310
1903.000000;3.238835
1902.000000;3.164100
1901.000000;3.054206
1900.000000;2.867624
1899.000000;2.795326
1898.000000;2.905410
1897.000000;3.096964
1896.000000;3.140946
1895.000000;3.330497
1894.000000;3.616507
1893.000000;3.620621
1892.000000;4.041689
1891.000000;3.753932
1890.000000;3.737657
1889.000000;3.206580
1888.000000;2.911385
1887.000000;2.779417
1886.000000;2.701675
1885.000000;2.675008
1884.000000;2.687989
1883.000000;2.721858
1882.000000;2.782380
1881.000000;2.903590
1880.000000;3.118367
1879.000000;3.206360
1878.000000;3.102286
1877.000000;3.099632
1876.000000;3.154136
1875.000000;3.119074
1874.000000;3.013104
1873.000000;2.944875
1872.000000;3.403653
1871.000000;3.356520
1870.000000;2.743510
1869.000000;2.648968
1868.000000;2.617553
1867.000000;2.649662
1866.000000;2.755077
1865.000000;2.991848
1864.000000;3.613872
1863.000000;3.451696
1862.000000;3.207561
1861.000000;3.321607
1860.000000;3.529975
1859.000000;3.342136
1858.000000;3.227978
1857.000000;3.267584
1856.000000;3.432487
1855.000000;3.377814
1854.000000;3.115662
1853.000000;3.033831
1852.000000;3.068742
1851.000000;3.115267
1850.000000;3.038772
1849.000000;2.876106
1848.000000;2.751586
1847.000000;2.705470
1846.000000;2.726861
1845.000000;2.769383
1844.000000;2.806774
1843.000000;2.833679
1842.000000;2.845490
1841.000000;2.901669
1840.000000;3.020564
1839.000000;3.358859
1838.000000;3.448916
1837.000000;3.047017
1836.000000;2.882814
1835.000000;2.835351
1834.000000;2.853735
1833.000000;2.958466
1832.000000;3.142037
1831.000000;3.282246
1830.000000;3.163127
1829.000000;2.979019
1828.000000;2.895524
1827.000000;2.962448
1826.000000;3.255802
1825.000000;3.324844
1824.000000;2.994301
1823.000000;2.894475
1822.000000;2.854672
1821.000000;2.856124
1820.000000;2.931785
1819.000000;3.194657
1818.000000;3.351866
1817.000000;3.171398
1816.000000;3.150954
1815.000000;3.392978
1814.000000;3.698790
1813.000000;3.137571
1812.000000;2.927671
1811.000000;2.982041
1810.000000;3.270729
1809.000000;3.248314
1808.000000;2.982663
1807.000000;2.870375
1806.000000;2.880866
1805.000000;3.009113
1804.000000;3.194111
1803.000000;3.281688
1802.000000;3.397052
1801.000000;4.019357
1800.000000;3.068214
1799.000000;2.863343
1798.000000;2.843772
1797.000000;2.918852
1796.000000;3.003931
1795.000000;3.154117
1794.000000;3.176227
1793.000000;2.961931
1792.000000;2.897946
1791.000000;2.931834
1790.000000;2.975680
1789.000000;2.959313
1788.000000;2.914491
1787.000000;2.880244
1786.000000;2.886358
1785.000000;2.960659
1784.000000;3.108081
1783.000000;3.344417
1782.000000;3.483779
1781.000000;3.199515
1780.000000;2.986039
1779.000000;2.884581
1778.000000;2.858148
1777.000000;2.876763
1776.000000;2.887197
1775.000000;2.861885
1774.000000;2.879424
1773.000000;2.996016
1772.000000;3.028609
1771.000000;2.947968
1770.000000;3.005268
1769.000000;2.896535
1768.000000;2.723569
1767.000000;2.708720
1766.000000;2.768153
1765.000000;2.866019
1764.000000;2.940861
1763.000000;2.980350
1762.000000;3.029577
1761.000000;3.053497
1760.000000;3.280088
1759.000000;3.143363
1758.000000;2.832166
1757.000000;2.755961
1756.000000;2.744896
1755.000000;2.725308
1754.000000;2.720622
1753.000000;2.717936
1752.000000;2.719400
1751.000000;2.793839
1750.000000;2.994975
1749.000000;3.265335
1748.000000;3.343917
1747.000000;3.644186
1746.000000;3.964808
1745.000000;3.674656
1744.000000;4.102239
1743.000000;3.784158
1742.000000;3.447653
1741.000000;3.183012
1740.000000;2.963290
1739.000000;2.854363
1738.000000;2.830532
1737.000000;2.892589
1736.000000;3.028260
1735.000000;3.152260
1734.000000;3.192907
1733.000000;3.055438
1732.000000;2.884114
1731.000000;2.763638
1730.000000;2.643621
1729.000000;2.565463
1728.000000;2.566518
1727.000000;2.675597
1726.000000;2.957259
1725.000000;3.342902
1724.000000;2.995411
1723.000000;2.807078
1722.000000;2.722927
1721.000000;2.709025
1720.000000;2.770559
1719.000000;2.926430
1718.000000;3.169188
1717.000000;3.554534
1716.000000;3.821177
1715.000000;3.411458
1714.000000;3.312609
1713.000000;3.144613
1712.000000;3.021179
1711.000000;3.027106
1710.000000;3.225279
1709.000000;3.512269
1708.000000;3.456219
1707.000000;3.162167
1706.000000;2.932096
1705.000000;2.849231
1704.000000;2.848126
1703.000000;2.960292
1702.000000;3.008086
1701.000000;2.916359
1700.000000;2.974975
1699.000000;3.199825
1698.000000;3.216343
1697.000000;2.945642
1696.000000;2.896605
1695.000000;2.962900
1694.000000;2.995141
1693.000000;2.987471
1692.000000;3.088374
1691.000000;3.113342
1690.000000;2.980679
1689.000000;2.901724
1688.000000;2.879187
1687.000000;2.755602
1686.000000;2.619592
1685.000000;2.577014
1684.000000;2.625596
1683.000000;2.708650
1682.000000;2.737181
1681.000000;2.816299
1680.000000;3.075750
1679.000000;3.184122
1678.000000;2.979290
1677.000000;2.770146
1676.000000;2.659042
1675.000000;2.717438
1674.000000;2.907404
1673.000000;3.850295
1672.000000;2.973522
1671.000000;2.671793
1670.000000;2.590343
1669.000000;2.592604
1668.000000;2.668103
1667.000000;2.794116
1666.000000;2.816572
1665.000000;2.693411
1664.000000;2.648884
1663.000000;2.741105
1662.000000;3.014554
1661.000000;3.181388
1660.000000;2.860118
1659.000000;2.669880
1658.000000;2.514006
1657.000000;2.398116
1656.000000;2.366693
1655.000000;2.574798
1654.000000;3.088177
1653.000000;2.885756
1652.000000;2.755440
1651.000000;2.760839
1650.000000;2.733364
1649.000000;2.743255
1648.000000;2.794552
1647.000000;2.693805
1646.000000;2.556042
1645.000000;2.498926
1644.000000;2.522145
1643.000000;2.621468
1642.000000;2.820012
1641.000000;3.135978
1640.000000;3.698669
1639.000000;3.348074
1638.000000;2.864270
1637.000000;2.674847
1636.000000;2.615886
1635.000000;2.598130
1634.000000;2.609606
1633.000000;2.682670
1632.000000;2.882381
1631.000000;3.143634
1630.000000;2.869387
1629.000000;2.598892
1628.000000;2.512713
1627.000000;2.551020
1626.000000;2.831461
1625.000000;3.138210
1624.000000;2.757354
1623.000000;2.583154
1622.000000;2.569891
1621.000000;2.658787
1620.000000;2.784999
1619.000000;2.706583
1618.000000;2.603057
1617.000000;2.629011
1616.000000;2.801219
1615.000000;3.212796
1614.000000;2.926943
1613.000000;2.709938
1612.000000;2.564263
1611.000000;2.484282
1610.000000;2.477845
1609.000000;2.516984
1608.000000;2.613687
1607.000000;2.817113
1606.000000;3.067994
1605.000000;3.118715
1604.000000;2.998924
1603.000000;2.821053
1602.000000;2.668651
1601.000000;2.616251
1600.000000;2.691236
1599.000000;2.796783
1598.000000;2.835405
1597.000000;3.094426
1596.000000;3.340706
1595.000000;2.935415
1594.000000;2.801624
1593.000000;2.901731
1592.000000;3.002958
1591.000000;2.876561
1590.000000;2.797845
1589.000000;2.816140
1588.000000;2.998147
1587.000000;2.940822
1586.000000;2.703771
1585.000000;2.673587
1584.000000;2.839947
1583.000000;3.324788
1582.000000;3.994354
1581.000000;3.199728
1580.000000;2.668982
1579.000000;2.437136
1578.000000;2.439703
1577.000000;2.684727
1576.000000;3.225305
1575.000000;3.305171
1574.000000;2.734742
1573.000000;2.454622
1572.000000;2.376244
1571.000000;2.412618
1570.000000;2.459740
1569.000000;2.487416
1568.000000;2.545387
1567.000000;2.618528
1566.000000;2.931957
1565.000000;2.909537
1564.000000;2.546027
1563.000000;2.443951
1562.000000;2.479295
1561.000000;2.433930
1560.000000;2.304496
1559.000000;2.274420
1558.000000;2.291707
1557.000000;2.345110
1556.000000;2.433922
1555.000000;2.434343
1554.000000;2.384103
1553.000000;2.394047
1552.000000;2.441190
1551.000000;2.454169
1550.000000;2.444773
1549.000000;2.491270
1548.000000;2.650439
1547.000000;3.224228
1546.000000;2.977089
1545.000000;2.517996
1544.000000;2.387372
1543.000000;2.350767
1542.000000;2.705748
1541.000000;2.547917
1540.000000;2.313024
1539.000000;2.305070
1538.000000;2.288757
1537.000000;2.307092
1536.000000;2.436521
1535.000000;2.889773
1534.000000;2.723391
1533.000000;2.420662
1532.000000;2.303822
1531.000000;2.271646
1530.000000;2.266720
1529.000000;2.243077
1528.000000;2.202695
1527.000000;2.177889
1526.000000;2.190659
1525.000000;2.248924
1524.000000;2.439439
1523.000000;2.929621
1522.000000;2.667967
1521.000000;2.394287
1520.000000;2.368071
1519.000000;2.428610
1518.000000;2.478493
1517.000000;2.504621
1516.000000;2.643881
1515.000000;2.830520
1514.000000;3.279141
1513.000000;3.190317
1512.000000;2.780716
1511.000000;2.587558
1510.000000;2.480892
1509.000000;2.406943
1508.000000;2.415858
1507.000000;2.593059
1506.000000;3.085317
1505.000000;3.120366
1504.000000;3.128268
1503.000000;2.701527
1502.000000;2.444901
1501.000000;2.331453
1500.000000;2.307185
1499.000000;2.438739
1498.000000;2.915350
1497.000000;2.806542
1496.000000;2.502660
1495.000000;2.489050
1494.000000;2.479624
1493.000000;2.845254
1492.000000;2.486318
1491.000000;2.127076
1490.000000;2.102981
1489.000000;2.138705
1488.000000;2.126581
1487.000000;2.127705
1486.000000;2.233924
1485.000000;2.364602
1484.000000;2.373834
1483.000000;2.315092
1482.000000;2.269906
1481.000000;2.251452
1480.000000;2.183199
1479.000000;2.068189
1478.000000;2.048120
1477.000000;2.149015
1476.000000;2.107936
1475.000000;1.961601
1474.000000;1.967374
1473.000000;2.089771
1472.000000;2.523564
1471.000000;3.298693
1470.000000;2.456913
1469.000000;2.643217
1468.000000;2.586491
1467.000000;2.392254
1466.000000;2.331851
1465.000000;2.259495
1464.000000;2.150360
1463.000000;2.087648
1462.000000;2.062338
1461.000000;2.091741
1460.000000;2.168814
1459.000000;2.802614
1458.000000;2.453561
1457.000000;2.171349
1456.000000;2.138987
1455.000000;2.135672
1454.000000;2.130546
1453.000000;2.127158
1452.000000;2.149346
1451.000000;2.193373
1450.000000;2.247647
1449.000000;2.312685
1448.000000;2.396468
1447.000000;2.505633
1446.000000;2.889361
1445.000000;3.233778
1444.000000;2.680879
1443.000000;2.975975
1442.000000;3.432379
1441.000000;3.228040
1440.000000;3.358752
1439.000000;3.191982
1438.000000;3.009286
1437.000000;2.761767
1436.000000;2.535984
1435.000000;2.425749
1434.000000;2.414553
1433.000000;2.428845
1432.000000;2.416611
1431.000000;2.398690
1430.000000;2.362582
1429.000000;2.279227
1428.000000;2.190927
1427.000000;2.170572
1426.000000;2.268180
1425.000000;2.474197
1424.000000;2.628211
1423.000000;2.615539
1422.000000;2.596415
1421.000000;2.650671
1420.000000;2.705860
1419.000000;2.637146
1418.000000;2.585271
1417.000000;2.564191
1416.000000;2.506539
1415.000000;2.429254
1414.000000;2.388348
1413.000000;2.385577
1412.000000;2.401545
1411.000000;2.465841
1410.000000;2.581632
1409.000000;2.646887
1408.000000;2.670836
1407.000000;2.708644
1406.000000;2.753251
1405.000000;2.791135
1404.000000;2.823493
1403.000000;3.248001
1402.000000;3.185737
1401.000000;2.899136
1400.000000;3.055028
1399.000000;3.167673
1398.000000;2.966442
1397.000000;3.234088
1396.000000;3.083100
1395.000000;2.647117
1394.000000;2.505161
1393.000000;2.443765
1392.000000;2.438638
1391.000000;2.461818
1390.000000;2.488398
1389.000000;2.471590
1388.000000;2.415718
1387.000000;2.371682
1386.000000;2.385581
1385.000000;2.494813
1384.000000;2.729624
1383.000000;3.072907
1382.000000;3.111684
1381.000000;2.865193
1380.000000;2.749240
1379.000000;2.747279
1378.000000;3.346211
1377.000000;3.022793
1376.000000;2.659010
1375.000000;2.617515
1374.000000;2.722577
1373.000000;2.979357
1372.000000;3.130671
1371.000000;2.923620
1370.000000;2.729161
1369.000000;2.602573
1368.000000;2.544979
1367.000000;2.490820
1366.000000;2.447296
1365.000000;2.476569
1364.000000;2.657292
1363.000000;2.999598
1362.000000;2.934422
1361.000000;2.777496
1360.000000;2.868159
1359.000000;3.076547
1358.000000;2.985560
1357.000000;2.849768
1356.000000;2.900973
1355.000000;3.061025
1354.000000;3.124784
1353.000000;2.942894
1352.000000;2.760667
1351.000000;2.641336
1350.000000;2.648892
1349.000000;2.861183
1348.000000;3.480246
1347.000000;2.790849
1346.000000;2.636204
1345.000000;2.687916
1344.000000;2.878859
1343.000000;3.204138
1342.000000;3.564029
1341.000000;3.155096
1340.000000;2.753677
1339.000000;2.533342
1338.000000;2.442778
1337.000000;2.469955
1336.000000;2.573686
1335.000000;2.655662
1334.000000;2.720734
1333.000000;3.065611
1332.000000;3.358999
1331.000000;2.954903
1330.000000;2.835297
1329.000000;2.737571
1328.000000;2.631190
1327.000000;2.543979
1326.000000;2.513787
1325.000000;2.536915
1324.000000;2.570348
1323.000000;2.566510
1322.000000;2.550688
1321.000000;2.593861
1320.000000;2.734693
1319.000000;2.932514
1318.000000;2.972190
1317.000000;2.751141
1316.000000;2.581706
1315.000000;2.487368
1314.000000;2.427242
1313.000000;2.386248
1312.000000;2.371578
1311.000000;2.388038
1310.000000;2.433997
1309.000000;2.484220
1308.000000;2.521626
1307.000000;2.568636
1306.000000;2.817264
1305.000000;3.177660
1304.000000;2.807629
1303.000000;2.670215
1302.000000;2.889403
1301.000000;3.273176
1300.000000;2.828188
1299.000000;2.612315
1298.000000;2.552172
1297.000000;2.542952
1296.000000;2.591526
1295.000000;2.668421
1294.000000;2.714929
1293.000000;2.716225
1292.000000;2.772695
1291.000000;2.929842
1290.000000;3.061882
1289.000000;2.910550
1288.000000;2.655095
1287.000000;2.504787
1286.000000;2.489120
1285.000000;2.608577
1284.000000;2.832238
1283.000000;3.226772
1282.000000;3.666618
1281.000000;3.004035
1280.000000;2.698180
1279.000000;2.536262
1278.000000;2.445658
1277.000000;2.390321
1276.000000;2.371164
1275.000000;2.410252
1274.000000;2.540581
1273.000000;2.786229
1272.000000;3.100120
1271.000000;3.060141
1270.000000;2.974112
1269.000000;2.910277
1268.000000;2.766832
1267.000000;2.766306
1266.000000;3.104597
1265.000000;3.330921
1264.000000;2.925040
1263.000000;2.935766
1262.000000;3.109009
1261.000000;3.211365
1260.000000;3.192365
1259.000000;3.445714
1258.000000;3.206080
1257.000000;2.781199
1256.000000;2.628324
1255.000000;2.580261
1254.000000;2.584353
1253.000000;2.588454
1252.000000;2.601899
1251.000000;2.634253
1250.000000;2.645624
1249.000000;2.618693
1248.000000;2.628803
1247.000000;2.775456
1246.000000;3.029872
1245.000000;2.990955
1244.000000;2.948791
1243.000000;2.850705
1242.000000;2.736506
1241.000000;2.758528
1240.000000;2.864428
1239.000000;2.807277
1238.000000;2.731933
1237.000000;2.784690
1236.000000;2.895203
1235.000000;2.894362
1234.000000;2.766153
1233.000000;2.608079
1232.000000;2.520781
1231.000000;2.521639
1230.000000;2.594363
1229.000000;2.706806
1228.000000;2.830258
1227.000000;2.910185
1226.000000;2.926359
1225.000000;2.965494
1224.000000;3.254386
1223.000000;3.693468
1222.000000;3.303192
1221.000000;3.225334
1220.000000;3.316585
1219.000000;3.314422
1218.000000;3.334573
1217.000000;3.477890
1216.000000;3.759046
1215.000000;4.045800
1214.000000;3.726569
1213.000000;3.319812
1212.000000;3.087507
1211.000000;2.976792
1210.000000;2.889638
1209.000000;2.788915
1208.000000;2.752917
1207.000000;2.854652
1206.000000;3.063744
1205.000000;2.771364
1204.000000;2.504527
1203.000000;2.398403
1202.000000;2.409435
1201.000000;2.531452
1200.000000;2.860981
