Criado como novo conjunto de dados;"0307_DANIEL.spp","66605.3 Secs"
cm-1;Abs
10000.000000;0.589093
9999.000000;0.588589
9998.000000;0.587651
9997.000000;0.586496
9996.000000;0.585686
9995.000000;0.585454
9994.000000;0.585545
9993.000000;0.585417
9992.000000;0.584821
9991.000000;0.583893
9990.000000;0.582899
9989.000000;0.581937
9988.000000;0.581004
9987.000000;0.580181
9986.000000;0.579577
9985.000000;0.579110
9984.000000;0.578490
9983.000000;0.577478
9982.000000;0.576121
9981.000000;0.574647
9980.000000;0.573224
9979.000000;0.571935
9978.000000;0.570943
9977.000000;0.570452
9976.000000;0.570389
9975.000000;0.570300
9974.000000;0.569754
9973.000000;0.568815
9972.000000;0.567879
9971.000000;0.567095
9970.000000;0.566190
9969.000000;0.564943
9968.000000;0.563580
9967.000000;0.562531
9966.000000;0.561953
9965.000000;0.561662
9964.000000;0.561374
9963.000000;0.560859
9962.000000;0.559984
9961.000000;0.558816
9960.000000;0.557656
9959.000000;0.556755
9958.000000;0.556046
9957.000000;0.555275
9956.000000;0.554374
9955.000000;0.553504
9954.000000;0.552772
9953.000000;0.552103
9952.000000;0.551366
9951.000000;0.550458
9950.000000;0.549255
9949.000000;0.547735
9948.000000;0.546180
9947.000000;0.545024
9946.000000;0.544402
9945.000000;0.544017
9944.000000;0.543549
9943.000000;0.543011
9942.000000;0.542570
9941.000000;0.542227
9940.000000;0.541808
9939.000000;0.541165
9938.000000;0.540218
9937.000000;0.538928
9936.000000;0.537404
9935.000000;0.535960
9934.000000;0.534847
9933.000000;0.533976
9932.000000;0.533061
9931.000000;0.532020
9930.000000;0.531096
9929.000000;0.530545
9928.000000;0.530313
9927.000000;0.530047
9926.000000;0.529366
9925.000000;0.528167
9924.000000;0.526732
9923.000000;0.525497
9922.000000;0.524654
9921.000000;0.524005
9920.000000;0.523256
9919.000000;0.522374
9918.000000;0.521538
9917.000000;0.520848
9916.000000;0.520221
9915.000000;0.519528
9914.000000;0.518678
9913.000000;0.517589
9912.000000;0.516267
9911.000000;0.514905
9910.000000;0.513755
9909.000000;0.512837
9908.000000;0.511903
9907.000000;0.510758
9906.000000;0.509504
9905.000000;0.508406
9904.000000;0.507629
9903.000000;0.507121
9902.000000;0.506683
9901.000000;0.506059
9900.000000;0.505056
9899.000000;0.503666
9898.000000;0.502047
9897.000000;0.500371
9896.000000;0.498742
9895.000000;0.497261
9894.000000;0.496066
9893.000000;0.495231
9892.000000;0.494668
9891.000000;0.494162
9890.000000;0.493477
9889.000000;0.492469
9888.000000;0.491205
9887.000000;0.489957
9886.000000;0.488952
9885.000000;0.488107
9884.000000;0.487139
9883.000000;0.485985
9882.000000;0.484917
9881.000000;0.484134
9880.000000;0.483432
9879.000000;0.482455
9878.000000;0.481161
9877.000000;0.479828
9876.000000;0.478688
9875.000000;0.477782
9874.000000;0.477114
9873.000000;0.476678
9872.000000;0.476267
9871.000000;0.475524
9870.000000;0.474300
9869.000000;0.472834
9868.000000;0.471462
9867.000000;0.470303
9866.000000;0.469312
9865.000000;0.468446
9864.000000;0.467591
9863.000000;0.466457
9862.000000;0.464832
9861.000000;0.462928
9860.000000;0.461306
9859.000000;0.460362
9858.000000;0.459966
9857.000000;0.459623
9856.000000;0.458906
9855.000000;0.457730
9854.000000;0.456301
9853.000000;0.454886
9852.000000;0.453596
9851.000000;0.452355
9850.000000;0.451075
9849.000000;0.449840
9848.000000;0.448859
9847.000000;0.448233
9846.000000;0.447789
9845.000000;0.447170
9844.000000;0.446081
9843.000000;0.444507
9842.000000;0.442754
9841.000000;0.441243
9840.000000;0.440158
9839.000000;0.439295
9838.000000;0.438283
9837.000000;0.436969
9836.000000;0.435522
9835.000000;0.434212
9834.000000;0.433181
9833.000000;0.432438
9832.000000;0.431917
9831.000000;0.431469
9830.000000;0.430874
9829.000000;0.429958
9828.000000;0.428680
9827.000000;0.427114
9826.000000;0.425397
9825.000000;0.423745
9824.000000;0.422380
9823.000000;0.421337
9822.000000;0.420388
9821.000000;0.419267
9820.000000;0.417962
9819.000000;0.416692
9818.000000;0.415609
9817.000000;0.414621
9816.000000;0.413523
9815.000000;0.412244
9814.000000;0.410893
9813.000000;0.409608
9812.000000;0.408397
9811.000000;0.407178
9810.000000;0.405925
9809.000000;0.404741
9808.000000;0.403712
9807.000000;0.402742
9806.000000;0.401615
9805.000000;0.400231
9804.000000;0.398678
9803.000000;0.397067
9802.000000;0.395420
9801.000000;0.393809
9800.000000;0.392467
9799.000000;0.391599
9798.000000;0.391110
9797.000000;0.390611
9796.000000;0.389727
9795.000000;0.388365
9794.000000;0.386723
9793.000000;0.385131
9792.000000;0.383802
9791.000000;0.382654
9790.000000;0.381390
9789.000000;0.379852
9788.000000;0.378254
9787.000000;0.376944
9786.000000;0.375968
9785.000000;0.375007
9784.000000;0.373758
9783.000000;0.372232
9782.000000;0.370660
9781.000000;0.369245
9780.000000;0.368042
9779.000000;0.366953
9778.000000;0.365780
9777.000000;0.364381
9776.000000;0.362837
9775.000000;0.361358
9774.000000;0.360013
9773.000000;0.358639
9772.000000;0.357078
9771.000000;0.355396
9770.000000;0.353810
9769.000000;0.352473
9768.000000;0.351415
9767.000000;0.350569
9766.000000;0.349754
9765.000000;0.348739
9764.000000;0.347433
9763.000000;0.345982
9762.000000;0.344593
9761.000000;0.343332
9760.000000;0.342143
9759.000000;0.340988
9758.000000;0.339841
9757.000000;0.338614
9756.000000;0.337212
9755.000000;0.335648
9754.000000;0.333983
9753.000000;0.332221
9752.000000;0.330348
9751.000000;0.328469
9750.000000;0.326752
9749.000000;0.325249
9748.000000;0.323872
9747.000000;0.322557
9746.000000;0.321351
9745.000000;0.320307
9744.000000;0.319368
9743.000000;0.318373
9742.000000;0.317140
9741.000000;0.315584
9740.000000;0.313852
9739.000000;0.312301
9738.000000;0.311186
9737.000000;0.310347
9736.000000;0.309309
9735.000000;0.307757
9734.000000;0.305791
9733.000000;0.303693
9732.000000;0.301621
9731.000000;0.299617
9730.000000;0.297766
9729.000000;0.296154
9728.000000;0.294711
9727.000000;0.293291
9726.000000;0.291899
9725.000000;0.290709
9724.000000;0.289769
9723.000000;0.288807
9722.000000;0.287454
9721.000000;0.285636
9720.000000;0.283672
9719.000000;0.281937
9718.000000;0.280479
9717.000000;0.279032
9716.000000;0.277385
9715.000000;0.275648
9714.000000;0.274098
9713.000000;0.272809
9712.000000;0.271551
9711.000000;0.270062
9710.000000;0.268298
9709.000000;0.266397
9708.000000;0.264510
9707.000000;0.262755
9706.000000;0.261243
9705.000000;0.260014
9704.000000;0.258954
9703.000000;0.257869
9702.000000;0.256611
9701.000000;0.255085
9700.000000;0.253213
9699.000000;0.251027
9698.000000;0.248763
9697.000000;0.246712
9696.000000;0.244960
9695.000000;0.243376
9694.000000;0.241863
9693.000000;0.240471
9692.000000;0.239209
9691.000000;0.237905
9690.000000;0.236376
9689.000000;0.234677
9688.000000;0.233045
9687.000000;0.231630
9686.000000;0.230372
9685.000000;0.229083
9684.000000;0.227585
9683.000000;0.225798
9682.000000;0.223801
9681.000000;0.221774
9680.000000;0.219831
9679.000000;0.217939
9678.000000;0.216052
9677.000000;0.214269
9676.000000;0.212719
9675.000000;0.211351
9674.000000;0.209930
9673.000000;0.208263
9672.000000;0.206322
9671.000000;0.204177
9670.000000;0.201946
9669.000000;0.199837
9668.000000;0.198103
9667.000000;0.196831
9666.000000;0.195834
9665.000000;0.194789
9664.000000;0.193447
9663.000000;0.191719
9662.000000;0.189645
9661.000000;0.187373
9660.000000;0.185120
9659.000000;0.183085
9658.000000;0.181341
9657.000000;0.179797
9656.000000;0.178228
9655.000000;0.176427
9654.000000;0.174399
9653.000000;0.172402
9652.000000;0.170675
9651.000000;0.169139
9650.000000;0.167475
9649.000000;0.165521
9648.000000;0.163460
9647.000000;0.161564
9646.000000;0.159895
9645.000000;0.158335
9644.000000;0.156793
9643.000000;0.155243
9642.000000;0.153618
9641.000000;0.151796
9640.000000;0.149715
9639.000000;0.147445
9638.000000;0.145161
9637.000000;0.143064
9636.000000;0.141250
9635.000000;0.139605
9634.000000;0.137887
9633.000000;0.135990
9632.000000;0.134060
9631.000000;0.132285
9630.000000;0.130623
9629.000000;0.128858
9628.000000;0.126864
9627.000000;0.124704
9626.000000;0.122494
9625.000000;0.120312
9624.000000;0.118221
9623.000000;0.116270
9622.000000;0.114432
9621.000000;0.112611
9620.000000;0.110758
9619.000000;0.108895
9618.000000;0.107017
9617.000000;0.105054
9616.000000;0.102964
9615.000000;0.100838
9614.000000;0.098843
9613.000000;0.097049
9612.000000;0.095326
9611.000000;0.093430
9610.000000;0.091230
9609.000000;0.088865
9608.000000;0.086620
9607.000000;0.084623
9606.000000;0.082740
9605.000000;0.080801
9604.000000;0.078854
9603.000000;0.077082
9602.000000;0.075519
9601.000000;0.073985
9600.000000;0.072309
9599.000000;0.070518
9598.000000;0.068726
9597.000000;0.066913
9596.000000;0.064924
9595.000000;0.062681
9594.000000;0.060341
9593.000000;0.058147
9592.000000;0.056153
9591.000000;0.054165
9590.000000;0.051997
9589.000000;0.049716
9588.000000;0.047542
9587.000000;0.045563
9586.000000;0.043684
9585.000000;0.041818
9584.000000;0.039988
9583.000000;0.038193
9582.000000;0.036348
9581.000000;0.034395
9580.000000;0.032367
9579.000000;0.030264
9578.000000;0.028026
9577.000000;0.025688
9576.000000;0.023423
9575.000000;0.021339
9574.000000;0.019345
9573.000000;0.017343
9572.000000;0.015399
9571.000000;0.013584
9570.000000;0.011784
9569.000000;0.009856
9568.000000;0.007859
9567.000000;0.005954
9566.000000;0.004146
9565.000000;0.002303
9564.000000;0.000350
9563.000000;-0.001738
9562.000000;-0.004046
9561.000000;-0.006575
9560.000000;-0.009049
9559.000000;-0.011131
9558.000000;-0.012838
9557.000000;-0.014513
9556.000000;-0.016381
9555.000000;-0.018387
9554.000000;-0.020474
9553.000000;-0.022743
9552.000000;-0.025176
9551.000000;-0.027466
9550.000000;-0.029312
9549.000000;-0.030777
9548.000000;-0.032209
9547.000000;-0.033881
9546.000000;-0.035817
9545.000000;-0.037892
9544.000000;-0.040003
9543.000000;-0.042147
9542.000000;-0.044393
9541.000000;-0.046751
9540.000000;-0.049097
9539.000000;-0.051291
9538.000000;-0.053328
9537.000000;-0.055263
9536.000000;-0.057034
9535.000000;-0.058550
9534.000000;-0.059934
9533.000000;-0.061477
9532.000000;-0.063282
9531.000000;-0.065141
9530.000000;-0.066843
9529.000000;-0.068437
9528.000000;-0.070079
9527.000000;-0.071784
9526.000000;-0.073460
9525.000000;-0.075106
9524.000000;-0.076835
9523.000000;-0.078767
9522.000000;-0.080927
9521.000000;-0.083177
9520.000000;-0.085229
9519.000000;-0.086869
9518.000000;-0.088215
9517.000000;-0.089603
9516.000000;-0.091172
9515.000000;-0.092743
9514.000000;-0.094175
9513.000000;-0.095634
9512.000000;-0.097346
9511.000000;-0.099262
9510.000000;-0.101144
9509.000000;-0.102881
9508.000000;-0.104512
9507.000000;-0.106028
9506.000000;-0.107342
9505.000000;-0.108460
9504.000000;-0.109523
9503.000000;-0.110665
9502.000000;-0.111921
9501.000000;-0.113240
9500.000000;-0.114562
9499.000000;-0.115921
9498.000000;-0.117476
9497.000000;-0.119344
9496.000000;-0.121352
9495.000000;-0.123106
9494.000000;-0.124397
9493.000000;-0.125430
9492.000000;-0.126531
9491.000000;-0.127793
9490.000000;-0.129097
9489.000000;-0.130330
9488.000000;-0.131406
9487.000000;-0.132209
9486.000000;-0.132750
9485.000000;-0.133298
9484.000000;-0.134157
9483.000000;-0.135336
9482.000000;-0.136573
9481.000000;-0.137638
9480.000000;-0.138468
9479.000000;-0.139102
9478.000000;-0.139665
9477.000000;-0.140366
9476.000000;-0.141291
9475.000000;-0.142239
9474.000000;-0.142944
9473.000000;-0.143406
9472.000000;-0.143836
9471.000000;-0.144319
9470.000000;-0.144783
9469.000000;-0.145275
9468.000000;-0.145983
9467.000000;-0.146902
9466.000000;-0.147736
9465.000000;-0.148268
9464.000000;-0.148673
9463.000000;-0.149322
9462.000000;-0.150320
9461.000000;-0.151349
9460.000000;-0.151929
9459.000000;-0.151835
9458.000000;-0.151326
9457.000000;-0.150956
9456.000000;-0.151068
9455.000000;-0.151468
9454.000000;-0.151704
9453.000000;-0.151607
9452.000000;-0.151404
9451.000000;-0.151357
9450.000000;-0.151494
9449.000000;-0.151722
9448.000000;-0.151992
9447.000000;-0.152234
9446.000000;-0.152292
9445.000000;-0.152049
9444.000000;-0.151554
9443.000000;-0.150990
9442.000000;-0.150573
9441.000000;-0.150471
9440.000000;-0.150669
9439.000000;-0.150909
9438.000000;-0.150907
9437.000000;-0.150651
9436.000000;-0.150337
9435.000000;-0.150012
9434.000000;-0.149517
9433.000000;-0.148816
9432.000000;-0.148146
9431.000000;-0.147709
9430.000000;-0.147421
9429.000000;-0.147088
9428.000000;-0.146653
9427.000000;-0.146115
9426.000000;-0.145414
9425.000000;-0.144568
9424.000000;-0.143772
9423.000000;-0.143158
9422.000000;-0.142565
9421.000000;-0.141756
9420.000000;-0.140741
9419.000000;-0.139696
9418.000000;-0.138654
9417.000000;-0.137527
9416.000000;-0.136387
9415.000000;-0.135450
9414.000000;-0.134783
9413.000000;-0.134250
9412.000000;-0.133732
9411.000000;-0.133225
9410.000000;-0.132676
9409.000000;-0.131973
9408.000000;-0.131141
9407.000000;-0.130332
9406.000000;-0.129556
9405.000000;-0.128584
9404.000000;-0.127269
9403.000000;-0.125801
9402.000000;-0.124511
9401.000000;-0.123539
9400.000000;-0.122807
9399.000000;-0.122215
9398.000000;-0.121675
9397.000000;-0.121000
9396.000000;-0.119943
9395.000000;-0.118426
9394.000000;-0.116660
9393.000000;-0.114988
9392.000000;-0.113624
9391.000000;-0.112548
9390.000000;-0.111600
9389.000000;-0.110646
9388.000000;-0.109630
9387.000000;-0.108491
9386.000000;-0.107092
9385.000000;-0.105346
9384.000000;-0.103391
9383.000000;-0.101543
9382.000000;-0.100021
9381.000000;-0.098807
9380.000000;-0.097809
9379.000000;-0.097051
9378.000000;-0.096529
9377.000000;-0.095987
9376.000000;-0.095022
9375.000000;-0.093484
9374.000000;-0.091630
9373.000000;-0.089821
9372.000000;-0.088198
9371.000000;-0.086728
9370.000000;-0.085420
9369.000000;-0.084341
9368.000000;-0.083433
9367.000000;-0.082492
9366.000000;-0.081337
9365.000000;-0.079936
9364.000000;-0.078350
9363.000000;-0.076678
9362.000000;-0.075052
9361.000000;-0.073568
9360.000000;-0.072150
9359.000000;-0.070605
9358.000000;-0.068879
9357.000000;-0.067213
9356.000000;-0.065886
9355.000000;-0.064825
9354.000000;-0.063610
9353.000000;-0.061919
9352.000000;-0.059916
9351.000000;-0.058126
9350.000000;-0.056926
9349.000000;-0.056177
9348.000000;-0.055393
9347.000000;-0.054233
9346.000000;-0.052786
9345.000000;-0.051350
9344.000000;-0.050008
9343.000000;-0.048572
9342.000000;-0.046928
9341.000000;-0.045270
9340.000000;-0.043887
9339.000000;-0.042815
9338.000000;-0.041828
9337.000000;-0.040698
9336.000000;-0.039343
9335.000000;-0.037774
9334.000000;-0.036045
9333.000000;-0.034279
9332.000000;-0.032608
9331.000000;-0.031072
9330.000000;-0.029654
9329.000000;-0.028381
9328.000000;-0.027268
9327.000000;-0.026178
9326.000000;-0.024903
9325.000000;-0.023412
9324.000000;-0.021857
9323.000000;-0.020302
9322.000000;-0.018652
9321.000000;-0.016933
9320.000000;-0.015432
9319.000000;-0.014323
9318.000000;-0.013327
9317.000000;-0.012009
9316.000000;-0.010357
9315.000000;-0.008796
9314.000000;-0.007612
9313.000000;-0.006623
9312.000000;-0.005517
9311.000000;-0.004274
9310.000000;-0.003079
9309.000000;-0.001950
9308.000000;-0.000687
9307.000000;0.000847
9306.000000;0.002553
9305.000000;0.004237
9304.000000;0.005796
9303.000000;0.007244
9302.000000;0.008633
9301.000000;0.009965
9300.000000;0.011178
9299.000000;0.012208
9298.000000;0.013145
9297.000000;0.014254
9296.000000;0.015747
9295.000000;0.017538
9294.000000;0.019311
9293.000000;0.020849
9292.000000;0.022174
9291.000000;0.023369
9290.000000;0.024399
9289.000000;0.025252
9288.000000;0.026125
9287.000000;0.027299
9286.000000;0.028816
9285.000000;0.030404
9284.000000;0.031792
9283.000000;0.032992
9282.000000;0.034214
9281.000000;0.035557
9280.000000;0.036902
9279.000000;0.038089
9278.000000;0.039113
9277.000000;0.040093
9276.000000;0.041111
9275.000000;0.042160
9274.000000;0.043224
9273.000000;0.044324
9272.000000;0.045424
9271.000000;0.046416
9270.000000;0.047275
9269.000000;0.048207
9268.000000;0.049469
9267.000000;0.051019
9266.000000;0.052472
9265.000000;0.053508
9264.000000;0.054251
9263.000000;0.055119
9262.000000;0.056361
9261.000000;0.057846
9260.000000;0.059292
9259.000000;0.060537
9258.000000;0.061596
9257.000000;0.062585
9256.000000;0.063683
9255.000000;0.065019
9254.000000;0.066514
9253.000000;0.067905
9252.000000;0.069018
9251.000000;0.069982
9250.000000;0.071054
9249.000000;0.072279
9248.000000;0.073439
9247.000000;0.074344
9246.000000;0.075066
9245.000000;0.075843
9244.000000;0.076812
9243.000000;0.077930
9242.000000;0.079100
9241.000000;0.080285
9240.000000;0.081497
9239.000000;0.082723
9238.000000;0.083933
9237.000000;0.085116
9236.000000;0.086263
9235.000000;0.087295
9234.000000;0.088087
9233.000000;0.088615
9232.000000;0.089074
9231.000000;0.089794
9230.000000;0.090992
9229.000000;0.092589
9228.000000;0.094268
9227.000000;0.095705
9226.000000;0.096783
9225.000000;0.097627
9224.000000;0.098452
9223.000000;0.099393
9222.000000;0.100433
9221.000000;0.101456
9220.000000;0.102332
9219.000000;0.102975
9218.000000;0.103432
9217.000000;0.103925
9216.000000;0.104743
9215.000000;0.106002
9214.000000;0.107521
9213.000000;0.108973
9212.000000;0.110163
9211.000000;0.111126
9210.000000;0.111989
9209.000000;0.112804
9208.000000;0.113532
9207.000000;0.114181
9206.000000;0.114884
9205.000000;0.115818
9204.000000;0.116989
9203.000000;0.118160
9202.000000;0.119087
9201.000000;0.119824
9200.000000;0.120667
9199.000000;0.121761
9198.000000;0.122893
9197.000000;0.123764
9196.000000;0.124351
9195.000000;0.124872
9194.000000;0.125500
9193.000000;0.126275
9192.000000;0.127206
9191.000000;0.128267
9190.000000;0.129307
9189.000000;0.130142
9188.000000;0.130815
9187.000000;0.131587
9186.000000;0.132649
9185.000000;0.133898
9184.000000;0.135048
9183.000000;0.135850
9182.000000;0.136241
9181.000000;0.136414
9180.000000;0.136756
9179.000000;0.137536
9178.000000;0.138618
9177.000000;0.139603
9176.000000;0.140311
9175.000000;0.140972
9174.000000;0.141895
9173.000000;0.143103
9172.000000;0.144394
9171.000000;0.145594
9170.000000;0.146619
9169.000000;0.147408
9168.000000;0.147957
9167.000000;0.148393
9166.000000;0.148905
9165.000000;0.149610
9164.000000;0.150516
9163.000000;0.151534
9162.000000;0.152484
9161.000000;0.153221
9160.000000;0.153820
9159.000000;0.154518
9158.000000;0.155384
9157.000000;0.156180
9156.000000;0.156682
9155.000000;0.157009
9154.000000;0.157453
9153.000000;0.158107
9152.000000;0.158832
9151.000000;0.159541
9150.000000;0.160291
9149.000000;0.161103
9148.000000;0.161849
9147.000000;0.162367
9146.000000;0.162601
9145.000000;0.162653
9144.000000;0.162804
9143.000000;0.163404
9142.000000;0.164575
9141.000000;0.165978
9140.000000;0.167049
9139.000000;0.167542
9138.000000;0.167761
9137.000000;0.168213
9136.000000;0.169120
9135.000000;0.170293
9134.000000;0.171346
9133.000000;0.172006
9132.000000;0.172295
9131.000000;0.172510
9130.000000;0.173000
9129.000000;0.173889
9128.000000;0.175019
9127.000000;0.176132
9126.000000;0.177070
9125.000000;0.177817
9124.000000;0.178431
9123.000000;0.178971
9122.000000;0.179445
9121.000000;0.179811
9120.000000;0.180065
9119.000000;0.180323
9118.000000;0.180746
9117.000000;0.181350
9116.000000;0.181961
9115.000000;0.182383
9114.000000;0.182592
9113.000000;0.182776
9112.000000;0.183184
9111.000000;0.183936
9110.000000;0.184932
9109.000000;0.185941
9108.000000;0.186821
9107.000000;0.187619
9106.000000;0.188431
9105.000000;0.189238
9104.000000;0.189924
9103.000000;0.190411
9102.000000;0.190672
9101.000000;0.190679
9100.000000;0.190489
9099.000000;0.190382
9098.000000;0.190733
9097.000000;0.191672
9096.000000;0.192945
9095.000000;0.194164
9094.000000;0.195095
9093.000000;0.195670
9092.000000;0.195889
9091.000000;0.195858
9090.000000;0.195854
9089.000000;0.196156
9088.000000;0.196780
9087.000000;0.197463
9086.000000;0.197958
9085.000000;0.198287
9084.000000;0.198664
9083.000000;0.199216
9082.000000;0.199828
9081.000000;0.200274
9080.000000;0.200489
9079.000000;0.200679
9078.000000;0.201140
9077.000000;0.201975
9076.000000;0.202993
9075.000000;0.203872
9074.000000;0.204394
9073.000000;0.204558
9072.000000;0.204574
9071.000000;0.204756
9070.000000;0.205329
9069.000000;0.206203
9068.000000;0.206986
9067.000000;0.207334
9066.000000;0.207316
9065.000000;0.207360
9064.000000;0.207815
9063.000000;0.208640
9062.000000;0.209542
9061.000000;0.210338
9060.000000;0.211060
9059.000000;0.211743
9058.000000;0.212251
9057.000000;0.212393
9056.000000;0.212166
9055.000000;0.211813
9054.000000;0.211646
9053.000000;0.211869
9052.000000;0.212542
9051.000000;0.213563
9050.000000;0.214637
9049.000000;0.215375
9048.000000;0.215596
9047.000000;0.215526
9046.000000;0.215597
9045.000000;0.216004
9044.000000;0.216544
9043.000000;0.216914
9042.000000;0.217067
9041.000000;0.217180
9040.000000;0.217366
9039.000000;0.217567
9038.000000;0.217722
9037.000000;0.217916
9036.000000;0.218299
9035.000000;0.218918
9034.000000;0.219670
9033.000000;0.220377
9032.000000;0.220879
9031.000000;0.221113
9030.000000;0.221168
9029.000000;0.221247
9028.000000;0.221515
9027.000000;0.221957
9026.000000;0.222403
9025.000000;0.222666
9024.000000;0.222686
9023.000000;0.222579
9022.000000;0.222585
9021.000000;0.222898
9020.000000;0.223506
9019.000000;0.224203
9018.000000;0.224811
9017.000000;0.225356
9016.000000;0.225976
9015.000000;0.226694
9014.000000;0.227375
9013.000000;0.227882
9012.000000;0.228175
9011.000000;0.228253
9010.000000;0.228130
9009.000000;0.227926
9008.000000;0.227882
9007.000000;0.228163
9006.000000;0.228663
9005.000000;0.229111
9004.000000;0.229361
9003.000000;0.229529
9002.000000;0.229799
9001.000000;0.230142
9000.000000;0.230289
8999.000000;0.230031
8998.000000;0.229499
8997.000000;0.229078
8996.000000;0.229017
8995.000000;0.229225
8994.000000;0.229511
8993.000000;0.229911
8992.000000;0.230599
8991.000000;0.231534
8990.000000;0.232375
8989.000000;0.232841
8988.000000;0.232992
8987.000000;0.233082
8986.000000;0.233276
8985.000000;0.233577
8984.000000;0.233923
8983.000000;0.234209
8982.000000;0.234333
8981.000000;0.234345
8980.000000;0.234453
8979.000000;0.234789
8978.000000;0.235223
8977.000000;0.235545
8976.000000;0.235730
8975.000000;0.235884
8974.000000;0.235996
8973.000000;0.235951
8972.000000;0.235774
8971.000000;0.235677
8970.000000;0.235844
8969.000000;0.236270
8968.000000;0.236825
8967.000000;0.237355
8966.000000;0.237721
8965.000000;0.237879
8964.000000;0.237934
8963.000000;0.238025
8962.000000;0.238153
8961.000000;0.238227
8960.000000;0.238272
8959.000000;0.238427
8958.000000;0.238731
8957.000000;0.239043
8956.000000;0.239260
8955.000000;0.239462
8954.000000;0.239779
8953.000000;0.240192
8952.000000;0.240534
8951.000000;0.240635
8950.000000;0.240432
8949.000000;0.240029
8948.000000;0.239683
8947.000000;0.239624
8946.000000;0.239839
8945.000000;0.240091
8944.000000;0.240209
8943.000000;0.240270
8942.000000;0.240459
8941.000000;0.240823
8940.000000;0.241246
8939.000000;0.241610
8938.000000;0.241886
8937.000000;0.242075
8936.000000;0.242142
8935.000000;0.242051
8934.000000;0.241879
8933.000000;0.241840
8932.000000;0.242109
8931.000000;0.242605
8930.000000;0.243042
8929.000000;0.243272
8928.000000;0.243465
8927.000000;0.243818
8926.000000;0.244205
8925.000000;0.244315
8924.000000;0.244092
8923.000000;0.243808
8922.000000;0.243678
8921.000000;0.243643
8920.000000;0.243592
8919.000000;0.243556
8918.000000;0.243577
8917.000000;0.243580
8916.000000;0.243552
8915.000000;0.243682
8914.000000;0.244125
8913.000000;0.244701
8912.000000;0.245034
8911.000000;0.244974
8910.000000;0.244734
8909.000000;0.244616
8908.000000;0.244713
8907.000000;0.244878
8906.000000;0.244881
8905.000000;0.244587
8904.000000;0.244069
8903.000000;0.243610
8902.000000;0.243544
8901.000000;0.244037
8900.000000;0.244925
8899.000000;0.245755
8898.000000;0.246053
8897.000000;0.245722
8896.000000;0.245160
8895.000000;0.244877
8894.000000;0.244988
8893.000000;0.245189
8892.000000;0.245226
8891.000000;0.245181
8890.000000;0.245231
8889.000000;0.245352
8888.000000;0.245416
8887.000000;0.245436
8886.000000;0.245515
8885.000000;0.245627
8884.000000;0.245659
8883.000000;0.245623
8882.000000;0.245652
8881.000000;0.245770
8880.000000;0.245819
8879.000000;0.245667
8878.000000;0.245392
8877.000000;0.245213
8876.000000;0.245263
8875.000000;0.245460
8874.000000;0.245563
8873.000000;0.245417
8872.000000;0.245162
8871.000000;0.245125
8870.000000;0.245447
8869.000000;0.245893
8868.000000;0.246123
8867.000000;0.246067
8866.000000;0.245917
8865.000000;0.245825
8864.000000;0.245787
8863.000000;0.245789
8862.000000;0.245884
8861.000000;0.246050
8860.000000;0.246133
8859.000000;0.245992
8858.000000;0.245654
8857.000000;0.245255
8856.000000;0.244926
8855.000000;0.244771
8854.000000;0.244844
8853.000000;0.245062
8852.000000;0.245164
8851.000000;0.244911
8850.000000;0.244338
8849.000000;0.243769
8848.000000;0.243540
8847.000000;0.243704
8846.000000;0.244027
8845.000000;0.244257
8844.000000;0.244353
8843.000000;0.244466
8842.000000;0.244722
8841.000000;0.245085
8840.000000;0.245393
8839.000000;0.245492
8838.000000;0.245329
8837.000000;0.245000
8836.000000;0.244695
8835.000000;0.244551
8834.000000;0.244509
8833.000000;0.244374
8832.000000;0.244058
8831.000000;0.243683
8830.000000;0.243456
8829.000000;0.243482
8828.000000;0.243741
8827.000000;0.244126
8826.000000;0.244464
8825.000000;0.244584
8824.000000;0.244463
8823.000000;0.244268
8822.000000;0.244185
8821.000000;0.244245
8820.000000;0.244368
8819.000000;0.244496
8818.000000;0.244603
8817.000000;0.244620
8816.000000;0.244508
8815.000000;0.244362
8814.000000;0.244357
8813.000000;0.244530
8812.000000;0.244707
8811.000000;0.244667
8810.000000;0.244346
8809.000000;0.243878
8808.000000;0.243485
8807.000000;0.243325
8806.000000;0.243400
8805.000000;0.243585
8804.000000;0.243733
8803.000000;0.243741
8802.000000;0.243538
8801.000000;0.243093
8800.000000;0.242491
8799.000000;0.241911
8798.000000;0.241471
8797.000000;0.241138
8796.000000;0.240846
8795.000000;0.240655
8794.000000;0.240690
8793.000000;0.240946
8792.000000;0.241236
8791.000000;0.241330
8790.000000;0.241088
8789.000000;0.240517
8788.000000;0.239766
8787.000000;0.239070
8786.000000;0.238602
8785.000000;0.238359
8784.000000;0.238254
8783.000000;0.238278
8782.000000;0.238492
8781.000000;0.238870
8780.000000;0.239225
8779.000000;0.239338
8778.000000;0.239103
8777.000000;0.238584
8776.000000;0.237982
8775.000000;0.237559
8774.000000;0.237483
8773.000000;0.237699
8772.000000;0.237981
8771.000000;0.238122
8770.000000;0.238062
8769.000000;0.237860
8768.000000;0.237633
8767.000000;0.237511
8766.000000;0.237560
8765.000000;0.237696
8764.000000;0.237747
8763.000000;0.237647
8762.000000;0.237502
8761.000000;0.237422
8760.000000;0.237353
8759.000000;0.237165
8758.000000;0.236862
8757.000000;0.236585
8756.000000;0.236401
8755.000000;0.236204
8754.000000;0.235894
8753.000000;0.235582
8752.000000;0.235488
8751.000000;0.235648
8750.000000;0.235807
8749.000000;0.235674
8748.000000;0.235229
8747.000000;0.234714
8746.000000;0.234383
8745.000000;0.234304
8744.000000;0.234378
8743.000000;0.234432
8742.000000;0.234327
8741.000000;0.234039
8740.000000;0.233693
8739.000000;0.233437
8738.000000;0.233288
8737.000000;0.233169
8736.000000;0.233092
8735.000000;0.233163
8734.000000;0.233371
8733.000000;0.233491
8732.000000;0.233317
8731.000000;0.232912
8730.000000;0.232512
8729.000000;0.232215
8728.000000;0.231894
8727.000000;0.231410
8726.000000;0.230809
8725.000000;0.230295
8724.000000;0.230070
8723.000000;0.230197
8722.000000;0.230539
8721.000000;0.230825
8720.000000;0.230840
8719.000000;0.230587
8718.000000;0.230227
8717.000000;0.229888
8716.000000;0.229571
8715.000000;0.229222
8714.000000;0.228822
8713.000000;0.228391
8712.000000;0.227972
8711.000000;0.227624
8710.000000;0.227377
8709.000000;0.227185
8708.000000;0.226989
8707.000000;0.226804
8706.000000;0.226678
8705.000000;0.226560
8704.000000;0.226307
8703.000000;0.225874
8702.000000;0.225423
8701.000000;0.225171
8700.000000;0.225183
8699.000000;0.225368
8698.000000;0.225613
8697.000000;0.225819
8696.000000;0.225833
8695.000000;0.225479
8694.000000;0.224756
8693.000000;0.223923
8692.000000;0.223298
8691.000000;0.222984
8690.000000;0.222839
8689.000000;0.222688
8688.000000;0.222486
8687.000000;0.222257
8686.000000;0.221991
8685.000000;0.221661
8684.000000;0.221311
8683.000000;0.221035
8682.000000;0.220857
8681.000000;0.220719
8680.000000;0.220578
8679.000000;0.220470
8678.000000;0.220443
8677.000000;0.220459
8676.000000;0.220401
8675.000000;0.220152
8674.000000;0.219695
8673.000000;0.219139
8672.000000;0.218666
8671.000000;0.218402
8670.000000;0.218325
8669.000000;0.218308
8668.000000;0.218229
8667.000000;0.218028
8666.000000;0.217720
8665.000000;0.217403
8664.000000;0.217217
8663.000000;0.217181
8662.000000;0.217091
8661.000000;0.216707
8660.000000;0.216049
8659.000000;0.215411
8658.000000;0.215012
8657.000000;0.214786
8656.000000;0.214579
8655.000000;0.214420
8654.000000;0.214432
8653.000000;0.214548
8652.000000;0.214509
8651.000000;0.214177
8650.000000;0.213702
8649.000000;0.213319
8648.000000;0.213076
8647.000000;0.212831
8646.000000;0.212463
8645.000000;0.212006
8644.000000;0.211605
8643.000000;0.211379
8642.000000;0.211335
8641.000000;0.211361
8640.000000;0.211293
8639.000000;0.211036
8638.000000;0.210641
8637.000000;0.210267
8636.000000;0.210039
8635.000000;0.209923
8634.000000;0.209761
8633.000000;0.209421
8632.000000;0.208912
8631.000000;0.208359
8630.000000;0.207911
8629.000000;0.207684
8628.000000;0.207692
8627.000000;0.207771
8626.000000;0.207639
8625.000000;0.207160
8624.000000;0.206541
8623.000000;0.206145
8622.000000;0.206075
8621.000000;0.206076
8620.000000;0.205883
8619.000000;0.205520
8618.000000;0.205183
8617.000000;0.204929
8616.000000;0.204635
8615.000000;0.204225
8614.000000;0.203780
8613.000000;0.203424
8612.000000;0.203181
8611.000000;0.202974
8610.000000;0.202727
8609.000000;0.202436
8608.000000;0.202182
8607.000000;0.202048
8606.000000;0.202002
8605.000000;0.201885
8604.000000;0.201562
8603.000000;0.201071
8602.000000;0.200570
8601.000000;0.200168
8600.000000;0.199822
8599.000000;0.199406
8598.000000;0.198857
8597.000000;0.198294
8596.000000;0.197993
8595.000000;0.198138
8594.000000;0.198577
8593.000000;0.198881
8592.000000;0.198747
8591.000000;0.198269
8590.000000;0.197750
8589.000000;0.197345
8588.000000;0.197001
8587.000000;0.196666
8586.000000;0.196369
8585.000000;0.196108
8584.000000;0.195837
8583.000000;0.195575
8582.000000;0.195389
8581.000000;0.195220
8580.000000;0.194885
8579.000000;0.194323
8578.000000;0.193734
8577.000000;0.193374
8576.000000;0.193281
8575.000000;0.193269
8574.000000;0.193114
8573.000000;0.192695
8572.000000;0.192018
8571.000000;0.191236
8570.000000;0.190582
8569.000000;0.190208
8568.000000;0.190044
8567.000000;0.189895
8566.000000;0.189645
8565.000000;0.189337
8564.000000;0.189086
8563.000000;0.188948
8562.000000;0.188863
8561.000000;0.188675
8560.000000;0.188250
8559.000000;0.187647
8558.000000;0.187141
8557.000000;0.186979
8556.000000;0.187110
8555.000000;0.187216
8554.000000;0.187050
8553.000000;0.186659
8552.000000;0.186261
8551.000000;0.185979
8550.000000;0.185764
8549.000000;0.185501
8548.000000;0.185135
8547.000000;0.184682
8546.000000;0.184202
8545.000000;0.183781
8544.000000;0.183485
8543.000000;0.183298
8542.000000;0.183126
8541.000000;0.182875
8540.000000;0.182520
8539.000000;0.182098
8538.000000;0.181658
8537.000000;0.181240
8536.000000;0.180900
8535.000000;0.180709
8534.000000;0.180690
8533.000000;0.180755
8532.000000;0.180735
8531.000000;0.180507
8530.000000;0.180087
8529.000000;0.179601
8528.000000;0.179168
8527.000000;0.178820
8526.000000;0.178514
8525.000000;0.178183
8524.000000;0.177777
8523.000000;0.177306
8522.000000;0.176860
8521.000000;0.176561
8520.000000;0.176440
8519.000000;0.176371
8518.000000;0.176187
8517.000000;0.175829
8516.000000;0.175366
8515.000000;0.174870
8514.000000;0.174358
8513.000000;0.173857
8512.000000;0.173466
8511.000000;0.173279
8510.000000;0.173272
8509.000000;0.173311
8508.000000;0.173264
8507.000000;0.173092
8506.000000;0.172854
8505.000000;0.172627
8504.000000;0.172414
8503.000000;0.172111
8502.000000;0.171612
8501.000000;0.170957
8500.000000;0.170346
8499.000000;0.169953
8498.000000;0.169755
8497.000000;0.169588
8496.000000;0.169337
8495.000000;0.169025
8494.000000;0.168738
8493.000000;0.168519
8492.000000;0.168313
8491.000000;0.167981
8490.000000;0.167404
8489.000000;0.166654
8488.000000;0.166010
8487.000000;0.165713
8486.000000;0.165700
8485.000000;0.165675
8484.000000;0.165453
8483.000000;0.165124
8482.000000;0.164856
8481.000000;0.164642
8480.000000;0.164347
8479.000000;0.163923
8478.000000;0.163485
8477.000000;0.163167
8476.000000;0.162999
8475.000000;0.162900
8474.000000;0.162761
8473.000000;0.162505
8472.000000;0.162137
8471.000000;0.161738
8470.000000;0.161385
8469.000000;0.161058
8468.000000;0.160653
8467.000000;0.160088
8466.000000;0.159420
8465.000000;0.158828
8464.000000;0.158502
8463.000000;0.158495
8462.000000;0.158657
8461.000000;0.158716
8460.000000;0.158459
8459.000000;0.157879
8458.000000;0.157161
8457.000000;0.156547
8456.000000;0.156183
8455.000000;0.156055
8454.000000;0.156034
8453.000000;0.156001
8452.000000;0.155927
8451.000000;0.155851
8450.000000;0.155761
8449.000000;0.155554
8448.000000;0.155148
8447.000000;0.154605
8446.000000;0.154082
8445.000000;0.153687
8444.000000;0.153388
8443.000000;0.153099
8442.000000;0.152785
8441.000000;0.152482
8440.000000;0.152228
8439.000000;0.152043
8438.000000;0.151941
8437.000000;0.151910
8436.000000;0.151852
8435.000000;0.151624
8434.000000;0.151192
8433.000000;0.150716
8432.000000;0.150405
8431.000000;0.150280
8430.000000;0.150173
8429.000000;0.149956
8428.000000;0.149659
8427.000000;0.149321
8426.000000;0.148846
8425.000000;0.148142
8424.000000;0.147342
8423.000000;0.146735
8422.000000;0.146471
8421.000000;0.146440
8420.000000;0.146453
8419.000000;0.146421
8418.000000;0.146316
8417.000000;0.146088
8416.000000;0.145723
8415.000000;0.145314
8414.000000;0.144993
8413.000000;0.144805
8412.000000;0.144689
8411.000000;0.144543
8410.000000;0.144278
8409.000000;0.143861
8408.000000;0.143381
8407.000000;0.143025
8406.000000;0.142903
8405.000000;0.142913
8404.000000;0.142832
8403.000000;0.142521
8402.000000;0.142022
8401.000000;0.141472
8400.000000;0.141004
8399.000000;0.140702
8398.000000;0.140578
8397.000000;0.140548
8396.000000;0.140487
8395.000000;0.140322
8394.000000;0.140049
8393.000000;0.139689
8392.000000;0.139285
8391.000000;0.138921
8390.000000;0.138683
8389.000000;0.138551
8388.000000;0.138408
8387.000000;0.138173
8386.000000;0.137890
8385.000000;0.137650
8384.000000;0.137448
8383.000000;0.137177
8382.000000;0.136761
8381.000000;0.136268
8380.000000;0.135871
8379.000000;0.135693
8378.000000;0.135679
8377.000000;0.135626
8376.000000;0.135362
8375.000000;0.134904
8374.000000;0.134447
8373.000000;0.134151
8372.000000;0.133977
8371.000000;0.133744
8370.000000;0.133349
8369.000000;0.132895
8368.000000;0.132582
8367.000000;0.132480
8366.000000;0.132446
8365.000000;0.132276
8364.000000;0.131921
8363.000000;0.131520
8362.000000;0.131249
8361.000000;0.131151
8360.000000;0.131137
8359.000000;0.131075
8358.000000;0.130863
8357.000000;0.130449
8356.000000;0.129869
8355.000000;0.129275
8354.000000;0.128858
8353.000000;0.128686
8352.000000;0.128636
8351.000000;0.128533
8350.000000;0.128327
8349.000000;0.128097
8348.000000;0.127909
8347.000000;0.127740
8346.000000;0.127550
8345.000000;0.127334
8344.000000;0.127074
8343.000000;0.126716
8342.000000;0.126270
8341.000000;0.125882
8340.000000;0.125721
8339.000000;0.125770
8338.000000;0.125818
8337.000000;0.125679
8336.000000;0.125368
8335.000000;0.125028
8334.000000;0.124723
8333.000000;0.124383
8332.000000;0.123951
8331.000000;0.123505
8330.000000;0.123209
8329.000000;0.123149
8328.000000;0.123229
8327.000000;0.123245
8326.000000;0.123045
8325.000000;0.122642
8324.000000;0.122180
8323.000000;0.121816
8322.000000;0.121627
8321.000000;0.121571
8320.000000;0.121537
8319.000000;0.121423
8318.000000;0.121204
8317.000000;0.120922
8316.000000;0.120603
8315.000000;0.120219
8314.000000;0.119764
8313.000000;0.119318
8312.000000;0.118983
8311.000000;0.118763
8310.000000;0.118569
8309.000000;0.118350
8308.000000;0.118133
8307.000000;0.117936
8306.000000;0.117718
8305.000000;0.117448
8304.000000;0.117178
8303.000000;0.116987
8302.000000;0.116901
8301.000000;0.116895
8300.000000;0.116926
8299.000000;0.116909
8298.000000;0.116738
8297.000000;0.116394
8296.000000;0.115998
8295.000000;0.115690
8294.000000;0.115480
8293.000000;0.115271
8292.000000;0.115006
8291.000000;0.114713
8290.000000;0.114450
8289.000000;0.114274
8288.000000;0.114249
8287.000000;0.114380
8286.000000;0.114549
8285.000000;0.114572
8284.000000;0.114366
8283.000000;0.114014
8282.000000;0.113672
8281.000000;0.113454
8280.000000;0.113376
8279.000000;0.113350
8278.000000;0.113236
8277.000000;0.112979
8276.000000;0.112678
8275.000000;0.112462
8274.000000;0.112290
8273.000000;0.111998
8272.000000;0.111529
8271.000000;0.111032
8270.000000;0.110685
8269.000000;0.110502
8268.000000;0.110387
8267.000000;0.110278
8266.000000;0.110182
8265.000000;0.110109
8264.000000;0.110065
8263.000000;0.110045
8262.000000;0.109986
8261.000000;0.109767
8260.000000;0.109345
8259.000000;0.108875
8258.000000;0.108603
8257.000000;0.108631
8256.000000;0.108817
8255.000000;0.108939
8254.000000;0.108884
8253.000000;0.108700
8252.000000;0.108507
8251.000000;0.108380
8250.000000;0.108298
8249.000000;0.108162
8248.000000;0.107886
8247.000000;0.107465
8246.000000;0.106965
8245.000000;0.106468
8244.000000;0.106045
8243.000000;0.105752
8242.000000;0.105607
8241.000000;0.105568
8240.000000;0.105559
8239.000000;0.105517
8238.000000;0.105418
8237.000000;0.105271
8236.000000;0.105111
8235.000000;0.104987
8234.000000;0.104921
8233.000000;0.104891
8232.000000;0.104859
8231.000000;0.104808
8230.000000;0.104713
8229.000000;0.104537
8228.000000;0.104299
8227.000000;0.104109
8226.000000;0.104056
8225.000000;0.104074
8224.000000;0.104004
8223.000000;0.103803
8222.000000;0.103605
8221.000000;0.103517
8220.000000;0.103452
8219.000000;0.103233
8218.000000;0.102831
8217.000000;0.102403
8216.000000;0.102124
8215.000000;0.102032
8214.000000;0.102056
8213.000000;0.102100
8212.000000;0.102098
8211.000000;0.102024
8210.000000;0.101888
8209.000000;0.101701
8208.000000;0.101444
8207.000000;0.101111
8206.000000;0.100774
8205.000000;0.100534
8204.000000;0.100401
8203.000000;0.100283
8202.000000;0.100125
8201.000000;0.099976
8200.000000;0.099899
8199.000000;0.099874
8198.000000;0.099864
8197.000000;0.099921
8196.000000;0.100114
8195.000000;0.100388
8194.000000;0.100574
8193.000000;0.100551
8192.000000;0.100321
8191.000000;0.099941
8190.000000;0.099465
8189.000000;0.098985
8188.000000;0.098641
8187.000000;0.098512
8186.000000;0.098531
8185.000000;0.098556
8184.000000;0.098510
8183.000000;0.098417
8182.000000;0.098339
8181.000000;0.098315
8180.000000;0.098330
8179.000000;0.098336
8178.000000;0.098286
8177.000000;0.098184
8176.000000;0.098078
8175.000000;0.097992
8174.000000;0.097878
8173.000000;0.097665
8172.000000;0.097358
8171.000000;0.097056
8170.000000;0.096864
8169.000000;0.096791
8168.000000;0.096724
8167.000000;0.096551
8166.000000;0.096288
8165.000000;0.096074
8164.000000;0.095988
8163.000000;0.095937
8162.000000;0.095781
8161.000000;0.095533
8160.000000;0.095354
8159.000000;0.095324
8158.000000;0.095329
8157.000000;0.095221
8156.000000;0.095005
8155.000000;0.094825
8154.000000;0.094790
8153.000000;0.094888
8152.000000;0.095027
8151.000000;0.095118
8150.000000;0.095113
8149.000000;0.095028
8148.000000;0.094911
8147.000000;0.094785
8146.000000;0.094631
8145.000000;0.094447
8144.000000;0.094281
8143.000000;0.094168
8142.000000;0.094074
8141.000000;0.093941
8140.000000;0.093773
8139.000000;0.093626
8138.000000;0.093510
8137.000000;0.093361
8136.000000;0.093114
8135.000000;0.092795
8134.000000;0.092524
8133.000000;0.092423
8132.000000;0.092509
8131.000000;0.092669
8130.000000;0.092754
8129.000000;0.092706
8128.000000;0.092580
8127.000000;0.092450
8126.000000;0.092335
8125.000000;0.092218
8124.000000;0.092090
8123.000000;0.091947
8122.000000;0.091788
8121.000000;0.091648
8120.000000;0.091577
8119.000000;0.091578
8118.000000;0.091585
8117.000000;0.091539
8116.000000;0.091446
8115.000000;0.091334
8114.000000;0.091209
8113.000000;0.091088
8112.000000;0.091020
8111.000000;0.091030
8110.000000;0.091048
8109.000000;0.090972
8108.000000;0.090785
8107.000000;0.090565
8106.000000;0.090408
8105.000000;0.090359
8104.000000;0.090394
8103.000000;0.090441
8102.000000;0.090428
8101.000000;0.090360
8100.000000;0.090325
8099.000000;0.090381
8098.000000;0.090476
8097.000000;0.090511
8096.000000;0.090468
8095.000000;0.090415
8094.000000;0.090413
8093.000000;0.090459
8092.000000;0.090499
8091.000000;0.090469
8090.000000;0.090327
8089.000000;0.090090
8088.000000;0.089849
8087.000000;0.089709
8086.000000;0.089707
8085.000000;0.089795
8084.000000;0.089863
8083.000000;0.089801
8082.000000;0.089578
8081.000000;0.089309
8080.000000;0.089178
8079.000000;0.089248
8078.000000;0.089387
8077.000000;0.089425
8076.000000;0.089352
8075.000000;0.089295
8074.000000;0.089326
8073.000000;0.089377
8072.000000;0.089343
8071.000000;0.089192
8070.000000;0.088970
8069.000000;0.088740
8068.000000;0.088532
8067.000000;0.088341
8066.000000;0.088168
8065.000000;0.088056
8064.000000;0.088053
8063.000000;0.088116
8062.000000;0.088116
8061.000000;0.087983
8060.000000;0.087818
8059.000000;0.087781
8058.000000;0.087906
8057.000000;0.088077
8056.000000;0.088179
8055.000000;0.088195
8054.000000;0.088184
8053.000000;0.088201
8052.000000;0.088245
8051.000000;0.088254
8050.000000;0.088173
8049.000000;0.088035
8048.000000;0.087946
8047.000000;0.087948
8046.000000;0.087940
8045.000000;0.087803
8044.000000;0.087553
8043.000000;0.087318
8042.000000;0.087188
8041.000000;0.087167
8040.000000;0.087226
8039.000000;0.087327
8038.000000;0.087398
8037.000000;0.087370
8036.000000;0.087262
8035.000000;0.087168
8034.000000;0.087153
8033.000000;0.087204
8032.000000;0.087275
8031.000000;0.087323
8030.000000;0.087300
8029.000000;0.087187
8028.000000;0.087025
8027.000000;0.086879
8026.000000;0.086785
8025.000000;0.086759
8024.000000;0.086816
8023.000000;0.086932
8022.000000;0.087004
8021.000000;0.086953
8020.000000;0.086839
8019.000000;0.086800
8018.000000;0.086888
8017.000000;0.087024
8016.000000;0.087130
8015.000000;0.087191
8014.000000;0.087192
8013.000000;0.087083
8012.000000;0.086857
8011.000000;0.086578
8010.000000;0.086328
8009.000000;0.086158
8008.000000;0.086100
8007.000000;0.086151
8006.000000;0.086233
8005.000000;0.086224
8004.000000;0.086075
8003.000000;0.085848
8002.000000;0.085624
8001.000000;0.085448
8000.000000;0.085345
7999.000000;0.085331
7998.000000;0.085370
7997.000000;0.085390
7996.000000;0.085372
7995.000000;0.085373
7994.000000;0.085444
7993.000000;0.085556
7992.000000;0.085645
7991.000000;0.085662
7990.000000;0.085582
7989.000000;0.085426
7988.000000;0.085282
7987.000000;0.085258
7986.000000;0.085359
7985.000000;0.085465
7984.000000;0.085484
7983.000000;0.085449
7982.000000;0.085452
7981.000000;0.085517
7980.000000;0.085594
7979.000000;0.085639
7978.000000;0.085648
7977.000000;0.085623
7976.000000;0.085565
7975.000000;0.085492
7974.000000;0.085437
7973.000000;0.085407
7972.000000;0.085376
7971.000000;0.085313
7970.000000;0.085216
7969.000000;0.085118
7968.000000;0.085048
7967.000000;0.084992
7966.000000;0.084908
7965.000000;0.084785
7964.000000;0.084668
7963.000000;0.084599
7962.000000;0.084563
7961.000000;0.084520
7960.000000;0.084462
7959.000000;0.084396
7958.000000;0.084303
7957.000000;0.084170
7956.000000;0.084024
7955.000000;0.083894
7954.000000;0.083770
7953.000000;0.083673
7952.000000;0.083704
7951.000000;0.083939
7950.000000;0.084285
7949.000000;0.084547
7948.000000;0.084632
7947.000000;0.084605
7946.000000;0.084531
7945.000000;0.084385
7944.000000;0.084148
7943.000000;0.083904
7942.000000;0.083757
7941.000000;0.083714
7940.000000;0.083695
7939.000000;0.083624
7938.000000;0.083510
7937.000000;0.083448
7936.000000;0.083550
7935.000000;0.083807
7934.000000;0.084026
7933.000000;0.083990
7932.000000;0.083698
7931.000000;0.083374
7930.000000;0.083209
7929.000000;0.083174
7928.000000;0.083129
7927.000000;0.083015
7926.000000;0.082893
7925.000000;0.082847
7924.000000;0.082921
7923.000000;0.083104
7922.000000;0.083324
7921.000000;0.083478
7920.000000;0.083526
7919.000000;0.083502
7918.000000;0.083426
7917.000000;0.083273
7916.000000;0.083057
7915.000000;0.082885
7914.000000;0.082852
7913.000000;0.082922
7912.000000;0.082985
7911.000000;0.083015
7910.000000;0.083074
7909.000000;0.083183
7908.000000;0.083266
7907.000000;0.083232
7906.000000;0.083073
7905.000000;0.082876
7904.000000;0.082749
7903.000000;0.082749
7902.000000;0.082834
7901.000000;0.082910
7900.000000;0.082925
7899.000000;0.082905
7898.000000;0.082891
7897.000000;0.082874
7896.000000;0.082820
7895.000000;0.082726
7894.000000;0.082619
7893.000000;0.082529
7892.000000;0.082488
7891.000000;0.082518
7890.000000;0.082599
7889.000000;0.082670
7888.000000;0.082694
7887.000000;0.082694
7886.000000;0.082686
7885.000000;0.082624
7884.000000;0.082457
7883.000000;0.082220
7882.000000;0.082006
7881.000000;0.081861
7880.000000;0.081769
7879.000000;0.081734
7878.000000;0.081795
7877.000000;0.081950
7876.000000;0.082101
7875.000000;0.082137
7874.000000;0.082042
7873.000000;0.081909
7872.000000;0.081851
7871.000000;0.081903
7870.000000;0.082008
7869.000000;0.082059
7868.000000;0.081996
7867.000000;0.081856
7866.000000;0.081739
7865.000000;0.081706
7864.000000;0.081726
7863.000000;0.081731
7862.000000;0.081703
7861.000000;0.081685
7860.000000;0.081718
7859.000000;0.081794
7858.000000;0.081888
7857.000000;0.081987
7856.000000;0.082072
7855.000000;0.082091
7854.000000;0.082014
7853.000000;0.081914
7852.000000;0.081919
7851.000000;0.082055
7850.000000;0.082199
7849.000000;0.082212
7848.000000;0.082099
7847.000000;0.081975
7846.000000;0.081917
7845.000000;0.081905
7844.000000;0.081891
7843.000000;0.081856
7842.000000;0.081805
7841.000000;0.081746
7840.000000;0.081677
7839.000000;0.081581
7838.000000;0.081433
7837.000000;0.081265
7836.000000;0.081180
7835.000000;0.081247
7834.000000;0.081411
7833.000000;0.081555
7832.000000;0.081649
7831.000000;0.081735
7830.000000;0.081800
7829.000000;0.081749
7828.000000;0.081555
7827.000000;0.081322
7826.000000;0.081163
7825.000000;0.081075
7824.000000;0.081001
7823.000000;0.080947
7822.000000;0.080967
7821.000000;0.081054
7820.000000;0.081131
7819.000000;0.081123
7818.000000;0.081018
7817.000000;0.080854
7816.000000;0.080693
7815.000000;0.080586
7814.000000;0.080539
7813.000000;0.080503
7812.000000;0.080434
7811.000000;0.080346
7810.000000;0.080303
7809.000000;0.080346
7808.000000;0.080461
7807.000000;0.080596
7806.000000;0.080697
7805.000000;0.080737
7804.000000;0.080713
7803.000000;0.080631
7802.000000;0.080505
7801.000000;0.080378
7800.000000;0.080322
7799.000000;0.080364
7798.000000;0.080436
7797.000000;0.080431
7796.000000;0.080328
7795.000000;0.080217
7794.000000;0.080184
7793.000000;0.080221
7792.000000;0.080271
7791.000000;0.080290
7790.000000;0.080259
7789.000000;0.080162
7788.000000;0.080015
7787.000000;0.079874
7786.000000;0.079786
7785.000000;0.079743
7784.000000;0.079722
7783.000000;0.079724
7782.000000;0.079750
7781.000000;0.079760
7780.000000;0.079723
7779.000000;0.079679
7778.000000;0.079712
7777.000000;0.079846
7776.000000;0.080006
7775.000000;0.080096
7774.000000;0.080085
7773.000000;0.080021
7772.000000;0.079976
7771.000000;0.079976
7770.000000;0.079987
7769.000000;0.079959
7768.000000;0.079886
7767.000000;0.079817
7766.000000;0.079798
7765.000000;0.079827
7764.000000;0.079872
7763.000000;0.079909
7762.000000;0.079939
7761.000000;0.079975
7760.000000;0.080031
7759.000000;0.080100
7758.000000;0.080154
7757.000000;0.080170
7756.000000;0.080163
7755.000000;0.080173
7754.000000;0.080193
7753.000000;0.080160
7752.000000;0.080029
7751.000000;0.079850
7750.000000;0.079741
7749.000000;0.079785
7748.000000;0.079939
7747.000000;0.080076
7746.000000;0.080077
7745.000000;0.079912
7744.000000;0.079642
7743.000000;0.079364
7742.000000;0.079160
7741.000000;0.079076
7740.000000;0.079107
7739.000000;0.079192
7738.000000;0.079266
7737.000000;0.079321
7736.000000;0.079385
7735.000000;0.079441
7734.000000;0.079410
7733.000000;0.079253
7732.000000;0.079057
7731.000000;0.078954
7730.000000;0.078988
7729.000000;0.079106
7728.000000;0.079258
7727.000000;0.079431
7726.000000;0.079590
7725.000000;0.079674
7724.000000;0.079658
7723.000000;0.079578
7722.000000;0.079475
7721.000000;0.079357
7720.000000;0.079236
7719.000000;0.079144
7718.000000;0.079087
7717.000000;0.079044
7716.000000;0.079008
7715.000000;0.078996
7714.000000;0.079004
7713.000000;0.078996
7712.000000;0.078955
7711.000000;0.078893
7710.000000;0.078807
7709.000000;0.078672
7708.000000;0.078508
7707.000000;0.078401
7706.000000;0.078414
7705.000000;0.078527
7704.000000;0.078674
7703.000000;0.078810
7702.000000;0.078899
7701.000000;0.078895
7700.000000;0.078794
7699.000000;0.078668
7698.000000;0.078602
7697.000000;0.078595
7696.000000;0.078573
7695.000000;0.078486
7694.000000;0.078380
7693.000000;0.078342
7692.000000;0.078398
7691.000000;0.078468
7690.000000;0.078429
7689.000000;0.078263
7688.000000;0.078093
7687.000000;0.078058
7686.000000;0.078151
7685.000000;0.078252
7684.000000;0.078280
7683.000000;0.078265
7682.000000;0.078253
7681.000000;0.078238
7680.000000;0.078205
7679.000000;0.078171
7678.000000;0.078138
7677.000000;0.078071
7676.000000;0.077964
7675.000000;0.077870
7674.000000;0.077819
7673.000000;0.077754
7672.000000;0.077620
7671.000000;0.077465
7670.000000;0.077389
7669.000000;0.077426
7668.000000;0.077525
7667.000000;0.077639
7666.000000;0.077761
7665.000000;0.077888
7664.000000;0.077996
7663.000000;0.078052
7662.000000;0.078031
7661.000000;0.077929
7660.000000;0.077789
7659.000000;0.077690
7658.000000;0.077686
7657.000000;0.077748
7656.000000;0.077796
7655.000000;0.077778
7654.000000;0.077687
7653.000000;0.077549
7652.000000;0.077412
7651.000000;0.077342
7650.000000;0.077380
7649.000000;0.077495
7648.000000;0.077611
7647.000000;0.077676
7646.000000;0.077689
7645.000000;0.077682
7644.000000;0.077683
7643.000000;0.077695
7642.000000;0.077701
7641.000000;0.077681
7640.000000;0.077636
7639.000000;0.077563
7638.000000;0.077435
7637.000000;0.077238
7636.000000;0.077035
7635.000000;0.076930
7634.000000;0.076952
7633.000000;0.077019
7632.000000;0.077030
7631.000000;0.076972
7630.000000;0.076890
7629.000000;0.076816
7628.000000;0.076762
7627.000000;0.076742
7626.000000;0.076751
7625.000000;0.076762
7624.000000;0.076771
7623.000000;0.076814
7622.000000;0.076898
7621.000000;0.076952
7620.000000;0.076909
7619.000000;0.076799
7618.000000;0.076717
7617.000000;0.076709
7616.000000;0.076731
7615.000000;0.076727
7614.000000;0.076693
7613.000000;0.076672
7612.000000;0.076722
7611.000000;0.076873
7610.000000;0.077083
7609.000000;0.077232
7608.000000;0.077212
7607.000000;0.077016
7606.000000;0.076744
7605.000000;0.076524
7604.000000;0.076437
7603.000000;0.076476
7602.000000;0.076559
7601.000000;0.076594
7600.000000;0.076575
7599.000000;0.076573
7598.000000;0.076630
7597.000000;0.076698
7596.000000;0.076721
7595.000000;0.076724
7594.000000;0.076749
7593.000000;0.076763
7592.000000;0.076691
7591.000000;0.076538
7590.000000;0.076393
7589.000000;0.076318
7588.000000;0.076291
7587.000000;0.076263
7586.000000;0.076221
7585.000000;0.076164
7584.000000;0.076081
7583.000000;0.075979
7582.000000;0.075894
7581.000000;0.075857
7580.000000;0.075861
7579.000000;0.075875
7578.000000;0.075866
7577.000000;0.075819
7576.000000;0.075752
7575.000000;0.075718
7574.000000;0.075766
7573.000000;0.075882
7572.000000;0.075987
7571.000000;0.076004
7570.000000;0.075923
7569.000000;0.075795
7568.000000;0.075676
7567.000000;0.075584
7566.000000;0.075513
7565.000000;0.075487
7564.000000;0.075556
7563.000000;0.075721
7562.000000;0.075877
7561.000000;0.075880
7560.000000;0.075705
7559.000000;0.075470
7558.000000;0.075315
7557.000000;0.075280
7556.000000;0.075322
7555.000000;0.075410
7554.000000;0.075530
7553.000000;0.075648
7552.000000;0.075715
7551.000000;0.075717
7550.000000;0.075693
7549.000000;0.075677
7548.000000;0.075670
7547.000000;0.075652
7546.000000;0.075603
7545.000000;0.075520
7544.000000;0.075412
7543.000000;0.075290
7542.000000;0.075155
7541.000000;0.075025
7540.000000;0.074950
7539.000000;0.074977
7538.000000;0.075079
7537.000000;0.075166
7536.000000;0.075194
7535.000000;0.075202
7534.000000;0.075233
7533.000000;0.075264
7532.000000;0.075261
7531.000000;0.075232
7530.000000;0.075204
7529.000000;0.075157
7528.000000;0.075068
7527.000000;0.074963
7526.000000;0.074902
7525.000000;0.074914
7524.000000;0.074994
7523.000000;0.075124
7522.000000;0.075261
7521.000000;0.075337
7520.000000;0.075321
7519.000000;0.075239
7518.000000;0.075115
7517.000000;0.074932
7516.000000;0.074708
7515.000000;0.074544
7514.000000;0.074518
7513.000000;0.074571
7512.000000;0.074577
7511.000000;0.074507
7510.000000;0.074439
7509.000000;0.074432
7508.000000;0.074471
7507.000000;0.074515
7506.000000;0.074535
7505.000000;0.074503
7504.000000;0.074441
7503.000000;0.074356
7502.000000;0.074339
7501.000000;0.074375
7500.000000;0.074401
7499.000000;0.074408
7498.000000;0.074440
7497.000000;0.074483
7496.000000;0.074458
7495.000000;0.074338
7494.000000;0.074206
7493.000000;0.074160
7492.000000;0.074211
7491.000000;0.074305
7490.000000;0.074375
7489.000000;0.074367
7488.000000;0.074265
7487.000000;0.074131
7486.000000;0.074059
7485.000000;0.074076
7484.000000;0.074116
7483.000000;0.074107
7482.000000;0.074044
7481.000000;0.073964
7480.000000;0.073894
7479.000000;0.073860
7478.000000;0.073872
7477.000000;0.073906
7476.000000;0.073915
7475.000000;0.073880
7474.000000;0.073829
7473.000000;0.073787
7472.000000;0.073751
7471.000000;0.073732
7470.000000;0.073751
7469.000000;0.073791
7468.000000;0.073780
7467.000000;0.073657
7466.000000;0.073448
7465.000000;0.073264
7464.000000;0.073212
7463.000000;0.073300
7462.000000;0.073429
7461.000000;0.073488
7460.000000;0.073467
7459.000000;0.073440
7458.000000;0.073450
7457.000000;0.073452
7456.000000;0.073396
7455.000000;0.073315
7454.000000;0.073257
7453.000000;0.073191
7452.000000;0.073058
7451.000000;0.072883
7450.000000;0.072771
7449.000000;0.072783
7448.000000;0.072886
7447.000000;0.073004
7446.000000;0.073074
7445.000000;0.073060
7444.000000;0.072989
7443.000000;0.072944
7442.000000;0.072972
7441.000000;0.073019
7440.000000;0.073025
7439.000000;0.073028
7438.000000;0.073085
7437.000000;0.073140
7436.000000;0.073082
7435.000000;0.072909
7434.000000;0.072738
7433.000000;0.072648
7432.000000;0.072609
7431.000000;0.072581
7430.000000;0.072581
7429.000000;0.072629
7428.000000;0.072708
7427.000000;0.072810
7426.000000;0.072926
7425.000000;0.072983
7424.000000;0.072892
7423.000000;0.072715
7422.000000;0.072658
7421.000000;0.072838
7420.000000;0.073148
7419.000000;0.073390
7418.000000;0.073457
7417.000000;0.073358
7416.000000;0.073151
7415.000000;0.072913
7414.000000;0.072726
7413.000000;0.072631
7412.000000;0.072611
7411.000000;0.072595
7410.000000;0.072498
7409.000000;0.072291
7408.000000;0.072132
7407.000000;0.072305
7406.000000;0.072882
7405.000000;0.073530
7404.000000;0.073801
7403.000000;0.073579
7402.000000;0.073127
7401.000000;0.072794
7400.000000;0.072789
7399.000000;0.073128
7398.000000;0.073654
7397.000000;0.074155
7396.000000;0.074526
7395.000000;0.074767
7394.000000;0.074796
7393.000000;0.074459
7392.000000;0.073862
7391.000000;0.073487
7390.000000;0.073730
7389.000000;0.074387
7388.000000;0.074862
7387.000000;0.074837
7386.000000;0.074536
7385.000000;0.074393
7384.000000;0.074771
7383.000000;0.075906
7382.000000;0.077600
7381.000000;0.078880
7380.000000;0.078611
7379.000000;0.076872
7378.000000;0.075271
7377.000000;0.075385
7376.000000;0.077084
7375.000000;0.078716
7374.000000;0.078783
7373.000000;0.077179
7372.000000;0.075042
7371.000000;0.073789
7370.000000;0.074152
7369.000000;0.075668
7368.000000;0.077018
7367.000000;0.077136
7366.000000;0.076116
7365.000000;0.074940
7364.000000;0.074511
7363.000000;0.075158
7362.000000;0.076591
7361.000000;0.077860
7360.000000;0.077796
7359.000000;0.076254
7358.000000;0.074736
7357.000000;0.075010
7356.000000;0.077142
7355.000000;0.079424
7354.000000;0.080266
7353.000000;0.079567
7352.000000;0.078379
7351.000000;0.077961
7350.000000;0.079136
7349.000000;0.081723
7348.000000;0.084401
7347.000000;0.085757
7346.000000;0.085584
7345.000000;0.084705
7344.000000;0.083684
7343.000000;0.082602
7342.000000;0.081910
7341.000000;0.082214
7340.000000;0.082875
7339.000000;0.082180
7338.000000;0.079628
7337.000000;0.076924
7336.000000;0.075968
7335.000000;0.076818
7334.000000;0.078179
7333.000000;0.079009
7332.000000;0.079103
7331.000000;0.078918
7330.000000;0.079396
7329.000000;0.081133
7328.000000;0.083138
7327.000000;0.083353
7326.000000;0.081028
7325.000000;0.077818
7324.000000;0.075764
7323.000000;0.075022
7322.000000;0.074436
7321.000000;0.073607
7320.000000;0.073204
7319.000000;0.073597
7318.000000;0.074379
7317.000000;0.075196
7316.000000;0.076070
7315.000000;0.077019
7314.000000;0.078105
7313.000000;0.079536
7312.000000;0.080954
7311.000000;0.081152
7310.000000;0.079532
7309.000000;0.077558
7308.000000;0.077429
7307.000000;0.079259
7306.000000;0.080755
7305.000000;0.079996
7304.000000;0.077566
7303.000000;0.075510
7302.000000;0.075195
7301.000000;0.076617
7300.000000;0.078716
7299.000000;0.079833
7298.000000;0.078793
7297.000000;0.076346
7296.000000;0.074813
7295.000000;0.075548
7294.000000;0.077317
7293.000000;0.077800
7292.000000;0.076258
7291.000000;0.074014
7290.000000;0.072651
7289.000000;0.072546
7288.000000;0.073017
7287.000000;0.073210
7286.000000;0.072719
7285.000000;0.071751
7284.000000;0.070929
7283.000000;0.070720
7282.000000;0.071012
7281.000000;0.071371
7280.000000;0.071533
7279.000000;0.071507
7278.000000;0.071364
7277.000000;0.071192
7276.000000;0.071167
7275.000000;0.071442
7274.000000;0.071904
7273.000000;0.072223
7272.000000;0.072203
7271.000000;0.071991
7270.000000;0.071939
7269.000000;0.072264
7268.000000;0.072798
7267.000000;0.073080
7266.000000;0.072815
7265.000000;0.072302
7264.000000;0.072225
7263.000000;0.072919
7262.000000;0.073948
7261.000000;0.074576
7260.000000;0.074536
7259.000000;0.074086
7258.000000;0.073524
7257.000000;0.073020
7256.000000;0.072794
7255.000000;0.073085
7254.000000;0.073870
7253.000000;0.074916
7252.000000;0.076101
7251.000000;0.077520
7250.000000;0.079225
7249.000000;0.080861
7248.000000;0.081663
7247.000000;0.081108
7246.000000;0.079756
7245.000000;0.079176
7244.000000;0.080515
7243.000000;0.083099
7242.000000;0.084942
7241.000000;0.084857
7240.000000;0.083631
7239.000000;0.082744
7238.000000;0.082482
7237.000000;0.081970
7236.000000;0.080844
7235.000000;0.080191
7234.000000;0.081438
7233.000000;0.084472
7232.000000;0.087123
7231.000000;0.086933
7230.000000;0.083641
7229.000000;0.079533
7228.000000;0.077221
7227.000000;0.077330
7226.000000;0.078359
7225.000000;0.078468
7224.000000;0.077174
7223.000000;0.075497
7222.000000;0.074808
7221.000000;0.075577
7220.000000;0.077011
7219.000000;0.077773
7218.000000;0.077138
7217.000000;0.075551
7216.000000;0.074079
7215.000000;0.073416
7214.000000;0.073515
7213.000000;0.074045
7212.000000;0.074782
7211.000000;0.075463
7210.000000;0.075689
7209.000000;0.075297
7208.000000;0.074700
7207.000000;0.074613
7206.000000;0.075379
7205.000000;0.076607
7204.000000;0.077442
7203.000000;0.077238
7202.000000;0.076037
7201.000000;0.074467
7200.000000;0.073177
7199.000000;0.072341
7198.000000;0.071764
7197.000000;0.071371
7196.000000;0.071293
7195.000000;0.071463
7194.000000;0.071445
7193.000000;0.071002
7192.000000;0.070618
7191.000000;0.071096
7190.000000;0.072674
7189.000000;0.074817
7188.000000;0.076731
7187.000000;0.077746
7186.000000;0.077455
7185.000000;0.076098
7184.000000;0.074813
7183.000000;0.074848
7182.000000;0.076170
7181.000000;0.077235
7180.000000;0.076580
7179.000000;0.074392
7178.000000;0.072169
7177.000000;0.071154
7176.000000;0.071481
7175.000000;0.072547
7174.000000;0.073589
7173.000000;0.074057
7172.000000;0.074000
7171.000000;0.074199
7170.000000;0.075476
7169.000000;0.077762
7168.000000;0.080095
7167.000000;0.081365
7166.000000;0.080942
7165.000000;0.078938
7164.000000;0.076310
7163.000000;0.074518
7162.000000;0.074387
7161.000000;0.075158
7160.000000;0.075175
7159.000000;0.073691
7158.000000;0.071520
7157.000000;0.069830
7156.000000;0.068956
7155.000000;0.068620
7154.000000;0.068691
7153.000000;0.069268
7152.000000;0.070193
7151.000000;0.070924
7150.000000;0.071043
7149.000000;0.070783
7148.000000;0.070898
7147.000000;0.071997
7146.000000;0.073938
7145.000000;0.075776
7144.000000;0.076444
7143.000000;0.075722
7142.000000;0.074541
7141.000000;0.074085
7140.000000;0.074517
7139.000000;0.074821
7138.000000;0.074024
7137.000000;0.072322
7136.000000;0.070727
7135.000000;0.069842
7134.000000;0.069354
7133.000000;0.068724
7132.000000;0.067948
7131.000000;0.067387
7130.000000;0.067162
7129.000000;0.067107
7128.000000;0.067183
7127.000000;0.067613
7126.000000;0.068586
7125.000000;0.070030
7124.000000;0.071591
7123.000000;0.072673
7122.000000;0.072692
7121.000000;0.071695
7120.000000;0.070707
7119.000000;0.070918
7118.000000;0.072286
7117.000000;0.073334
7116.000000;0.072716
7115.000000;0.070720
7114.000000;0.068837
7113.000000;0.068085
7112.000000;0.068236
7111.000000;0.068526
7110.000000;0.068566
7109.000000;0.068461
7108.000000;0.068464
7107.000000;0.068693
7106.000000;0.069007
7105.000000;0.069113
7104.000000;0.068888
7103.000000;0.068577
7102.000000;0.068544
7101.000000;0.068786
7100.000000;0.068857
7099.000000;0.068424
7098.000000;0.067784
7097.000000;0.067622
7096.000000;0.068230
7095.000000;0.069124
7094.000000;0.069484
7093.000000;0.068912
7092.000000;0.067703
7091.000000;0.066472
7090.000000;0.065646
7089.000000;0.065300
7088.000000;0.065323
7087.000000;0.065546
7086.000000;0.065744
7085.000000;0.065707
7084.000000;0.065405
7083.000000;0.065041
7082.000000;0.064890
7081.000000;0.065038
7080.000000;0.065312
7079.000000;0.065504
7078.000000;0.065609
7077.000000;0.065737
7076.000000;0.065885
7075.000000;0.065942
7074.000000;0.065936
7073.000000;0.066076
7072.000000;0.066465
7071.000000;0.066886
7070.000000;0.066978
7069.000000;0.066585
7068.000000;0.065882
7067.000000;0.065162
7066.000000;0.064603
7065.000000;0.064224
7064.000000;0.063966
7063.000000;0.063751
7062.000000;0.063551
7061.000000;0.063434
7060.000000;0.063437
7059.000000;0.063452
7058.000000;0.063345
7057.000000;0.063160
7056.000000;0.063121
7055.000000;0.063385
7054.000000;0.063832
7053.000000;0.064139
7052.000000;0.064072
7051.000000;0.063706
7050.000000;0.063374
7049.000000;0.063377
7048.000000;0.063712
7047.000000;0.064071
7046.000000;0.064145
7045.000000;0.063913
7044.000000;0.063590
7043.000000;0.063322
7042.000000;0.063071
7041.000000;0.062780
7040.000000;0.062496
7039.000000;0.062274
7038.000000;0.062084
7037.000000;0.061892
7036.000000;0.061736
7035.000000;0.061659
7034.000000;0.061607
7033.000000;0.061510
7032.000000;0.061402
7031.000000;0.061383
7030.000000;0.061481
7029.000000;0.061611
7028.000000;0.061677
7027.000000;0.061644
7026.000000;0.061556
7025.000000;0.061517
7024.000000;0.061604
7023.000000;0.061756
7022.000000;0.061776
7021.000000;0.061528
7020.000000;0.061102
7019.000000;0.060730
7018.000000;0.060553
7017.000000;0.060527
7016.000000;0.060532
7015.000000;0.060496
7014.000000;0.060407
7013.000000;0.060299
7012.000000;0.060215
7011.000000;0.060157
7010.000000;0.060086
7009.000000;0.059983
7008.000000;0.059901
7007.000000;0.059874
7006.000000;0.059851
7005.000000;0.059766
7004.000000;0.059656
7003.000000;0.059620
7002.000000;0.059671
7001.000000;0.059724
7000.000000;0.059716
6999.000000;0.059648
6998.000000;0.059524
6997.000000;0.059342
6996.000000;0.059160
6995.000000;0.059082
6994.000000;0.059129
6993.000000;0.059190
6992.000000;0.059153
6991.000000;0.059048
6990.000000;0.059000
6989.000000;0.059072
6988.000000;0.059220
6987.000000;0.059348
6986.000000;0.059356
6985.000000;0.059198
6984.000000;0.058926
6983.000000;0.058680
6982.000000;0.058568
6981.000000;0.058556
6980.000000;0.058518
6979.000000;0.058382
6978.000000;0.058202
6977.000000;0.058060
6976.000000;0.057970
6975.000000;0.057913
6974.000000;0.057929
6973.000000;0.058080
6972.000000;0.058301
6971.000000;0.058402
6970.000000;0.058247
6969.000000;0.057903
6968.000000;0.057554
6967.000000;0.057302
6966.000000;0.057128
6965.000000;0.057022
6964.000000;0.057027
6963.000000;0.057127
6962.000000;0.057205
6961.000000;0.057163
6960.000000;0.057014
6959.000000;0.056836
6958.000000;0.056700
6957.000000;0.056657
6956.000000;0.056724
6955.000000;0.056810
6954.000000;0.056761
6953.000000;0.056517
6952.000000;0.056186
6951.000000;0.055915
6950.000000;0.055763
6949.000000;0.055730
6948.000000;0.055819
6947.000000;0.056002
6946.000000;0.056164
6945.000000;0.056196
6944.000000;0.056108
6943.000000;0.055974
6942.000000;0.055807
6941.000000;0.055604
6940.000000;0.055452
6939.000000;0.055463
6938.000000;0.055600
6937.000000;0.055676
6936.000000;0.055543
6935.000000;0.055218
6934.000000;0.054834
6933.000000;0.054541
6932.000000;0.054428
6931.000000;0.054478
6930.000000;0.054547
6929.000000;0.054469
6928.000000;0.054221
6927.000000;0.053958
6926.000000;0.053857
6925.000000;0.053973
6924.000000;0.054242
6923.000000;0.054533
6922.000000;0.054681
6921.000000;0.054603
6920.000000;0.054416
6919.000000;0.054368
6918.000000;0.054561
6917.000000;0.054804
6916.000000;0.054807
6915.000000;0.054473
6914.000000;0.053967
6913.000000;0.053528
6912.000000;0.053272
6911.000000;0.053162
6910.000000;0.053095
6909.000000;0.052992
6908.000000;0.052853
6907.000000;0.052737
6906.000000;0.052670
6905.000000;0.052614
6904.000000;0.052537
6903.000000;0.052485
6902.000000;0.052527
6901.000000;0.052662
6900.000000;0.052809
6899.000000;0.052881
6898.000000;0.052851
6897.000000;0.052755
6896.000000;0.052668
6895.000000;0.052657
6894.000000;0.052712
6893.000000;0.052746
6892.000000;0.052673
6891.000000;0.052473
6890.000000;0.052203
6889.000000;0.051947
6888.000000;0.051765
6887.000000;0.051667
6886.000000;0.051619
6885.000000;0.051584
6884.000000;0.051564
6883.000000;0.051566
6882.000000;0.051552
6881.000000;0.051463
6880.000000;0.051299
6879.000000;0.051147
6878.000000;0.051088
6877.000000;0.051107
6876.000000;0.051100
6875.000000;0.050984
6874.000000;0.050779
6873.000000;0.050605
6872.000000;0.050570
6871.000000;0.050654
6870.000000;0.050726
6869.000000;0.050675
6868.000000;0.050507
6867.000000;0.050304
6866.000000;0.050131
6865.000000;0.050007
6864.000000;0.049937
6863.000000;0.049916
6862.000000;0.049905
6861.000000;0.049867
6860.000000;0.049800
6859.000000;0.049727
6858.000000;0.049666
6857.000000;0.049628
6856.000000;0.049628
6855.000000;0.049652
6854.000000;0.049634
6853.000000;0.049517
6852.000000;0.049341
6851.000000;0.049218
6850.000000;0.049208
6849.000000;0.049253
6848.000000;0.049249
6847.000000;0.049149
6846.000000;0.048996
6845.000000;0.048869
6844.000000;0.048832
6843.000000;0.048881
6842.000000;0.048938
6841.000000;0.048928
6840.000000;0.048851
6839.000000;0.048759
6838.000000;0.048679
6837.000000;0.048613
6836.000000;0.048573
6835.000000;0.048585
6834.000000;0.048625
6833.000000;0.048628
6832.000000;0.048565
6831.000000;0.048479
6830.000000;0.048406
6829.000000;0.048328
6828.000000;0.048230
6827.000000;0.048156
6826.000000;0.048137
6825.000000;0.048114
6824.000000;0.048002
6823.000000;0.047807
6822.000000;0.047626
6821.000000;0.047534
6820.000000;0.047517
6819.000000;0.047515
6818.000000;0.047491
6817.000000;0.047436
6816.000000;0.047351
6815.000000;0.047251
6814.000000;0.047169
6813.000000;0.047115
6812.000000;0.047067
6811.000000;0.046990
6810.000000;0.046875
6809.000000;0.046747
6808.000000;0.046670
6807.000000;0.046716
6806.000000;0.046897
6805.000000;0.047104
6804.000000;0.047162
6803.000000;0.046998
6802.000000;0.046737
6801.000000;0.046587
6800.000000;0.046641
6799.000000;0.046802
6798.000000;0.046896
6797.000000;0.046819
6796.000000;0.046589
6795.000000;0.046313
6794.000000;0.046124
6793.000000;0.046089
6792.000000;0.046150
6791.000000;0.046164
6790.000000;0.046045
6789.000000;0.045851
6788.000000;0.045705
6787.000000;0.045652
6786.000000;0.045638
6785.000000;0.045601
6784.000000;0.045542
6783.000000;0.045490
6782.000000;0.045441
6781.000000;0.045361
6780.000000;0.045231
6779.000000;0.045072
6778.000000;0.044935
6777.000000;0.044860
6776.000000;0.044847
6775.000000;0.044847
6774.000000;0.044812
6773.000000;0.044737
6772.000000;0.044649
6771.000000;0.044557
6770.000000;0.044456
6769.000000;0.044373
6768.000000;0.044359
6767.000000;0.044408
6766.000000;0.044441
6765.000000;0.044389
6764.000000;0.044264
6763.000000;0.044143
6762.000000;0.044086
6761.000000;0.044100
6760.000000;0.044145
6759.000000;0.044157
6758.000000;0.044103
6757.000000;0.044031
6756.000000;0.044033
6755.000000;0.044108
6754.000000;0.044130
6753.000000;0.043992
6752.000000;0.043751
6751.000000;0.043559
6750.000000;0.043490
6749.000000;0.043481
6748.000000;0.043442
6747.000000;0.043345
6746.000000;0.043212
6745.000000;0.043080
6744.000000;0.042985
6743.000000;0.042939
6742.000000;0.042903
6741.000000;0.042829
6740.000000;0.042735
6739.000000;0.042692
6738.000000;0.042715
6737.000000;0.042726
6736.000000;0.042641
6735.000000;0.042483
6734.000000;0.042354
6733.000000;0.042325
6732.000000;0.042367
6731.000000;0.042399
6730.000000;0.042371
6729.000000;0.042306
6728.000000;0.042259
6727.000000;0.042253
6726.000000;0.042243
6725.000000;0.042167
6724.000000;0.042023
6723.000000;0.041872
6722.000000;0.041782
6721.000000;0.041772
6720.000000;0.041809
6719.000000;0.041839
6718.000000;0.041816
6717.000000;0.041738
6716.000000;0.041633
6715.000000;0.041533
6714.000000;0.041472
6713.000000;0.041461
6712.000000;0.041480
6711.000000;0.041530
6710.000000;0.041554
6709.000000;0.041492
6708.000000;0.041395
6707.000000;0.041280
6706.000000;0.041194
6705.000000;0.041136
6704.000000;0.041090
6703.000000;0.041043
6702.000000;0.040989
6701.000000;0.040934
6700.000000;0.040879
6699.000000;0.040814
6698.000000;0.040720
6697.000000;0.040604
6696.000000;0.040511
6695.000000;0.040476
6694.000000;0.040485
6693.000000;0.040491
6692.000000;0.040471
6691.000000;0.040441
6690.000000;0.040408
6689.000000;0.040350
6688.000000;0.040253
6687.000000;0.040138
6686.000000;0.040043
6685.000000;0.039992
6684.000000;0.039988
6683.000000;0.040012
6682.000000;0.040037
6681.000000;0.040038
6680.000000;0.040008
6679.000000;0.039963
6678.000000;0.039924
6677.000000;0.039902
6676.000000;0.039892
6675.000000;0.039868
6674.000000;0.039802
6673.000000;0.039691
6672.000000;0.039566
6671.000000;0.039467
6670.000000;0.039412
6669.000000;0.039394
6668.000000;0.039392
6667.000000;0.039371
6666.000000;0.039298
6665.000000;0.039172
6664.000000;0.039038
6663.000000;0.038949
6662.000000;0.038918
6661.000000;0.038925
6660.000000;0.038942
6659.000000;0.038952
6658.000000;0.038933
6657.000000;0.038877
6656.000000;0.038793
6655.000000;0.038697
6654.000000;0.038596
6653.000000;0.038503
6652.000000;0.038447
6651.000000;0.038438
6650.000000;0.038444
6649.000000;0.038422
6648.000000;0.038371
6647.000000;0.038316
6646.000000;0.038270
6645.000000;0.038223
6644.000000;0.038175
6643.000000;0.038146
6642.000000;0.038139
6641.000000;0.038136
6640.000000;0.038121
6639.000000;0.038093
6638.000000;0.038047
6637.000000;0.037976
6636.000000;0.037890
6635.000000;0.037806
6634.000000;0.037724
6633.000000;0.037638
6632.000000;0.037576
6631.000000;0.037576
6630.000000;0.037630
6629.000000;0.037685
6628.000000;0.037703
6627.000000;0.037694
6626.000000;0.037680
6625.000000;0.037651
6624.000000;0.037593
6623.000000;0.037523
6622.000000;0.037470
6621.000000;0.037436
6620.000000;0.037403
6619.000000;0.037364
6618.000000;0.037335
6617.000000;0.037314
6616.000000;0.037282
6615.000000;0.037231
6614.000000;0.037179
6613.000000;0.037149
6612.000000;0.037123
6611.000000;0.037059
6610.000000;0.036936
6609.000000;0.036793
6608.000000;0.036685
6607.000000;0.036632
6606.000000;0.036611
6605.000000;0.036598
6604.000000;0.036583
6603.000000;0.036552
6602.000000;0.036482
6601.000000;0.036381
6600.000000;0.036301
6599.000000;0.036285
6598.000000;0.036315
6597.000000;0.036345
6596.000000;0.036354
6595.000000;0.036350
6594.000000;0.036336
6593.000000;0.036305
6592.000000;0.036271
6591.000000;0.036259
6590.000000;0.036268
6589.000000;0.036263
6588.000000;0.036216
6587.000000;0.036137
6586.000000;0.036056
6585.000000;0.035996
6584.000000;0.035960
6583.000000;0.035936
6582.000000;0.035903
6581.000000;0.035838
6580.000000;0.035738
6579.000000;0.035620
6578.000000;0.035510
6577.000000;0.035425
6576.000000;0.035371
6575.000000;0.035337
6574.000000;0.035303
6573.000000;0.035251
6572.000000;0.035188
6571.000000;0.035145
6570.000000;0.035142
6569.000000;0.035169
6568.000000;0.035192
6567.000000;0.035178
6566.000000;0.035122
6565.000000;0.035059
6564.000000;0.035033
6563.000000;0.035048
6562.000000;0.035068
6561.000000;0.035056
6560.000000;0.035016
6559.000000;0.034976
6558.000000;0.034953
6557.000000;0.034943
6556.000000;0.034935
6555.000000;0.034922
6554.000000;0.034894
6553.000000;0.034847
6552.000000;0.034786
6551.000000;0.034725
6550.000000;0.034672
6549.000000;0.034629
6548.000000;0.034594
6547.000000;0.034567
6546.000000;0.034550
6545.000000;0.034543
6544.000000;0.034540
6543.000000;0.034519
6542.000000;0.034462
6541.000000;0.034373
6540.000000;0.034279
6539.000000;0.034193
6538.000000;0.034119
6537.000000;0.034080
6536.000000;0.034102
6535.000000;0.034175
6534.000000;0.034233
6533.000000;0.034216
6532.000000;0.034126
6531.000000;0.034012
6530.000000;0.033917
6529.000000;0.033863
6528.000000;0.033855
6527.000000;0.033868
6526.000000;0.033865
6525.000000;0.033831
6524.000000;0.033792
6523.000000;0.033765
6522.000000;0.033724
6521.000000;0.033641
6520.000000;0.033536
6519.000000;0.033455
6518.000000;0.033406
6517.000000;0.033364
6516.000000;0.033319
6515.000000;0.033288
6514.000000;0.033278
6513.000000;0.033272
6512.000000;0.033258
6511.000000;0.033240
6510.000000;0.033222
6509.000000;0.033205
6508.000000;0.033192
6507.000000;0.033179
6506.000000;0.033147
6505.000000;0.033090
6504.000000;0.033031
6503.000000;0.032996
6502.000000;0.032979
6501.000000;0.032950
6500.000000;0.032901
6499.000000;0.032852
6498.000000;0.032827
6497.000000;0.032834
6496.000000;0.032878
6495.000000;0.032944
6494.000000;0.032985
6493.000000;0.032959
6492.000000;0.032873
6491.000000;0.032775
6490.000000;0.032696
6489.000000;0.032635
6488.000000;0.032589
6487.000000;0.032561
6486.000000;0.032543
6485.000000;0.032520
6484.000000;0.032493
6483.000000;0.032484
6482.000000;0.032498
6481.000000;0.032518
6480.000000;0.032522
6479.000000;0.032503
6478.000000;0.032462
6477.000000;0.032398
6476.000000;0.032319
6475.000000;0.032243
6474.000000;0.032186
6473.000000;0.032146
6472.000000;0.032108
6471.000000;0.032052
6470.000000;0.031977
6469.000000;0.031909
6468.000000;0.031890
6467.000000;0.031927
6466.000000;0.031981
6465.000000;0.032001
6464.000000;0.031978
6463.000000;0.031940
6462.000000;0.031920
6461.000000;0.031932
6460.000000;0.031975
6459.000000;0.032028
6458.000000;0.032051
6457.000000;0.032012
6456.000000;0.031914
6455.000000;0.031794
6454.000000;0.031699
6453.000000;0.031656
6452.000000;0.031661
6451.000000;0.031671
6450.000000;0.031637
6449.000000;0.031554
6448.000000;0.031469
6447.000000;0.031420
6446.000000;0.031402
6445.000000;0.031386
6444.000000;0.031364
6443.000000;0.031336
6442.000000;0.031285
6441.000000;0.031207
6440.000000;0.031140
6439.000000;0.031131
6438.000000;0.031177
6437.000000;0.031228
6436.000000;0.031250
6435.000000;0.031251
6434.000000;0.031248
6433.000000;0.031249
6432.000000;0.031250
6431.000000;0.031241
6430.000000;0.031213
6429.000000;0.031175
6428.000000;0.031159
6427.000000;0.031179
6426.000000;0.031204
6425.000000;0.031191
6424.000000;0.031142
6423.000000;0.031087
6422.000000;0.031040
6421.000000;0.030997
6420.000000;0.030968
6419.000000;0.030969
6418.000000;0.030991
6417.000000;0.031001
6416.000000;0.030987
6415.000000;0.030967
6414.000000;0.030948
6413.000000;0.030915
6412.000000;0.030857
6411.000000;0.030784
6410.000000;0.030706
6409.000000;0.030634
6408.000000;0.030587
6407.000000;0.030581
6406.000000;0.030601
6405.000000;0.030610
6404.000000;0.030604
6403.000000;0.030608
6402.000000;0.030628
6401.000000;0.030639
6400.000000;0.030619
6399.000000;0.030579
6398.000000;0.030539
6397.000000;0.030500
6396.000000;0.030466
6395.000000;0.030460
6394.000000;0.030486
6393.000000;0.030519
6392.000000;0.030520
6391.000000;0.030483
6390.000000;0.030430
6389.000000;0.030385
6388.000000;0.030356
6387.000000;0.030342
6386.000000;0.030338
6385.000000;0.030339
6384.000000;0.030345
6383.000000;0.030350
6382.000000;0.030339
6381.000000;0.030301
6380.000000;0.030246
6379.000000;0.030196
6378.000000;0.030168
6377.000000;0.030159
6376.000000;0.030155
6375.000000;0.030139
6374.000000;0.030098
6373.000000;0.030046
6372.000000;0.030012
6371.000000;0.030007
6370.000000;0.030014
6369.000000;0.030020
6368.000000;0.030042
6367.000000;0.030092
6366.000000;0.030136
6365.000000;0.030125
6364.000000;0.030056
6363.000000;0.029968
6362.000000;0.029898
6361.000000;0.029845
6360.000000;0.029799
6359.000000;0.029755
6358.000000;0.029712
6357.000000;0.029668
6356.000000;0.029639
6355.000000;0.029639
6354.000000;0.029660
6353.000000;0.029677
6352.000000;0.029681
6351.000000;0.029688
6350.000000;0.029718
6349.000000;0.029767
6348.000000;0.029808
6347.000000;0.029807
6346.000000;0.029744
6345.000000;0.029638
6344.000000;0.029544
6343.000000;0.029514
6342.000000;0.029556
6341.000000;0.029636
6340.000000;0.029715
6339.000000;0.029763
6338.000000;0.029757
6337.000000;0.029690
6336.000000;0.029584
6335.000000;0.029471
6334.000000;0.029367
6333.000000;0.029280
6332.000000;0.029227
6331.000000;0.029218
6330.000000;0.029231
6329.000000;0.029235
6328.000000;0.029227
6327.000000;0.029227
6326.000000;0.029234
6325.000000;0.029228
6324.000000;0.029211
6323.000000;0.029213
6322.000000;0.029241
6321.000000;0.029261
6320.000000;0.029244
6319.000000;0.029194
6318.000000;0.029140
6317.000000;0.029095
6316.000000;0.029054
6315.000000;0.029010
6314.000000;0.028971
6313.000000;0.028958
6312.000000;0.028980
6311.000000;0.029021
6310.000000;0.029044
6309.000000;0.029028
6308.000000;0.028990
6307.000000;0.028952
6306.000000;0.028911
6305.000000;0.028854
6304.000000;0.028788
6303.000000;0.028738
6302.000000;0.028713
6301.000000;0.028705
6300.000000;0.028706
6299.000000;0.028714
6298.000000;0.028719
6297.000000;0.028710
6296.000000;0.028694
6295.000000;0.028689
6294.000000;0.028691
6293.000000;0.028689
6292.000000;0.028682
6291.000000;0.028679
6290.000000;0.028667
6289.000000;0.028624
6288.000000;0.028548
6287.000000;0.028464
6286.000000;0.028401
6285.000000;0.028377
6284.000000;0.028402
6283.000000;0.028466
6282.000000;0.028523
6281.000000;0.028530
6280.000000;0.028490
6279.000000;0.028450
6278.000000;0.028437
6277.000000;0.028435
6276.000000;0.028423
6275.000000;0.028404
6274.000000;0.028398
6273.000000;0.028409
6272.000000;0.028418
6271.000000;0.028401
6270.000000;0.028344
6269.000000;0.028257
6268.000000;0.028175
6267.000000;0.028126
6266.000000;0.028102
6265.000000;0.028081
6264.000000;0.028066
6263.000000;0.028077
6262.000000;0.028116
6261.000000;0.028156
6260.000000;0.028178
6259.000000;0.028181
6258.000000;0.028165
6257.000000;0.028118
6256.000000;0.028040
6255.000000;0.027959
6254.000000;0.027910
6253.000000;0.027908
6252.000000;0.027942
6251.000000;0.027990
6250.000000;0.028022
6249.000000;0.028025
6248.000000;0.028009
6247.000000;0.027998
6246.000000;0.027997
6245.000000;0.027994
6244.000000;0.027982
6243.000000;0.027963
6242.000000;0.027942
6241.000000;0.027919
6240.000000;0.027902
6239.000000;0.027898
6238.000000;0.027905
6237.000000;0.027908
6236.000000;0.027901
6235.000000;0.027882
6234.000000;0.027849
6233.000000;0.027799
6232.000000;0.027737
6231.000000;0.027681
6230.000000;0.027653
6229.000000;0.027663
6228.000000;0.027703
6227.000000;0.027748
6226.000000;0.027763
6225.000000;0.027737
6224.000000;0.027686
6223.000000;0.027633
6222.000000;0.027584
6221.000000;0.027543
6220.000000;0.027528
6219.000000;0.027539
6218.000000;0.027545
6217.000000;0.027514
6216.000000;0.027455
6215.000000;0.027410
6214.000000;0.027401
6213.000000;0.027411
6212.000000;0.027424
6211.000000;0.027436
6210.000000;0.027449
6209.000000;0.027456
6208.000000;0.027457
6207.000000;0.027451
6206.000000;0.027435
6205.000000;0.027402
6204.000000;0.027361
6203.000000;0.027321
6202.000000;0.027273
6201.000000;0.027203
6200.000000;0.027119
6199.000000;0.027044
6198.000000;0.026990
6197.000000;0.026945
6196.000000;0.026904
6195.000000;0.026882
6194.000000;0.026897
6193.000000;0.026945
6192.000000;0.026995
6191.000000;0.027010
6190.000000;0.026977
6189.000000;0.026922
6188.000000;0.026891
6187.000000;0.026903
6186.000000;0.026934
6185.000000;0.026948
6184.000000;0.026941
6183.000000;0.026931
6182.000000;0.026926
6181.000000;0.026919
6180.000000;0.026904
6179.000000;0.026877
6178.000000;0.026833
6177.000000;0.026771
6176.000000;0.026708
6175.000000;0.026656
6174.000000;0.026606
6173.000000;0.026548
6172.000000;0.026494
6171.000000;0.026470
6170.000000;0.026484
6169.000000;0.026524
6168.000000;0.026574
6167.000000;0.026616
6166.000000;0.026624
6165.000000;0.026585
6164.000000;0.026522
6163.000000;0.026476
6162.000000;0.026461
6161.000000;0.026460
6160.000000;0.026453
6159.000000;0.026441
6158.000000;0.026431
6157.000000;0.026431
6156.000000;0.026439
6155.000000;0.026441
6154.000000;0.026425
6153.000000;0.026398
6152.000000;0.026381
6151.000000;0.026377
6150.000000;0.026363
6149.000000;0.026323
6148.000000;0.026269
6147.000000;0.026211
6146.000000;0.026143
6145.000000;0.026065
6144.000000;0.026009
6143.000000;0.026013
6142.000000;0.026070
6141.000000;0.026137
6140.000000;0.026175
6139.000000;0.026162
6138.000000;0.026093
6137.000000;0.025990
6136.000000;0.025903
6135.000000;0.025871
6134.000000;0.025879
6133.000000;0.025879
6132.000000;0.025853
6131.000000;0.025812
6130.000000;0.025772
6129.000000;0.025733
6128.000000;0.025698
6127.000000;0.025668
6126.000000;0.025632
6125.000000;0.025583
6124.000000;0.025535
6123.000000;0.025508
6122.000000;0.025494
6121.000000;0.025474
6120.000000;0.025451
6119.000000;0.025452
6118.000000;0.025488
6117.000000;0.025538
6116.000000;0.025576
6115.000000;0.025578
6114.000000;0.025532
6113.000000;0.025447
6112.000000;0.025353
6111.000000;0.025282
6110.000000;0.025233
6109.000000;0.025198
6108.000000;0.025182
6107.000000;0.025191
6106.000000;0.025207
6105.000000;0.025205
6104.000000;0.025185
6103.000000;0.025160
6102.000000;0.025130
6101.000000;0.025094
6100.000000;0.025076
6099.000000;0.025105
6098.000000;0.025168
6097.000000;0.025216
6096.000000;0.025216
6095.000000;0.025174
6094.000000;0.025100
6093.000000;0.025001
6092.000000;0.024889
6091.000000;0.024790
6090.000000;0.024719
6089.000000;0.024674
6088.000000;0.024650
6087.000000;0.024639
6086.000000;0.024626
6085.000000;0.024590
6084.000000;0.024539
6083.000000;0.024497
6082.000000;0.024484
6081.000000;0.024502
6080.000000;0.024539
6079.000000;0.024571
6078.000000;0.024571
6077.000000;0.024530
6076.000000;0.024468
6075.000000;0.024408
6074.000000;0.024351
6073.000000;0.024293
6072.000000;0.024248
6071.000000;0.024234
6070.000000;0.024243
6069.000000;0.024248
6068.000000;0.024236
6067.000000;0.024216
6066.000000;0.024196
6065.000000;0.024177
6064.000000;0.024160
6063.000000;0.024141
6062.000000;0.024106
6061.000000;0.024055
6060.000000;0.024016
6059.000000;0.024006
6058.000000;0.024005
6057.000000;0.023984
6056.000000;0.023944
6055.000000;0.023901
6054.000000;0.023847
6053.000000;0.023768
6052.000000;0.023683
6051.000000;0.023628
6050.000000;0.023612
6049.000000;0.023607
6048.000000;0.023591
6047.000000;0.023566
6046.000000;0.023532
6045.000000;0.023487
6044.000000;0.023439
6043.000000;0.023402
6042.000000;0.023382
6041.000000;0.023376
6040.000000;0.023383
6039.000000;0.023400
6038.000000;0.023401
6037.000000;0.023359
6036.000000;0.023279
6035.000000;0.023196
6034.000000;0.023134
6033.000000;0.023096
6032.000000;0.023075
6031.000000;0.023063
6030.000000;0.023043
6029.000000;0.023012
6028.000000;0.022991
6027.000000;0.022999
6026.000000;0.023018
6025.000000;0.023007
6024.000000;0.022950
6023.000000;0.022869
6022.000000;0.022781
6021.000000;0.022700
6020.000000;0.022638
6019.000000;0.022610
6018.000000;0.022606
6017.000000;0.022606
6016.000000;0.022603
6015.000000;0.022599
6014.000000;0.022583
6013.000000;0.022538
6012.000000;0.022473
6011.000000;0.022411
6010.000000;0.022363
6009.000000;0.022318
6008.000000;0.022279
6007.000000;0.022260
6006.000000;0.022260
6005.000000;0.022259
6004.000000;0.022243
6003.000000;0.022220
6002.000000;0.022197
6001.000000;0.022171
6000.000000;0.022136
5999.000000;0.022088
5998.000000;0.022022
5997.000000;0.021944
5996.000000;0.021880
5995.000000;0.021844
5994.000000;0.021815
5993.000000;0.021762
5992.000000;0.021686
5991.000000;0.021612
5990.000000;0.021560
5989.000000;0.021530
5988.000000;0.021519
5987.000000;0.021520
5986.000000;0.021519
5985.000000;0.021504
5984.000000;0.021475
5983.000000;0.021438
5982.000000;0.021390
5981.000000;0.021331
5980.000000;0.021274
5979.000000;0.021230
5978.000000;0.021189
5977.000000;0.021142
5976.000000;0.021107
5975.000000;0.021104
5974.000000;0.021117
5973.000000;0.021107
5972.000000;0.021057
5971.000000;0.020974
5970.000000;0.020871
5969.000000;0.020764
5968.000000;0.020678
5967.000000;0.020634
5966.000000;0.020618
5965.000000;0.020594
5964.000000;0.020540
5963.000000;0.020459
5962.000000;0.020365
5961.000000;0.020276
5960.000000;0.020220
5959.000000;0.020208
5958.000000;0.020227
5957.000000;0.020252
5956.000000;0.020276
5955.000000;0.020291
5954.000000;0.020275
5953.000000;0.020224
5952.000000;0.020163
5951.000000;0.020116
5950.000000;0.020067
5949.000000;0.019990
5948.000000;0.019892
5947.000000;0.019799
5946.000000;0.019724
5945.000000;0.019667
5944.000000;0.019644
5943.000000;0.019664
5942.000000;0.019698
5941.000000;0.019701
5940.000000;0.019668
5939.000000;0.019625
5938.000000;0.019584
5937.000000;0.019534
5936.000000;0.019465
5935.000000;0.019379
5934.000000;0.019277
5933.000000;0.019170
5932.000000;0.019092
5931.000000;0.019063
5930.000000;0.019056
5929.000000;0.019032
5928.000000;0.018990
5927.000000;0.018954
5926.000000;0.018925
5925.000000;0.018886
5924.000000;0.018833
5923.000000;0.018783
5922.000000;0.018737
5921.000000;0.018689
5920.000000;0.018646
5919.000000;0.018618
5918.000000;0.018579
5917.000000;0.018498
5916.000000;0.018384
5915.000000;0.018278
5914.000000;0.018207
5913.000000;0.018172
5912.000000;0.018173
5911.000000;0.018202
5910.000000;0.018223
5909.000000;0.018194
5908.000000;0.018120
5907.000000;0.018038
5906.000000;0.017967
5905.000000;0.017902
5904.000000;0.017834
5903.000000;0.017762
5902.000000;0.017673
5901.000000;0.017554
5900.000000;0.017427
5899.000000;0.017329
5898.000000;0.017267
5897.000000;0.017220
5896.000000;0.017178
5895.000000;0.017146
5894.000000;0.017120
5893.000000;0.017084
5892.000000;0.017044
5891.000000;0.017015
5890.000000;0.016997
5889.000000;0.016976
5888.000000;0.016950
5887.000000;0.016923
5886.000000;0.016881
5885.000000;0.016812
5884.000000;0.016736
5883.000000;0.016675
5882.000000;0.016618
5881.000000;0.016539
5880.000000;0.016447
5879.000000;0.016374
5878.000000;0.016319
5877.000000;0.016259
5876.000000;0.016195
5875.000000;0.016149
5874.000000;0.016118
5873.000000;0.016082
5872.000000;0.016042
5871.000000;0.016021
5870.000000;0.016001
5869.000000;0.015933
5868.000000;0.015809
5867.000000;0.015679
5866.000000;0.015586
5865.000000;0.015518
5864.000000;0.015436
5863.000000;0.015328
5862.000000;0.015222
5861.000000;0.015155
5860.000000;0.015152
5859.000000;0.015197
5858.000000;0.015234
5857.000000;0.015209
5856.000000;0.015121
5855.000000;0.015016
5854.000000;0.014928
5853.000000;0.014857
5852.000000;0.014799
5851.000000;0.014755
5850.000000;0.014717
5849.000000;0.014675
5848.000000;0.014632
5847.000000;0.014598
5846.000000;0.014565
5845.000000;0.014517
5844.000000;0.014449
5843.000000;0.014371
5842.000000;0.014273
5841.000000;0.014145
5840.000000;0.014005
5839.000000;0.013892
5838.000000;0.013813
5837.000000;0.013746
5836.000000;0.013671
5835.000000;0.013583
5834.000000;0.013473
5833.000000;0.013338
5832.000000;0.013205
5831.000000;0.013114
5830.000000;0.013061
5829.000000;0.013012
5828.000000;0.012942
5827.000000;0.012859
5826.000000;0.012773
5825.000000;0.012686
5824.000000;0.012612
5823.000000;0.012567
5822.000000;0.012551
5821.000000;0.012543
5820.000000;0.012527
5819.000000;0.012496
5818.000000;0.012431
5817.000000;0.012337
5816.000000;0.012258
5815.000000;0.012238
5814.000000;0.012264
5813.000000;0.012278
5812.000000;0.012249
5811.000000;0.012191
5810.000000;0.012124
5809.000000;0.012051
5808.000000;0.011980
5807.000000;0.011916
5806.000000;0.011847
5805.000000;0.011749
5804.000000;0.011627
5803.000000;0.011510
5802.000000;0.011406
5801.000000;0.011300
5800.000000;0.011190
5799.000000;0.011089
5798.000000;0.010998
5797.000000;0.010909
5796.000000;0.010832
5795.000000;0.010783
5794.000000;0.010750
5793.000000;0.010699
5792.000000;0.010610
5791.000000;0.010485
5790.000000;0.010326
5789.000000;0.010151
5788.000000;0.010009
5787.000000;0.009945
5786.000000;0.009941
5785.000000;0.009934
5784.000000;0.009887
5783.000000;0.009807
5782.000000;0.009705
5781.000000;0.009585
5780.000000;0.009466
5779.000000;0.009372
5778.000000;0.009297
5777.000000;0.009215
5776.000000;0.009120
5775.000000;0.009024
5774.000000;0.008926
5773.000000;0.008814
5772.000000;0.008698
5771.000000;0.008607
5770.000000;0.008543
5769.000000;0.008480
5768.000000;0.008403
5767.000000;0.008319
5766.000000;0.008229
5765.000000;0.008116
5764.000000;0.007978
5763.000000;0.007837
5762.000000;0.007708
5761.000000;0.007592
5760.000000;0.007480
5759.000000;0.007370
5758.000000;0.007252
5757.000000;0.007135
5756.000000;0.007049
5755.000000;0.007008
5754.000000;0.006975
5753.000000;0.006901
5752.000000;0.006790
5751.000000;0.006685
5750.000000;0.006606
5749.000000;0.006536
5748.000000;0.006466
5747.000000;0.006407
5746.000000;0.006353
5745.000000;0.006271
5744.000000;0.006147
5743.000000;0.006004
5742.000000;0.005867
5741.000000;0.005742
5740.000000;0.005635
5739.000000;0.005545
5738.000000;0.005455
5737.000000;0.005343
5736.000000;0.005219
5735.000000;0.005110
5734.000000;0.005028
5733.000000;0.004968
5732.000000;0.004931
5731.000000;0.004909
5730.000000;0.004863
5729.000000;0.004745
5728.000000;0.004560
5727.000000;0.004358
5726.000000;0.004176
5725.000000;0.004017
5724.000000;0.003882
5723.000000;0.003777
5722.000000;0.003695
5721.000000;0.003613
5720.000000;0.003524
5719.000000;0.003444
5718.000000;0.003379
5717.000000;0.003318
5716.000000;0.003254
5715.000000;0.003185
5714.000000;0.003098
5713.000000;0.002981
5712.000000;0.002851
5711.000000;0.002735
5710.000000;0.002636
5709.000000;0.002537
5708.000000;0.002434
5707.000000;0.002332
5706.000000;0.002219
5705.000000;0.002077
5704.000000;0.001917
5703.000000;0.001767
5702.000000;0.001628
5701.000000;0.001494
5700.000000;0.001377
5699.000000;0.001293
5698.000000;0.001228
5697.000000;0.001151
5696.000000;0.001057
5695.000000;0.000959
5694.000000;0.000849
5693.000000;0.000714
5692.000000;0.000565
5691.000000;0.000429
5690.000000;0.000309
5689.000000;0.000192
5688.000000;0.000090
5687.000000;0.000019
5686.000000;-0.000037
5685.000000;-0.000115
5684.000000;-0.000227
5683.000000;-0.000354
5682.000000;-0.000492
5681.000000;-0.000646
5680.000000;-0.000805
5679.000000;-0.000952
5678.000000;-0.001100
5677.000000;-0.001268
5676.000000;-0.001432
5675.000000;-0.001552
5674.000000;-0.001631
5673.000000;-0.001712
5672.000000;-0.001812
5671.000000;-0.001906
5670.000000;-0.001984
5669.000000;-0.002064
5668.000000;-0.002162
5667.000000;-0.002279
5666.000000;-0.002409
5665.000000;-0.002546
5664.000000;-0.002669
5663.000000;-0.002773
5662.000000;-0.002892
5661.000000;-0.003057
5660.000000;-0.003248
5659.000000;-0.003413
5658.000000;-0.003538
5657.000000;-0.003648
5656.000000;-0.003754
5655.000000;-0.003844
5654.000000;-0.003922
5653.000000;-0.004011
5652.000000;-0.004113
5651.000000;-0.004210
5650.000000;-0.004303
5649.000000;-0.004407
5648.000000;-0.004518
5647.000000;-0.004627
5646.000000;-0.004747
5645.000000;-0.004895
5644.000000;-0.005050
5643.000000;-0.005175
5642.000000;-0.005270
5641.000000;-0.005367
5640.000000;-0.005472
5639.000000;-0.005575
5638.000000;-0.005684
5637.000000;-0.005826
5636.000000;-0.005993
5635.000000;-0.006146
5634.000000;-0.006272
5633.000000;-0.006392
5632.000000;-0.006525
5631.000000;-0.006668
5630.000000;-0.006818
5629.000000;-0.006967
5628.000000;-0.007090
5627.000000;-0.007167
5626.000000;-0.007221
5625.000000;-0.007293
5624.000000;-0.007387
5623.000000;-0.007478
5622.000000;-0.007572
5621.000000;-0.007695
5620.000000;-0.007848
5619.000000;-0.008009
5618.000000;-0.008172
5617.000000;-0.008343
5616.000000;-0.008509
5615.000000;-0.008648
5614.000000;-0.008777
5613.000000;-0.008928
5612.000000;-0.009083
5611.000000;-0.009190
5610.000000;-0.009243
5609.000000;-0.009293
5608.000000;-0.009388
5607.000000;-0.009528
5606.000000;-0.009673
5605.000000;-0.009771
5604.000000;-0.009796
5603.000000;-0.009787
5602.000000;-0.009844
5601.000000;-0.010030
5600.000000;-0.010303
5599.000000;-0.010565
5598.000000;-0.010761
5597.000000;-0.010889
5596.000000;-0.010962
5595.000000;-0.011013
5594.000000;-0.011104
5593.000000;-0.011265
5592.000000;-0.011442
5591.000000;-0.011570
5590.000000;-0.011667
5589.000000;-0.011799
5588.000000;-0.011980
5587.000000;-0.012163
5586.000000;-0.012311
5585.000000;-0.012422
5584.000000;-0.012484
5583.000000;-0.012503
5582.000000;-0.012529
5581.000000;-0.012611
5580.000000;-0.012733
5579.000000;-0.012852
5578.000000;-0.012983
5577.000000;-0.013152
5576.000000;-0.013330
5575.000000;-0.013466
5574.000000;-0.013579
5573.000000;-0.013717
5572.000000;-0.013865
5571.000000;-0.013974
5570.000000;-0.014070
5569.000000;-0.014216
5568.000000;-0.014392
5567.000000;-0.014512
5566.000000;-0.014574
5565.000000;-0.014680
5564.000000;-0.014885
5563.000000;-0.015126
5562.000000;-0.015339
5561.000000;-0.015533
5560.000000;-0.015715
5559.000000;-0.015828
5558.000000;-0.015841
5557.000000;-0.015813
5556.000000;-0.015818
5555.000000;-0.015852
5554.000000;-0.015877
5553.000000;-0.015907
5552.000000;-0.016001
5551.000000;-0.016178
5550.000000;-0.016389
5549.000000;-0.016574
5548.000000;-0.016722
5547.000000;-0.016896
5546.000000;-0.017182
5545.000000;-0.017558
5544.000000;-0.017862
5543.000000;-0.017950
5542.000000;-0.017872
5541.000000;-0.017814
5540.000000;-0.017854
5539.000000;-0.017873
5538.000000;-0.017764
5537.000000;-0.017627
5536.000000;-0.017664
5535.000000;-0.017947
5534.000000;-0.018360
5533.000000;-0.018761
5532.000000;-0.019112
5531.000000;-0.019432
5530.000000;-0.019682
5529.000000;-0.019775
5528.000000;-0.019685
5527.000000;-0.019560
5526.000000;-0.019609
5525.000000;-0.019835
5524.000000;-0.019971
5523.000000;-0.019766
5522.000000;-0.019342
5521.000000;-0.019118
5520.000000;-0.019345
5519.000000;-0.019842
5518.000000;-0.020267
5517.000000;-0.020511
5516.000000;-0.020698
5515.000000;-0.020901
5514.000000;-0.021033
5513.000000;-0.021052
5512.000000;-0.021068
5511.000000;-0.021132
5510.000000;-0.021067
5509.000000;-0.020717
5508.000000;-0.020287
5507.000000;-0.020248
5506.000000;-0.020781
5505.000000;-0.021513
5504.000000;-0.022043
5503.000000;-0.022466
5502.000000;-0.023057
5501.000000;-0.023560
5500.000000;-0.023250
5499.000000;-0.021932
5498.000000;-0.020513
5497.000000;-0.020046
5496.000000;-0.020360
5495.000000;-0.020216
5494.000000;-0.018949
5493.000000;-0.017465
5492.000000;-0.017204
5491.000000;-0.018436
5490.000000;-0.020129
5489.000000;-0.021353
5488.000000;-0.022153
5487.000000;-0.023069
5486.000000;-0.024348
5485.000000;-0.025743
5484.000000;-0.026805
5483.000000;-0.027022
5482.000000;-0.025963
5481.000000;-0.023902
5480.000000;-0.022066
5479.000000;-0.021566
5478.000000;-0.022034
5477.000000;-0.021921
5476.000000;-0.020507
5475.000000;-0.019074
5474.000000;-0.019438
5473.000000;-0.021693
5472.000000;-0.024198
5471.000000;-0.025472
5470.000000;-0.025395
5469.000000;-0.024694
5468.000000;-0.023869
5467.000000;-0.023039
5466.000000;-0.022466
5465.000000;-0.022489
5464.000000;-0.022966
5463.000000;-0.023274
5462.000000;-0.023011
5461.000000;-0.022599
5460.000000;-0.023010
5459.000000;-0.024703
5458.000000;-0.026915
5457.000000;-0.028266
5456.000000;-0.028134
5455.000000;-0.027298
5454.000000;-0.026897
5453.000000;-0.026852
5452.000000;-0.026013
5451.000000;-0.023938
5450.000000;-0.021717
5449.000000;-0.020578
5448.000000;-0.020137
5447.000000;-0.019079
5446.000000;-0.017517
5445.000000;-0.017328
5444.000000;-0.019522
5443.000000;-0.022437
5442.000000;-0.023463
5441.000000;-0.022160
5440.000000;-0.020836
5439.000000;-0.021809
5438.000000;-0.024617
5437.000000;-0.026451
5436.000000;-0.025154
5435.000000;-0.021576
5434.000000;-0.018836
5433.000000;-0.019218
5432.000000;-0.022020
5431.000000;-0.024543
5430.000000;-0.024998
5429.000000;-0.024290
5428.000000;-0.024771
5427.000000;-0.027527
5426.000000;-0.031413
5425.000000;-0.034598
5424.000000;-0.036322
5423.000000;-0.037001
5422.000000;-0.037029
5421.000000;-0.035960
5420.000000;-0.033306
5419.000000;-0.029789
5418.000000;-0.026871
5417.000000;-0.024954
5416.000000;-0.022924
5415.000000;-0.020113
5414.000000;-0.017931
5413.000000;-0.018396
5412.000000;-0.021481
5411.000000;-0.025169
5410.000000;-0.028023
5409.000000;-0.030370
5408.000000;-0.032989
5407.000000;-0.035735
5406.000000;-0.037776
5405.000000;-0.038680
5404.000000;-0.038702
5403.000000;-0.038205
5402.000000;-0.037406
5401.000000;-0.036267
5400.000000;-0.034513
5399.000000;-0.032239
5398.000000;-0.030348
5397.000000;-0.029850
5396.000000;-0.030600
5395.000000;-0.031420
5394.000000;-0.031688
5393.000000;-0.031966
5392.000000;-0.032803
5391.000000;-0.033939
5390.000000;-0.034990
5389.000000;-0.035900
5388.000000;-0.036530
5387.000000;-0.036584
5386.000000;-0.036240
5385.000000;-0.036255
5384.000000;-0.036768
5383.000000;-0.036780
5382.000000;-0.035714
5381.000000;-0.034496
5380.000000;-0.034177
5379.000000;-0.034317
5378.000000;-0.033859
5377.000000;-0.033159
5376.000000;-0.033753
5375.000000;-0.036172
5374.000000;-0.039340
5373.000000;-0.042097
5372.000000;-0.044120
5371.000000;-0.045375
5370.000000;-0.045718
5369.000000;-0.045347
5368.000000;-0.044979
5367.000000;-0.045037
5366.000000;-0.045146
5365.000000;-0.044930
5364.000000;-0.044702
5363.000000;-0.044969
5362.000000;-0.045598
5361.000000;-0.045774
5360.000000;-0.044780
5359.000000;-0.042815
5358.000000;-0.041007
5357.000000;-0.040221
5356.000000;-0.039893
5355.000000;-0.038694
5354.000000;-0.036544
5353.000000;-0.035120
5352.000000;-0.035553
5351.000000;-0.036496
5350.000000;-0.036005
5349.000000;-0.034557
5348.000000;-0.034259
5347.000000;-0.035246
5346.000000;-0.034962
5345.000000;-0.031872
5344.000000;-0.028197
5343.000000;-0.027453
5342.000000;-0.030258
5341.000000;-0.033933
5340.000000;-0.035621
5339.000000;-0.035006
5338.000000;-0.034207
5337.000000;-0.035419
5336.000000;-0.038885
5335.000000;-0.042735
5334.000000;-0.044532
5333.000000;-0.043614
5332.000000;-0.041901
5331.000000;-0.041739
5330.000000;-0.043284
5329.000000;-0.044777
5328.000000;-0.045132
5327.000000;-0.045283
5326.000000;-0.046660
5325.000000;-0.049198
5324.000000;-0.051586
5323.000000;-0.052856
5322.000000;-0.053099
5321.000000;-0.052976
5320.000000;-0.052990
5319.000000;-0.053207
5318.000000;-0.053462
5317.000000;-0.053636
5316.000000;-0.053693
5315.000000;-0.053492
5314.000000;-0.052742
5313.000000;-0.051486
5312.000000;-0.050435
5311.000000;-0.050307
5310.000000;-0.050859
5309.000000;-0.051123
5308.000000;-0.050747
5307.000000;-0.050503
5306.000000;-0.051185
5305.000000;-0.052572
5304.000000;-0.053879
5303.000000;-0.054720
5302.000000;-0.055202
5301.000000;-0.055499
5300.000000;-0.055709
5299.000000;-0.055928
5298.000000;-0.056058
5297.000000;-0.055605
5296.000000;-0.054280
5295.000000;-0.052763
5294.000000;-0.052130
5293.000000;-0.052433
5292.000000;-0.052474
5291.000000;-0.051459
5290.000000;-0.050295
5289.000000;-0.050545
5288.000000;-0.052366
5287.000000;-0.054256
5286.000000;-0.054878
5285.000000;-0.054512
5284.000000;-0.054421
5283.000000;-0.055203
5282.000000;-0.056325
5281.000000;-0.057102
5280.000000;-0.057535
5279.000000;-0.058022
5278.000000;-0.058712
5277.000000;-0.059326
5276.000000;-0.059448
5275.000000;-0.058981
5274.000000;-0.058304
5273.000000;-0.057845
5272.000000;-0.057442
5271.000000;-0.056275
5270.000000;-0.053822
5269.000000;-0.050848
5268.000000;-0.048857
5267.000000;-0.048402
5266.000000;-0.048591
5265.000000;-0.048540
5264.000000;-0.048616
5263.000000;-0.049664
5262.000000;-0.051465
5261.000000;-0.052878
5260.000000;-0.053446
5259.000000;-0.053925
5258.000000;-0.054954
5257.000000;-0.055903
5256.000000;-0.055546
5255.000000;-0.053735
5254.000000;-0.051808
5253.000000;-0.051219
5252.000000;-0.052068
5251.000000;-0.052892
5250.000000;-0.052089
5249.000000;-0.049866
5248.000000;-0.048343
5247.000000;-0.049233
5246.000000;-0.051903
5245.000000;-0.054396
5244.000000;-0.055908
5243.000000;-0.057339
5242.000000;-0.059477
5241.000000;-0.061661
5240.000000;-0.062749
5239.000000;-0.062636
5238.000000;-0.062069
5237.000000;-0.061500
5236.000000;-0.060953
5235.000000;-0.060609
5234.000000;-0.060614
5233.000000;-0.060442
5232.000000;-0.059318
5231.000000;-0.057468
5230.000000;-0.056214
5229.000000;-0.056424
5228.000000;-0.057365
5227.000000;-0.057656
5226.000000;-0.057040
5225.000000;-0.056616
5224.000000;-0.057416
5223.000000;-0.059317
5222.000000;-0.061418
5221.000000;-0.062902
5220.000000;-0.063501
5219.000000;-0.063550
5218.000000;-0.063646
5217.000000;-0.064129
5216.000000;-0.064757
5215.000000;-0.064932
5214.000000;-0.064245
5213.000000;-0.062707
5212.000000;-0.060627
5211.000000;-0.058534
5210.000000;-0.057003
5209.000000;-0.056195
5208.000000;-0.055763
5207.000000;-0.055593
5206.000000;-0.056329
5205.000000;-0.058581
5204.000000;-0.061741
5203.000000;-0.064303
5202.000000;-0.065440
5201.000000;-0.065629
5200.000000;-0.065646
5199.000000;-0.065556
5198.000000;-0.065110
5197.000000;-0.064627
5196.000000;-0.064761
5195.000000;-0.065587
5194.000000;-0.066559
5193.000000;-0.067168
5192.000000;-0.067224
5191.000000;-0.066713
5190.000000;-0.065881
5189.000000;-0.065309
5188.000000;-0.065375
5187.000000;-0.065688
5186.000000;-0.065587
5185.000000;-0.065166
5184.000000;-0.065238
5183.000000;-0.066170
5182.000000;-0.067355
5181.000000;-0.068060
5180.000000;-0.068275
5179.000000;-0.068420
5178.000000;-0.068633
5177.000000;-0.068745
5176.000000;-0.068735
5175.000000;-0.068798
5174.000000;-0.068999
5173.000000;-0.069186
5172.000000;-0.069211
5171.000000;-0.069082
5170.000000;-0.068928
5169.000000;-0.068944
5168.000000;-0.069262
5167.000000;-0.069735
5166.000000;-0.069960
5165.000000;-0.069713
5164.000000;-0.069248
5163.000000;-0.069010
5162.000000;-0.069130
5161.000000;-0.069403
5160.000000;-0.069639
5159.000000;-0.069798
5158.000000;-0.069847
5157.000000;-0.069750
5156.000000;-0.069640
5155.000000;-0.069775
5154.000000;-0.070215
5153.000000;-0.070719
5152.000000;-0.071037
5151.000000;-0.071185
5150.000000;-0.071325
5149.000000;-0.071512
5148.000000;-0.071662
5147.000000;-0.071719
5146.000000;-0.071729
5145.000000;-0.071755
5144.000000;-0.071780
5143.000000;-0.071743
5142.000000;-0.071664
5141.000000;-0.071682
5140.000000;-0.071920
5139.000000;-0.072324
5138.000000;-0.072709
5137.000000;-0.072953
5136.000000;-0.073080
5135.000000;-0.073154
5134.000000;-0.073181
5133.000000;-0.073166
5132.000000;-0.073175
5131.000000;-0.073254
5130.000000;-0.073362
5129.000000;-0.073452
5128.000000;-0.073547
5127.000000;-0.073681
5126.000000;-0.073803
5125.000000;-0.073847
5124.000000;-0.073846
5123.000000;-0.073888
5122.000000;-0.073973
5121.000000;-0.074023
5120.000000;-0.074021
5119.000000;-0.074038
5118.000000;-0.074131
5117.000000;-0.074282
5116.000000;-0.074445
5115.000000;-0.074594
5114.000000;-0.074723
5113.000000;-0.074840
5112.000000;-0.074972
5111.000000;-0.075127
5110.000000;-0.075260
5109.000000;-0.075327
5108.000000;-0.075354
5107.000000;-0.075412
5106.000000;-0.075524
5105.000000;-0.075659
5104.000000;-0.075796
5103.000000;-0.075936
5102.000000;-0.076059
5101.000000;-0.076135
5100.000000;-0.076171
5099.000000;-0.076206
5098.000000;-0.076257
5097.000000;-0.076303
5096.000000;-0.076331
5095.000000;-0.076342
5094.000000;-0.076340
5093.000000;-0.076343
5092.000000;-0.076395
5091.000000;-0.076522
5090.000000;-0.076678
5089.000000;-0.076784
5088.000000;-0.076814
5087.000000;-0.076808
5086.000000;-0.076809
5085.000000;-0.076829
5084.000000;-0.076881
5083.000000;-0.076980
5082.000000;-0.077118
5081.000000;-0.077263
5080.000000;-0.077392
5079.000000;-0.077500
5078.000000;-0.077588
5077.000000;-0.077676
5076.000000;-0.077796
5075.000000;-0.077949
5074.000000;-0.078087
5073.000000;-0.078161
5072.000000;-0.078191
5071.000000;-0.078230
5070.000000;-0.078298
5069.000000;-0.078375
5068.000000;-0.078454
5067.000000;-0.078541
5066.000000;-0.078633
5065.000000;-0.078708
5064.000000;-0.078761
5063.000000;-0.078798
5062.000000;-0.078819
5061.000000;-0.078830
5060.000000;-0.078862
5059.000000;-0.078939
5058.000000;-0.079029
5057.000000;-0.079078
5056.000000;-0.079073
5055.000000;-0.079050
5054.000000;-0.079041
5053.000000;-0.079053
5052.000000;-0.079095
5051.000000;-0.079179
5050.000000;-0.079296
5049.000000;-0.079420
5048.000000;-0.079537
5047.000000;-0.079649
5046.000000;-0.079758
5045.000000;-0.079864
5044.000000;-0.079981
5043.000000;-0.080116
5042.000000;-0.080245
5041.000000;-0.080330
5040.000000;-0.080370
5039.000000;-0.080396
5038.000000;-0.080437
5037.000000;-0.080500
5036.000000;-0.080586
5035.000000;-0.080682
5034.000000;-0.080762
5033.000000;-0.080805
5032.000000;-0.080835
5031.000000;-0.080897
5030.000000;-0.081009
5029.000000;-0.081144
5028.000000;-0.081267
5027.000000;-0.081362
5026.000000;-0.081423
5025.000000;-0.081461
5024.000000;-0.081490
5023.000000;-0.081531
5022.000000;-0.081590
5021.000000;-0.081675
5020.000000;-0.081791
5019.000000;-0.081923
5018.000000;-0.082028
5017.000000;-0.082076
5016.000000;-0.082088
5015.000000;-0.082119
5014.000000;-0.082210
5013.000000;-0.082362
5012.000000;-0.082538
5011.000000;-0.082683
5010.000000;-0.082752
5009.000000;-0.082748
5008.000000;-0.082712
5007.000000;-0.082696
5006.000000;-0.082708
5005.000000;-0.082754
5004.000000;-0.082848
5003.000000;-0.082980
5002.000000;-0.083111
5001.000000;-0.083202
5000.000000;-0.083253
4999.000000;-0.083289
4998.000000;-0.083324
4997.000000;-0.083364
4996.000000;-0.083416
4995.000000;-0.083474
4994.000000;-0.083514
4993.000000;-0.083531
4992.000000;-0.083569
4991.000000;-0.083677
4990.000000;-0.083842
4989.000000;-0.084000
4988.000000;-0.084100
4987.000000;-0.084145
4986.000000;-0.084176
4985.000000;-0.084236
4984.000000;-0.084352
4983.000000;-0.084507
4982.000000;-0.084655
4981.000000;-0.084757
4980.000000;-0.084821
4979.000000;-0.084881
4978.000000;-0.084960
4977.000000;-0.085062
4976.000000;-0.085178
4975.000000;-0.085295
4974.000000;-0.085398
4973.000000;-0.085482
4972.000000;-0.085549
4971.000000;-0.085598
4970.000000;-0.085622
4969.000000;-0.085645
4968.000000;-0.085706
4967.000000;-0.085812
4966.000000;-0.085918
4965.000000;-0.085981
4964.000000;-0.086002
4963.000000;-0.086016
4962.000000;-0.086047
4961.000000;-0.086108
4960.000000;-0.086213
4959.000000;-0.086357
4958.000000;-0.086505
4957.000000;-0.086624
4956.000000;-0.086712
4955.000000;-0.086782
4954.000000;-0.086845
4953.000000;-0.086918
4952.000000;-0.087026
4951.000000;-0.087170
4950.000000;-0.087308
4949.000000;-0.087394
4948.000000;-0.087426
4947.000000;-0.087433
4946.000000;-0.087443
4945.000000;-0.087479
4944.000000;-0.087568
4943.000000;-0.087709
4942.000000;-0.087864
4941.000000;-0.087991
4940.000000;-0.088091
4939.000000;-0.088192
4938.000000;-0.088300
4937.000000;-0.088402
4936.000000;-0.088483
4935.000000;-0.088545
4934.000000;-0.088594
4933.000000;-0.088646
4932.000000;-0.088726
4931.000000;-0.088834
4930.000000;-0.088941
4929.000000;-0.089031
4928.000000;-0.089123
4927.000000;-0.089237
4926.000000;-0.089361
4925.000000;-0.089483
4924.000000;-0.089619
4923.000000;-0.089786
4922.000000;-0.089958
4921.000000;-0.090093
4920.000000;-0.090182
4919.000000;-0.090240
4918.000000;-0.090276
4917.000000;-0.090298
4916.000000;-0.090338
4915.000000;-0.090427
4914.000000;-0.090564
4913.000000;-0.090720
4912.000000;-0.090875
4911.000000;-0.091008
4910.000000;-0.091092
4909.000000;-0.091123
4908.000000;-0.091147
4907.000000;-0.091220
4906.000000;-0.091350
4905.000000;-0.091502
4904.000000;-0.091651
4903.000000;-0.091797
4902.000000;-0.091939
4901.000000;-0.092073
4900.000000;-0.092205
4899.000000;-0.092343
4898.000000;-0.092473
4897.000000;-0.092572
4896.000000;-0.092644
4895.000000;-0.092711
4894.000000;-0.092787
4893.000000;-0.092880
4892.000000;-0.093004
4891.000000;-0.093167
4890.000000;-0.093354
4889.000000;-0.093537
4888.000000;-0.093698
4887.000000;-0.093830
4886.000000;-0.093919
4885.000000;-0.093969
4884.000000;-0.094017
4883.000000;-0.094107
4882.000000;-0.094236
4881.000000;-0.094362
4880.000000;-0.094453
4879.000000;-0.094507
4878.000000;-0.094543
4877.000000;-0.094588
4876.000000;-0.094671
4875.000000;-0.094800
4874.000000;-0.094942
4873.000000;-0.095050
4872.000000;-0.095112
4871.000000;-0.095154
4870.000000;-0.095214
4869.000000;-0.095313
4868.000000;-0.095453
4867.000000;-0.095614
4866.000000;-0.095757
4865.000000;-0.095860
4864.000000;-0.095945
4863.000000;-0.096048
4862.000000;-0.096184
4861.000000;-0.096340
4860.000000;-0.096490
4859.000000;-0.096612
4858.000000;-0.096688
4857.000000;-0.096732
4856.000000;-0.096788
4855.000000;-0.096891
4854.000000;-0.097027
4853.000000;-0.097164
4852.000000;-0.097291
4851.000000;-0.097411
4850.000000;-0.097511
4849.000000;-0.097569
4848.000000;-0.097594
4847.000000;-0.097631
4846.000000;-0.097713
4845.000000;-0.097838
4844.000000;-0.097980
4843.000000;-0.098105
4842.000000;-0.098190
4841.000000;-0.098241
4840.000000;-0.098293
4839.000000;-0.098381
4838.000000;-0.098503
4837.000000;-0.098638
4836.000000;-0.098775
4835.000000;-0.098911
4834.000000;-0.099029
4833.000000;-0.099109
4832.000000;-0.099162
4831.000000;-0.099231
4830.000000;-0.099346
4829.000000;-0.099499
4828.000000;-0.099659
4827.000000;-0.099796
4826.000000;-0.099897
4825.000000;-0.099981
4824.000000;-0.100083
4823.000000;-0.100219
4822.000000;-0.100371
4821.000000;-0.100510
4820.000000;-0.100628
4819.000000;-0.100724
4818.000000;-0.100790
4817.000000;-0.100825
4816.000000;-0.100862
4815.000000;-0.100938
4814.000000;-0.101054
4813.000000;-0.101179
4812.000000;-0.101286
4811.000000;-0.101369
4810.000000;-0.101435
4809.000000;-0.101495
4808.000000;-0.101573
4807.000000;-0.101696
4806.000000;-0.101853
4805.000000;-0.101999
4804.000000;-0.102090
4803.000000;-0.102117
4802.000000;-0.102112
4801.000000;-0.102124
4800.000000;-0.102195
4799.000000;-0.102333
4798.000000;-0.102501
4797.000000;-0.102652
4796.000000;-0.102756
4795.000000;-0.102812
4794.000000;-0.102848
4793.000000;-0.102917
4792.000000;-0.103058
4791.000000;-0.103254
4790.000000;-0.103430
4789.000000;-0.103527
4788.000000;-0.103562
4787.000000;-0.103601
4786.000000;-0.103695
4785.000000;-0.103862
4784.000000;-0.104087
4783.000000;-0.104317
4782.000000;-0.104471
4781.000000;-0.104500
4780.000000;-0.104444
4779.000000;-0.104396
4778.000000;-0.104414
4777.000000;-0.104493
4776.000000;-0.104604
4775.000000;-0.104724
4774.000000;-0.104827
4773.000000;-0.104886
4772.000000;-0.104905
4771.000000;-0.104922
4770.000000;-0.104980
4769.000000;-0.105087
4768.000000;-0.105213
4767.000000;-0.105319
4766.000000;-0.105380
4765.000000;-0.105404
4764.000000;-0.105417
4763.000000;-0.105442
4762.000000;-0.105488
4761.000000;-0.105559
4760.000000;-0.105662
4759.000000;-0.105789
4758.000000;-0.105910
4757.000000;-0.106003
4756.000000;-0.106081
4755.000000;-0.106169
4754.000000;-0.106276
4753.000000;-0.106394
4752.000000;-0.106511
4751.000000;-0.106613
4750.000000;-0.106676
4749.000000;-0.106690
4748.000000;-0.106670
4747.000000;-0.106659
4746.000000;-0.106699
4745.000000;-0.106816
4744.000000;-0.107011
4743.000000;-0.107235
4742.000000;-0.107411
4741.000000;-0.107495
4740.000000;-0.107512
4739.000000;-0.107527
4738.000000;-0.107583
4737.000000;-0.107691
4736.000000;-0.107837
4735.000000;-0.107984
4734.000000;-0.108082
4733.000000;-0.108117
4732.000000;-0.108137
4731.000000;-0.108202
4730.000000;-0.108319
4729.000000;-0.108445
4728.000000;-0.108539
4727.000000;-0.108596
4726.000000;-0.108638
4725.000000;-0.108697
4724.000000;-0.108813
4723.000000;-0.108988
4722.000000;-0.109170
4721.000000;-0.109290
4720.000000;-0.109328
4719.000000;-0.109324
4718.000000;-0.109326
4717.000000;-0.109356
4716.000000;-0.109410
4715.000000;-0.109479
4714.000000;-0.109553
4713.000000;-0.109627
4712.000000;-0.109697
4711.000000;-0.109750
4710.000000;-0.109763
4709.000000;-0.109749
4708.000000;-0.109759
4707.000000;-0.109833
4706.000000;-0.109960
4705.000000;-0.110088
4704.000000;-0.110179
4703.000000;-0.110215
4702.000000;-0.110198
4701.000000;-0.110171
4700.000000;-0.110207
4699.000000;-0.110349
4698.000000;-0.110549
4697.000000;-0.110711
4696.000000;-0.110787
4695.000000;-0.110808
4694.000000;-0.110826
4693.000000;-0.110857
4692.000000;-0.110896
4691.000000;-0.110944
4690.000000;-0.111012
4689.000000;-0.111111
4688.000000;-0.111232
4687.000000;-0.111341
4686.000000;-0.111393
4685.000000;-0.111380
4684.000000;-0.111352
4683.000000;-0.111356
4682.000000;-0.111377
4681.000000;-0.111373
4680.000000;-0.111338
4679.000000;-0.111317
4678.000000;-0.111349
4677.000000;-0.111432
4676.000000;-0.111542
4675.000000;-0.111649
4674.000000;-0.111725
4673.000000;-0.111758
4672.000000;-0.111764
4671.000000;-0.111769
4670.000000;-0.111777
4669.000000;-0.111789
4668.000000;-0.111832
4667.000000;-0.111934
4666.000000;-0.112069
4665.000000;-0.112167
4664.000000;-0.112187
4663.000000;-0.112148
4662.000000;-0.112091
4661.000000;-0.112037
4660.000000;-0.111992
4659.000000;-0.111964
4658.000000;-0.111955
4657.000000;-0.111961
4656.000000;-0.111981
4655.000000;-0.112013
4654.000000;-0.112048
4653.000000;-0.112079
4652.000000;-0.112121
4651.000000;-0.112179
4650.000000;-0.112223
4649.000000;-0.112207
4648.000000;-0.112138
4647.000000;-0.112074
4646.000000;-0.112056
4645.000000;-0.112074
4644.000000;-0.112100
4643.000000;-0.112117
4642.000000;-0.112109
4641.000000;-0.112051
4640.000000;-0.111945
4639.000000;-0.111826
4638.000000;-0.111741
4637.000000;-0.111708
4636.000000;-0.111735
4635.000000;-0.111819
4634.000000;-0.111933
4633.000000;-0.112021
4632.000000;-0.112049
4631.000000;-0.112033
4630.000000;-0.112016
4629.000000;-0.112011
4628.000000;-0.111999
4627.000000;-0.111958
4626.000000;-0.111888
4625.000000;-0.111807
4624.000000;-0.111744
4623.000000;-0.111718
4622.000000;-0.111720
4621.000000;-0.111712
4620.000000;-0.111668
4619.000000;-0.111595
4618.000000;-0.111524
4617.000000;-0.111473
4616.000000;-0.111429
4615.000000;-0.111372
4614.000000;-0.111301
4613.000000;-0.111234
4612.000000;-0.111186
4611.000000;-0.111134
4610.000000;-0.111031
4609.000000;-0.110860
4608.000000;-0.110661
4607.000000;-0.110496
4606.000000;-0.110389
4605.000000;-0.110311
4604.000000;-0.110228
4603.000000;-0.110133
4602.000000;-0.110035
4601.000000;-0.109941
4600.000000;-0.109855
4599.000000;-0.109779
4598.000000;-0.109700
4597.000000;-0.109593
4596.000000;-0.109445
4595.000000;-0.109278
4594.000000;-0.109117
4593.000000;-0.108970
4592.000000;-0.108837
4591.000000;-0.108732
4590.000000;-0.108671
4589.000000;-0.108641
4588.000000;-0.108595
4587.000000;-0.108491
4586.000000;-0.108325
4585.000000;-0.108135
4584.000000;-0.107965
4583.000000;-0.107830
4582.000000;-0.107693
4581.000000;-0.107500
4580.000000;-0.107219
4579.000000;-0.106865
4578.000000;-0.106491
4577.000000;-0.106148
4576.000000;-0.105870
4575.000000;-0.105653
4574.000000;-0.105461
4573.000000;-0.105233
4572.000000;-0.104921
4571.000000;-0.104528
4570.000000;-0.104104
4569.000000;-0.103696
4568.000000;-0.103319
4567.000000;-0.102955
4566.000000;-0.102595
4565.000000;-0.102251
4564.000000;-0.101933
4563.000000;-0.101621
4562.000000;-0.101291
4561.000000;-0.100938
4560.000000;-0.100574
4559.000000;-0.100194
4558.000000;-0.099771
4557.000000;-0.099291
4556.000000;-0.098785
4555.000000;-0.098308
4554.000000;-0.097889
4553.000000;-0.097518
4552.000000;-0.097147
4551.000000;-0.096718
4550.000000;-0.096198
4549.000000;-0.095597
4548.000000;-0.094962
4547.000000;-0.094342
4546.000000;-0.093763
4545.000000;-0.093224
4544.000000;-0.092708
4543.000000;-0.092179
4542.000000;-0.091598
4541.000000;-0.090968
4540.000000;-0.090347
4539.000000;-0.089810
4538.000000;-0.089381
4537.000000;-0.089023
4536.000000;-0.088662
4535.000000;-0.088240
4534.000000;-0.087748
4533.000000;-0.087229
4532.000000;-0.086742
4531.000000;-0.086314
4530.000000;-0.085926
4529.000000;-0.085551
4528.000000;-0.085175
4527.000000;-0.084802
4526.000000;-0.084433
4525.000000;-0.084083
4524.000000;-0.083783
4523.000000;-0.083551
4522.000000;-0.083375
4521.000000;-0.083219
4520.000000;-0.083052
4519.000000;-0.082849
4518.000000;-0.082600
4517.000000;-0.082323
4516.000000;-0.082062
4515.000000;-0.081850
4514.000000;-0.081683
4513.000000;-0.081524
4512.000000;-0.081332
4511.000000;-0.081074
4510.000000;-0.080743
4509.000000;-0.080380
4508.000000;-0.080060
4507.000000;-0.079830
4506.000000;-0.079672
4505.000000;-0.079540
4504.000000;-0.079405
4503.000000;-0.079250
4502.000000;-0.079055
4501.000000;-0.078824
4500.000000;-0.078598
4499.000000;-0.078416
4498.000000;-0.078262
4497.000000;-0.078083
4496.000000;-0.077847
4495.000000;-0.077554
4494.000000;-0.077220
4493.000000;-0.076874
4492.000000;-0.076566
4491.000000;-0.076333
4490.000000;-0.076154
4489.000000;-0.075961
4488.000000;-0.075703
4487.000000;-0.075386
4486.000000;-0.075037
4485.000000;-0.074681
4484.000000;-0.074340
4483.000000;-0.074030
4482.000000;-0.073748
4481.000000;-0.073472
4480.000000;-0.073179
4479.000000;-0.072867
4478.000000;-0.072535
4477.000000;-0.072184
4476.000000;-0.071817
4475.000000;-0.071441
4474.000000;-0.071050
4473.000000;-0.070636
4472.000000;-0.070208
4471.000000;-0.069792
4470.000000;-0.069400
4469.000000;-0.069027
4468.000000;-0.068661
4467.000000;-0.068297
4466.000000;-0.067926
4465.000000;-0.067533
4464.000000;-0.067116
4463.000000;-0.066683
4462.000000;-0.066246
4461.000000;-0.065808
4460.000000;-0.065366
4459.000000;-0.064917
4458.000000;-0.064458
4457.000000;-0.063988
4456.000000;-0.063506
4455.000000;-0.063007
4454.000000;-0.062499
4453.000000;-0.062021
4452.000000;-0.061620
4451.000000;-0.061292
4450.000000;-0.060954
4449.000000;-0.060513
4448.000000;-0.059953
4447.000000;-0.059342
4446.000000;-0.058762
4445.000000;-0.058243
4444.000000;-0.057778
4443.000000;-0.057341
4442.000000;-0.056898
4441.000000;-0.056408
4440.000000;-0.055857
4439.000000;-0.055277
4438.000000;-0.054716
4437.000000;-0.054200
4436.000000;-0.053722
4435.000000;-0.053255
4434.000000;-0.052780
4433.000000;-0.052276
4432.000000;-0.051726
4431.000000;-0.051121
4430.000000;-0.050486
4429.000000;-0.049866
4428.000000;-0.049297
4427.000000;-0.048767
4426.000000;-0.048232
4425.000000;-0.047653
4424.000000;-0.047034
4423.000000;-0.046413
4422.000000;-0.045825
4421.000000;-0.045285
4420.000000;-0.044774
4419.000000;-0.044242
4418.000000;-0.043643
4417.000000;-0.042972
4416.000000;-0.042269
4415.000000;-0.041581
4414.000000;-0.040926
4413.000000;-0.040298
4412.000000;-0.039683
4411.000000;-0.039061
4410.000000;-0.038408
4409.000000;-0.037716
4408.000000;-0.036997
4407.000000;-0.036272
4406.000000;-0.035551
4405.000000;-0.034839
4404.000000;-0.034147
4403.000000;-0.033476
4402.000000;-0.032810
4401.000000;-0.032132
4400.000000;-0.031436
4399.000000;-0.030736
4398.000000;-0.030049
4397.000000;-0.029391
4396.000000;-0.028751
4395.000000;-0.028071
4394.000000;-0.027285
4393.000000;-0.026387
4392.000000;-0.025453
4391.000000;-0.024569
4390.000000;-0.023755
4389.000000;-0.022961
4388.000000;-0.022130
4387.000000;-0.021233
4386.000000;-0.020271
4385.000000;-0.019281
4384.000000;-0.018318
4383.000000;-0.017427
4382.000000;-0.016600
4381.000000;-0.015775
4380.000000;-0.014880
4379.000000;-0.013877
4378.000000;-0.012783
4377.000000;-0.011662
4376.000000;-0.010591
4375.000000;-0.009608
4374.000000;-0.008702
4373.000000;-0.007835
4372.000000;-0.006967
4371.000000;-0.006058
4370.000000;-0.005075
4369.000000;-0.004017
4368.000000;-0.002916
4367.000000;-0.001811
4366.000000;-0.000729
4365.000000;0.000323
4364.000000;0.001364
4363.000000;0.002440
4362.000000;0.003587
4361.000000;0.004777
4360.000000;0.005943
4359.000000;0.007048
4358.000000;0.008107
4357.000000;0.009140
4356.000000;0.010162
4355.000000;0.011221
4354.000000;0.012408
4353.000000;0.013752
4352.000000;0.015164
4351.000000;0.016513
4350.000000;0.017753
4349.000000;0.018930
4348.000000;0.020112
4347.000000;0.021344
4346.000000;0.022645
4345.000000;0.023996
4344.000000;0.025335
4343.000000;0.026606
4342.000000;0.027814
4341.000000;0.029025
4340.000000;0.030310
4339.000000;0.031700
4338.000000;0.033183
4337.000000;0.034706
4336.000000;0.036206
4335.000000;0.037667
4334.000000;0.039120
4333.000000;0.040572
4332.000000;0.041979
4331.000000;0.043309
4330.000000;0.044612
4329.000000;0.045971
4328.000000;0.047398
4327.000000;0.048826
4326.000000;0.050200
4325.000000;0.051528
4324.000000;0.052858
4323.000000;0.054239
4322.000000;0.055704
4321.000000;0.057251
4320.000000;0.058833
4319.000000;0.060379
4318.000000;0.061844
4317.000000;0.063223
4316.000000;0.064564
4315.000000;0.065958
4314.000000;0.067491
4313.000000;0.069151
4312.000000;0.070813
4311.000000;0.072367
4310.000000;0.073846
4309.000000;0.075388
4308.000000;0.077082
4307.000000;0.078897
4306.000000;0.080729
4305.000000;0.082470
4304.000000;0.084051
4303.000000;0.085485
4302.000000;0.086893
4301.000000;0.088431
4300.000000;0.090168
4299.000000;0.092039
4298.000000;0.093907
4297.000000;0.095652
4296.000000;0.097225
4295.000000;0.098686
4294.000000;0.100192
4293.000000;0.101901
4292.000000;0.103833
4291.000000;0.105852
4290.000000;0.107772
4289.000000;0.109500
4288.000000;0.111092
4287.000000;0.112696
4286.000000;0.114433
4285.000000;0.116308
4284.000000;0.118234
4283.000000;0.120139
4282.000000;0.122019
4281.000000;0.123889
4280.000000;0.125728
4279.000000;0.127528
4278.000000;0.129349
4277.000000;0.131264
4276.000000;0.133266
4275.000000;0.135281
4274.000000;0.137265
4273.000000;0.139231
4272.000000;0.141179
4271.000000;0.143085
4270.000000;0.144961
4269.000000;0.146883
4268.000000;0.148909
4267.000000;0.151014
4266.000000;0.153118
4265.000000;0.155160
4264.000000;0.157137
4263.000000;0.159082
4262.000000;0.161037
4261.000000;0.163026
4260.000000;0.165040
4259.000000;0.167062
4258.000000;0.169097
4257.000000;0.171167
4256.000000;0.173285
4255.000000;0.175438
4254.000000;0.177605
4253.000000;0.179768
4252.000000;0.181924
4251.000000;0.184086
4250.000000;0.186274
4249.000000;0.188484
4248.000000;0.190682
4247.000000;0.192847
4246.000000;0.195010
4245.000000;0.197227
4244.000000;0.199538
4243.000000;0.201928
4242.000000;0.204331
4241.000000;0.206635
4240.000000;0.208750
4239.000000;0.210684
4238.000000;0.212570
4237.000000;0.214577
4236.000000;0.216796
4235.000000;0.219208
4234.000000;0.221725
4233.000000;0.224247
4232.000000;0.226702
4231.000000;0.229076
4230.000000;0.231410
4229.000000;0.233761
4228.000000;0.236184
4227.000000;0.238729
4226.000000;0.241399
4225.000000;0.244115
4224.000000;0.246763
4223.000000;0.249328
4222.000000;0.251905
4221.000000;0.254572
4220.000000;0.257286
4219.000000;0.259955
4218.000000;0.262551
4217.000000;0.265112
4216.000000;0.267672
4215.000000;0.270262
4214.000000;0.272927
4213.000000;0.275693
4212.000000;0.278534
4211.000000;0.281398
4210.000000;0.284247
4209.000000;0.287030
4208.000000;0.289698
4207.000000;0.292284
4206.000000;0.294919
4205.000000;0.297706
4204.000000;0.300613
4203.000000;0.303535
4202.000000;0.306427
4201.000000;0.309324
4200.000000;0.312276
4199.000000;0.315325
4198.000000;0.318497
4197.000000;0.321740
4196.000000;0.324923
4195.000000;0.327955
4194.000000;0.330888
4193.000000;0.333834
4192.000000;0.336833
4191.000000;0.339882
4190.000000;0.343030
4189.000000;0.346325
4188.000000;0.349702
4187.000000;0.353028
4186.000000;0.356266
4185.000000;0.359502
4184.000000;0.362812
4183.000000;0.366196
4182.000000;0.369641
4181.000000;0.373175
4180.000000;0.376789
4179.000000;0.380387
4178.000000;0.383830
4177.000000;0.387048
4176.000000;0.390112
4175.000000;0.393208
4174.000000;0.396507
4173.000000;0.400001
4172.000000;0.403519
4171.000000;0.406913
4170.000000;0.410211
4169.000000;0.413559
4168.000000;0.417068
4167.000000;0.420769
4166.000000;0.424616
4165.000000;0.428479
4164.000000;0.432195
4163.000000;0.435719
4162.000000;0.439174
4161.000000;0.442681
4160.000000;0.446204
4159.000000;0.449672
4158.000000;0.453147
4157.000000;0.456767
4156.000000;0.460548
4155.000000;0.464389
4154.000000;0.468233
4153.000000;0.472106
4152.000000;0.476015
4151.000000;0.479916
4150.000000;0.483756
4149.000000;0.487456
4148.000000;0.490919
4147.000000;0.494180
4146.000000;0.497486
4145.000000;0.501105
4144.000000;0.505056
4143.000000;0.509150
4142.000000;0.513231
4141.000000;0.517228
4140.000000;0.521026
4139.000000;0.524513
4138.000000;0.527795
4137.000000;0.531182
4136.000000;0.534894
4135.000000;0.538893
4134.000000;0.543024
4133.000000;0.547175
4132.000000;0.551227
4131.000000;0.555024
4130.000000;0.558543
4129.000000;0.562003
4128.000000;0.565701
4127.000000;0.569730
4126.000000;0.573919
4125.000000;0.577999
4124.000000;0.581799
4123.000000;0.585329
4122.000000;0.588751
4121.000000;0.592276
4120.000000;0.596043
4119.000000;0.600069
4118.000000;0.604261
4117.000000;0.608450
4116.000000;0.612475
4115.000000;0.616308
4114.000000;0.620069
4113.000000;0.623863
4112.000000;0.627646
4111.000000;0.631312
4110.000000;0.634890
4109.000000;0.638533
4108.000000;0.642325
4107.000000;0.646183
4106.000000;0.649931
4105.000000;0.653447
4104.000000;0.656764
4103.000000;0.660104
4102.000000;0.663764
4101.000000;0.667828
4100.000000;0.672023
4099.000000;0.675966
4098.000000;0.679541
4097.000000;0.682949
4096.000000;0.686419
4095.000000;0.690036
4094.000000;0.693843
4093.000000;0.697917
4092.000000;0.702251
4091.000000;0.706621
4090.000000;0.710684
4089.000000;0.714207
4088.000000;0.717205
4087.000000;0.719923
4086.000000;0.722696
4085.000000;0.725740
4084.000000;0.729088
4083.000000;0.732731
4082.000000;0.736771
4081.000000;0.741260
4080.000000;0.745920
4079.000000;0.750215
4078.000000;0.753820
4077.000000;0.756927
4076.000000;0.759962
4075.000000;0.763142
4074.000000;0.766480
4073.000000;0.770069
4072.000000;0.774030
4071.000000;0.778098
4070.000000;0.781582
4069.000000;0.784060
4068.000000;0.786036
4067.000000;0.788589
4066.000000;0.792314
4065.000000;0.796808
4064.000000;0.801245
4063.000000;0.805217
4062.000000;0.808864
4061.000000;0.812382
4060.000000;0.815686
4059.000000;0.818550
4058.000000;0.820875
4057.000000;0.822836
4056.000000;0.824902
4055.000000;0.827696
4054.000000;0.831586
4053.000000;0.836253
4052.000000;0.840767
4051.000000;0.844319
4050.000000;0.846933
4049.000000;0.849382
4048.000000;0.852364
4047.000000;0.855842
4046.000000;0.859184
4045.000000;0.861892
4044.000000;0.864143
4043.000000;0.866603
4042.000000;0.869823
4041.000000;0.873802
4040.000000;0.877926
4039.000000;0.881262
4038.000000;0.883274
4037.000000;0.884547
4036.000000;0.886494
4035.000000;0.889890
4034.000000;0.893838
4033.000000;0.896648
4032.000000;0.897770
4031.000000;0.898285
4030.000000;0.899416
4029.000000;0.901247
4028.000000;0.903148
4027.000000;0.904787
4026.000000;0.906285
4025.000000;0.907742
4024.000000;0.909085
4023.000000;0.910178
4022.000000;0.910887
4021.000000;0.911355
4020.000000;0.912312
4019.000000;0.914573
4018.000000;0.917889
4017.000000;0.920801
4016.000000;0.922104
4015.000000;0.922078
4014.000000;0.921842
4013.000000;0.921962
4012.000000;0.922285
4011.000000;0.922680
4010.000000;0.923167
4009.000000;0.923484
4008.000000;0.923225
4007.000000;0.922372
4006.000000;0.921243
4005.000000;0.919995
4004.000000;0.918630
4003.000000;0.917357
4002.000000;0.916511
4001.000000;0.916172
4000.000000;0.916183
3999.000000;0.916386
3998.000000;0.916553
3997.000000;0.916270
3996.000000;0.915315
3995.000000;0.914018
3994.000000;0.912822
3993.000000;0.911723
3992.000000;0.910452
3991.000000;0.908932
3990.000000;0.907175
3989.000000;0.905021
3988.000000;0.902392
3987.000000;0.899588
3986.000000;0.896898
3985.000000;0.894192
3984.000000;0.891337
3983.000000;0.888791
3982.000000;0.887165
3981.000000;0.886338
3980.000000;0.885553
3979.000000;0.884313
3978.000000;0.882608
3977.000000;0.880250
3976.000000;0.876762
3975.000000;0.872229
3974.000000;0.867699
3973.000000;0.864221
3972.000000;0.861726
3971.000000;0.859283
3970.000000;0.856292
3969.000000;0.853048
3968.000000;0.850141
3967.000000;0.847639
3966.000000;0.845049
3965.000000;0.841879
3964.000000;0.838026
3963.000000;0.833706
3962.000000;0.829267
3961.000000;0.825133
3960.000000;0.821661
3959.000000;0.818784
3958.000000;0.815913
3957.000000;0.812439
3956.000000;0.808364
3955.000000;0.804279
3954.000000;0.800708
3953.000000;0.797665
3952.000000;0.794832
3951.000000;0.791873
3950.000000;0.788508
3949.000000;0.784595
3948.000000;0.780352
3947.000000;0.776224
3946.000000;0.772270
3945.000000;0.767881
3944.000000;0.762515
3943.000000;0.756673
3942.000000;0.751711
3941.000000;0.748455
3940.000000;0.746316
3939.000000;0.744023
3938.000000;0.741012
3937.000000;0.737644
3936.000000;0.734088
3935.000000;0.729712
3934.000000;0.723981
3933.000000;0.717544
3932.000000;0.711861
3931.000000;0.707760
3930.000000;0.704757
3929.000000;0.701763
3928.000000;0.698014
3927.000000;0.693295
3926.000000;0.687759
3925.000000;0.681836
3924.000000;0.676103
3923.000000;0.670934
3922.000000;0.666298
3921.000000;0.661971
3920.000000;0.657806
3919.000000;0.653741
3918.000000;0.649784
3917.000000;0.646084
3916.000000;0.642819
3915.000000;0.639840
3914.000000;0.636666
3913.000000;0.633000
3912.000000;0.629069
3911.000000;0.625265
3910.000000;0.621586
3909.000000;0.617593
3908.000000;0.612776
3907.000000;0.606895
3906.000000;0.600284
3905.000000;0.593912
3904.000000;0.588818
3903.000000;0.585197
3902.000000;0.582259
3901.000000;0.579147
3900.000000;0.575791
3899.000000;0.572643
3898.000000;0.569938
3897.000000;0.567533
3896.000000;0.565164
3895.000000;0.562409
3894.000000;0.558709
3893.000000;0.554060
3892.000000;0.549525
3891.000000;0.546459
3890.000000;0.545019
3889.000000;0.543839
3888.000000;0.541496
3887.000000;0.537979
3886.000000;0.534408
3885.000000;0.531645
3884.000000;0.529467
3883.000000;0.526951
3882.000000;0.523522
3881.000000;0.519566
3880.000000;0.516040
3879.000000;0.513427
3878.000000;0.511118
3877.000000;0.508135
3876.000000;0.504424
3875.000000;0.500916
3874.000000;0.498199
3873.000000;0.495717
3872.000000;0.492681
3871.000000;0.489248
3870.000000;0.486276
3869.000000;0.484195
3868.000000;0.482544
3867.000000;0.480615
3866.000000;0.478213
3865.000000;0.475617
3864.000000;0.473085
3863.000000;0.470600
3862.000000;0.468055
3861.000000;0.465485
3860.000000;0.462997
3859.000000;0.460589
3858.000000;0.458131
3857.000000;0.455383
3856.000000;0.452160
3855.000000;0.448650
3854.000000;0.445364
3853.000000;0.442777
3852.000000;0.440972
3851.000000;0.439578
3850.000000;0.438220
3849.000000;0.436896
3848.000000;0.435703
3847.000000;0.434291
3846.000000;0.432061
3845.000000;0.428963
3844.000000;0.425692
3843.000000;0.422902
3842.000000;0.420562
3841.000000;0.418185
3840.000000;0.415469
3839.000000;0.412604
3838.000000;0.410135
3837.000000;0.408535
3836.000000;0.407711
3835.000000;0.406940
3834.000000;0.405533
3833.000000;0.403499
3832.000000;0.401354
3831.000000;0.399288
3830.000000;0.396902
3829.000000;0.393911
3828.000000;0.390713
3827.000000;0.387902
3826.000000;0.385502
3825.000000;0.382981
3824.000000;0.379923
3823.000000;0.376605
3822.000000;0.373729
3821.000000;0.371725
3820.000000;0.370384
3819.000000;0.369043
3818.000000;0.367292
3817.000000;0.365414
3816.000000;0.363927
3815.000000;0.362769
3814.000000;0.361136
3813.000000;0.358283
3812.000000;0.354439
3811.000000;0.350604
3810.000000;0.347529
3809.000000;0.345209
3808.000000;0.343203
3807.000000;0.341148
3806.000000;0.338965
3805.000000;0.336698
3804.000000;0.334396
3803.000000;0.332128
3802.000000;0.329890
3801.000000;0.327658
3800.000000;0.325466
3799.000000;0.323322
3798.000000;0.321195
3797.000000;0.319101
3796.000000;0.317108
3795.000000;0.315220
3794.000000;0.313322
3793.000000;0.311282
3792.000000;0.309027
3791.000000;0.306483
3790.000000;0.303585
3789.000000;0.300409
3788.000000;0.297233
3787.000000;0.294360
3786.000000;0.291904
3785.000000;0.289750
3784.000000;0.287677
3783.000000;0.285524
3782.000000;0.283322
3781.000000;0.281267
3780.000000;0.279437
3779.000000;0.277556
3778.000000;0.275274
3777.000000;0.272675
3776.000000;0.270258
3775.000000;0.268278
3774.000000;0.266356
3773.000000;0.263937
3772.000000;0.260954
3771.000000;0.257799
3770.000000;0.254785
3769.000000;0.251907
3768.000000;0.249073
3767.000000;0.246355
3766.000000;0.243869
3765.000000;0.241465
3764.000000;0.238733
3763.000000;0.235492
3762.000000;0.232180
3761.000000;0.229520
3760.000000;0.227690
3759.000000;0.226011
3758.000000;0.223635
3757.000000;0.220471
3756.000000;0.217178
3755.000000;0.214338
3754.000000;0.211975
3753.000000;0.209809
3752.000000;0.207638
3751.000000;0.205335
3750.000000;0.202725
3749.000000;0.199831
3748.000000;0.197001
3747.000000;0.194580
3746.000000;0.192528
3745.000000;0.190286
3744.000000;0.187281
3743.000000;0.183528
3742.000000;0.179537
3741.000000;0.175915
3740.000000;0.173011
3739.000000;0.170674
3738.000000;0.168415
3737.000000;0.165918
3736.000000;0.163307
3735.000000;0.160890
3734.000000;0.158761
3733.000000;0.156707
3732.000000;0.154500
3731.000000;0.152092
3730.000000;0.149507
3729.000000;0.146776
3728.000000;0.144019
3727.000000;0.141379
3726.000000;0.138837
3725.000000;0.136196
3724.000000;0.133251
3723.000000;0.129935
3722.000000;0.126337
3721.000000;0.122644
3720.000000;0.119120
3719.000000;0.115984
3718.000000;0.113145
3717.000000;0.110191
3716.000000;0.106838
3715.000000;0.103308
3714.000000;0.100062
3713.000000;0.097203
3712.000000;0.094368
3711.000000;0.091249
3710.000000;0.087992
3709.000000;0.084920
3708.000000;0.082108
3707.000000;0.079517
3706.000000;0.077305
3705.000000;0.075533
3704.000000;0.073649
3703.000000;0.070860
3702.000000;0.067159
3701.000000;0.063368
3700.000000;0.059960
3699.000000;0.056437
3698.000000;0.052248
3697.000000;0.047763
3696.000000;0.043770
3695.000000;0.040346
3694.000000;0.036953
3693.000000;0.033498
3692.000000;0.030519
3691.000000;0.028225
3690.000000;0.026009
3689.000000;0.023190
3688.000000;0.019744
3687.000000;0.016046
3686.000000;0.012315
3685.000000;0.008630
3684.000000;0.005113
3683.000000;0.001785
3682.000000;-0.001528
3681.000000;-0.004979
3680.000000;-0.008574
3679.000000;-0.012335
3678.000000;-0.016225
3677.000000;-0.019889
3676.000000;-0.023046
3675.000000;-0.025976
3674.000000;-0.029267
3673.000000;-0.033079
3672.000000;-0.036848
3671.000000;-0.039941
3670.000000;-0.042389
3669.000000;-0.044746
3668.000000;-0.047560
3667.000000;-0.051041
3666.000000;-0.054945
3665.000000;-0.058754
3664.000000;-0.062235
3663.000000;-0.065765
3662.000000;-0.069765
3661.000000;-0.073912
3660.000000;-0.077438
3659.000000;-0.080246
3658.000000;-0.083109
3657.000000;-0.086667
3656.000000;-0.090697
3655.000000;-0.094642
3654.000000;-0.098375
3653.000000;-0.102046
3652.000000;-0.105548
3651.000000;-0.108645
3650.000000;-0.111413
3649.000000;-0.114130
3648.000000;-0.116927
3647.000000;-0.119899
3646.000000;-0.123356
3645.000000;-0.127472
3644.000000;-0.131742
3643.000000;-0.135284
3642.000000;-0.137804
3641.000000;-0.139956
3640.000000;-0.142689
3639.000000;-0.146467
3638.000000;-0.151132
3637.000000;-0.156242
3636.000000;-0.161309
3635.000000;-0.165872
3634.000000;-0.169590
3633.000000;-0.172492
3632.000000;-0.175200
3631.000000;-0.178448
3630.000000;-0.182280
3629.000000;-0.185967
3628.000000;-0.188747
3627.000000;-0.190715
3626.000000;-0.192787
3625.000000;-0.195683
3624.000000;-0.199281
3623.000000;-0.203046
3622.000000;-0.206670
3621.000000;-0.210076
3620.000000;-0.213227
3619.000000;-0.216288
3618.000000;-0.219664
3617.000000;-0.223587
3616.000000;-0.227798
3615.000000;-0.231814
3614.000000;-0.235369
3613.000000;-0.238424
3612.000000;-0.241012
3611.000000;-0.243319
3610.000000;-0.245670
3609.000000;-0.248186
3608.000000;-0.250640
3607.000000;-0.252855
3606.000000;-0.255069
3605.000000;-0.257702
3604.000000;-0.260898
3603.000000;-0.264421
3602.000000;-0.267817
3601.000000;-0.270603
3600.000000;-0.272565
3599.000000;-0.274123
3598.000000;-0.276104
3597.000000;-0.278814
3596.000000;-0.281608
3595.000000;-0.283735
3594.000000;-0.285314
3593.000000;-0.287039
3592.000000;-0.289172
3591.000000;-0.291312
3590.000000;-0.293011
3589.000000;-0.294216
3588.000000;-0.295200
3587.000000;-0.296303
3586.000000;-0.297723
3585.000000;-0.299420
3584.000000;-0.301209
3583.000000;-0.303014
3582.000000;-0.304925
3581.000000;-0.306944
3580.000000;-0.308805
3579.000000;-0.310237
3578.000000;-0.311224
3577.000000;-0.311844
3576.000000;-0.312083
3575.000000;-0.312075
3574.000000;-0.312278
3573.000000;-0.313049
3572.000000;-0.314135
3571.000000;-0.314962
3570.000000;-0.315327
3569.000000;-0.315490
3568.000000;-0.315720
3567.000000;-0.315978
3566.000000;-0.315918
3565.000000;-0.315140
3564.000000;-0.313616
3563.000000;-0.311981
3562.000000;-0.311142
3561.000000;-0.311410
3560.000000;-0.312168
3559.000000;-0.312613
3558.000000;-0.312600
3557.000000;-0.312519
3556.000000;-0.312625
3555.000000;-0.312831
3554.000000;-0.312950
3553.000000;-0.312729
3552.000000;-0.311749
3551.000000;-0.309776
3550.000000;-0.307251
3549.000000;-0.305046
3548.000000;-0.303617
3547.000000;-0.302659
3546.000000;-0.301633
3545.000000;-0.300355
3544.000000;-0.298977
3543.000000;-0.297617
3542.000000;-0.296161
3541.000000;-0.294346
3540.000000;-0.292060
3539.000000;-0.289615
3538.000000;-0.287602
3537.000000;-0.286293
3536.000000;-0.285302
3535.000000;-0.284017
3534.000000;-0.282254
3533.000000;-0.280266
3532.000000;-0.278273
3531.000000;-0.276310
3530.000000;-0.274422
3529.000000;-0.272643
3528.000000;-0.270767
3527.000000;-0.268489
3526.000000;-0.265878
3525.000000;-0.263380
3524.000000;-0.261257
3523.000000;-0.259288
3522.000000;-0.257161
3521.000000;-0.254930
3520.000000;-0.252885
3519.000000;-0.251105
3518.000000;-0.249316
3517.000000;-0.247129
3516.000000;-0.244401
3515.000000;-0.241449
3514.000000;-0.238892
3513.000000;-0.237103
3512.000000;-0.235772
3511.000000;-0.234129
3510.000000;-0.231685
3509.000000;-0.228666
3508.000000;-0.225650
3507.000000;-0.222949
3506.000000;-0.220453
3505.000000;-0.218014
3504.000000;-0.215776
3503.000000;-0.214076
3502.000000;-0.213027
3501.000000;-0.212277
3500.000000;-0.211186
3499.000000;-0.209221
3498.000000;-0.206206
3497.000000;-0.202346
3496.000000;-0.198197
3495.000000;-0.194551
3494.000000;-0.192014
3493.000000;-0.190511
3492.000000;-0.189300
3491.000000;-0.187603
3490.000000;-0.185140
3489.000000;-0.182077
3488.000000;-0.178787
3487.000000;-0.175798
3486.000000;-0.173639
3485.000000;-0.172335
3484.000000;-0.171164
3483.000000;-0.169221
3482.000000;-0.166320
3481.000000;-0.163188
3480.000000;-0.160701
3479.000000;-0.159073
3478.000000;-0.157802
3477.000000;-0.156232
3476.000000;-0.154066
3475.000000;-0.151452
3474.000000;-0.148747
3473.000000;-0.146251
3472.000000;-0.144135
3471.000000;-0.142419
3470.000000;-0.140875
3469.000000;-0.139040
3468.000000;-0.136554
3467.000000;-0.133558
3466.000000;-0.130594
3465.000000;-0.128066
3464.000000;-0.125953
3463.000000;-0.124031
3462.000000;-0.122140
3461.000000;-0.120198
3460.000000;-0.118237
3459.000000;-0.116502
3458.000000;-0.115184
3457.000000;-0.113976
3456.000000;-0.112254
3455.000000;-0.109892
3454.000000;-0.107524
3453.000000;-0.105735
3452.000000;-0.104352
3451.000000;-0.102831
3450.000000;-0.101015
3449.000000;-0.099085
3448.000000;-0.097061
3447.000000;-0.094873
3446.000000;-0.092759
3445.000000;-0.091076
3444.000000;-0.089732
3443.000000;-0.088237
3442.000000;-0.086303
3441.000000;-0.084053
3440.000000;-0.081685
3439.000000;-0.079335
3438.000000;-0.077248
3437.000000;-0.075677
3436.000000;-0.074531
3435.000000;-0.073403
3434.000000;-0.071969
3433.000000;-0.070112
3432.000000;-0.067765
3431.000000;-0.065036
3430.000000;-0.062435
3429.000000;-0.060521
3428.000000;-0.059228
3427.000000;-0.057992
3426.000000;-0.056605
3425.000000;-0.055491
3424.000000;-0.054883
3423.000000;-0.054154
3422.000000;-0.052381
3421.000000;-0.049384
3420.000000;-0.045945
3419.000000;-0.043059
3418.000000;-0.041168
3417.000000;-0.040038
3416.000000;-0.039202
3415.000000;-0.038404
3414.000000;-0.037650
3413.000000;-0.036853
3412.000000;-0.035598
3411.000000;-0.033503
3410.000000;-0.030781
3409.000000;-0.028174
3408.000000;-0.026235
3407.000000;-0.024900
3406.000000;-0.023855
3405.000000;-0.022985
3404.000000;-0.022227
3403.000000;-0.021223
3402.000000;-0.019551
3401.000000;-0.017280
3400.000000;-0.015015
3399.000000;-0.013265
3398.000000;-0.011951
3397.000000;-0.010647
3396.000000;-0.009178
3395.000000;-0.007743
3394.000000;-0.006480
3393.000000;-0.005163
3392.000000;-0.003522
3391.000000;-0.001740
3390.000000;-0.000364
3389.000000;0.000321
3388.000000;0.000608
3387.000000;0.000986
3386.000000;0.001676
3385.000000;0.002682
3384.000000;0.004035
3383.000000;0.005699
3382.000000;0.007412
3381.000000;0.008917
3380.000000;0.010310
3379.000000;0.011853
3378.000000;0.013492
3377.000000;0.014892
3376.000000;0.015999
3375.000000;0.017260
3374.000000;0.019106
3373.000000;0.021395
3372.000000;0.023515
3371.000000;0.024948
3370.000000;0.025662
3369.000000;0.026046
3368.000000;0.026570
3367.000000;0.027557
3366.000000;0.029171
3365.000000;0.031435
3364.000000;0.034050
3363.000000;0.036258
3362.000000;0.037357
3361.000000;0.037606
3360.000000;0.038249
3359.000000;0.040130
3358.000000;0.042477
3357.000000;0.043632
3356.000000;0.043012
3355.000000;0.041768
3354.000000;0.041358
3353.000000;0.042060
3352.000000;0.043154
3351.000000;0.044066
3350.000000;0.044839
3349.000000;0.045734
3348.000000;0.046911
3347.000000;0.048516
3346.000000;0.050644
3345.000000;0.053069
3344.000000;0.055224
3343.000000;0.056642
3342.000000;0.057359
3341.000000;0.057807
3340.000000;0.058377
3339.000000;0.059109
3338.000000;0.059812
3337.000000;0.060459
3336.000000;0.061349
3335.000000;0.062739
3334.000000;0.064375
3333.000000;0.065617
3332.000000;0.066128
3331.000000;0.066272
3330.000000;0.066663
3329.000000;0.067490
3328.000000;0.068453
3327.000000;0.069286
3326.000000;0.070091
3325.000000;0.071138
3324.000000;0.072530
3323.000000;0.074144
3322.000000;0.075745
3321.000000;0.077074
3320.000000;0.077945
3319.000000;0.078434
3318.000000;0.078909
3317.000000;0.079733
3316.000000;0.080880
3315.000000;0.081984
3314.000000;0.082824
3313.000000;0.083636
3312.000000;0.084759
3311.000000;0.086078
3310.000000;0.087050
3309.000000;0.087376
3308.000000;0.087433
3307.000000;0.087881
3306.000000;0.088966
3305.000000;0.090349
3304.000000;0.091519
3303.000000;0.092266
3302.000000;0.092826
3301.000000;0.093700
3300.000000;0.095230
3299.000000;0.097167
3298.000000;0.098698
3297.000000;0.099123
3296.000000;0.098553
3295.000000;0.097799
3294.000000;0.097626
3293.000000;0.098255
3292.000000;0.099478
3291.000000;0.100953
3290.000000;0.102317
3289.000000;0.103282
3288.000000;0.103811
3287.000000;0.104141
3286.000000;0.104517
3285.000000;0.104991
3284.000000;0.105513
3283.000000;0.106083
3282.000000;0.106751
3281.000000;0.107550
3280.000000;0.108538
3279.000000;0.109808
3278.000000;0.111335
3277.000000;0.112869
3276.000000;0.114065
3275.000000;0.114700
3274.000000;0.114761
3273.000000;0.114417
3272.000000;0.114009
3271.000000;0.113969
3270.000000;0.114604
3269.000000;0.115868
3268.000000;0.117376
3267.000000;0.118656
3266.000000;0.119465
3265.000000;0.119942
3264.000000;0.120491
3263.000000;0.121428
3262.000000;0.122696
3261.000000;0.123969
3260.000000;0.125036
3259.000000;0.126001
3258.000000;0.127074
3257.000000;0.128266
3256.000000;0.129390
3255.000000;0.130275
3254.000000;0.130859
3253.000000;0.131074
3252.000000;0.130843
3251.000000;0.130280
3250.000000;0.129826
3249.000000;0.130014
3248.000000;0.131003
3247.000000;0.132377
3246.000000;0.133448
3245.000000;0.133806
3244.000000;0.133596
3243.000000;0.133353
3242.000000;0.133590
3241.000000;0.134487
3240.000000;0.135803
3239.000000;0.137059
3238.000000;0.137901
3237.000000;0.138375
3236.000000;0.138819
3235.000000;0.139443
3234.000000;0.140103
3233.000000;0.140510
3232.000000;0.140599
3231.000000;0.140610
3230.000000;0.140901
3229.000000;0.141727
3228.000000;0.143071
3227.000000;0.144542
3226.000000;0.145502
3225.000000;0.145552
3224.000000;0.145008
3223.000000;0.144764
3222.000000;0.145515
3221.000000;0.147096
3220.000000;0.148641
3219.000000;0.149449
3218.000000;0.149669
3217.000000;0.150054
3216.000000;0.151075
3215.000000;0.152461
3214.000000;0.153629
3213.000000;0.154359
3212.000000;0.154825
3211.000000;0.155164
3210.000000;0.155385
3209.000000;0.155722
3208.000000;0.156593
3207.000000;0.157967
3206.000000;0.159076
3205.000000;0.159143
3204.000000;0.158312
3203.000000;0.157530
3202.000000;0.157544
3201.000000;0.158330
3200.000000;0.159429
3199.000000;0.160494
3198.000000;0.161401
3197.000000;0.162097
3196.000000;0.162591
3195.000000;0.163030
3194.000000;0.163603
3193.000000;0.164322
3192.000000;0.164952
3191.000000;0.165197
3190.000000;0.165010
3189.000000;0.164717
3188.000000;0.164757
3187.000000;0.165240
3186.000000;0.165862
3185.000000;0.166351
3184.000000;0.166874
3183.000000;0.167815
3182.000000;0.169213
3181.000000;0.170656
3180.000000;0.171752
3179.000000;0.172504
3178.000000;0.173127
3177.000000;0.173689
3176.000000;0.174085
3175.000000;0.174256
3174.000000;0.174283
3173.000000;0.174305
3172.000000;0.174457
3171.000000;0.174895
3170.000000;0.175742
3169.000000;0.176931
3168.000000;0.178088
3167.000000;0.178685
3166.000000;0.178489
3165.000000;0.177917
3164.000000;0.177807
3163.000000;0.178653
3162.000000;0.180061
3161.000000;0.181050
3160.000000;0.180975
3159.000000;0.180111
3158.000000;0.179360
3157.000000;0.179452
3156.000000;0.180412
3155.000000;0.181677
3154.000000;0.182633
3153.000000;0.183081
3152.000000;0.183244
3151.000000;0.183403
3150.000000;0.183629
3149.000000;0.183897
3148.000000;0.184296
3147.000000;0.184942
3146.000000;0.185781
3145.000000;0.186636
3144.000000;0.187415
3143.000000;0.188086
3142.000000;0.188503
3141.000000;0.188528
3140.000000;0.188376
3139.000000;0.188530
3138.000000;0.189146
3137.000000;0.189724
3136.000000;0.189645
3135.000000;0.188966
3134.000000;0.188453
3133.000000;0.188823
3132.000000;0.190106
3131.000000;0.191743
3130.000000;0.193167
3129.000000;0.194217
3128.000000;0.195061
3127.000000;0.195839
3126.000000;0.196437
3125.000000;0.196639
3124.000000;0.196440
3123.000000;0.196151
3122.000000;0.196156
3121.000000;0.196598
3120.000000;0.197300
3119.000000;0.197888
3118.000000;0.198017
3117.000000;0.197621
3116.000000;0.197085
3115.000000;0.197051
3114.000000;0.197846
3113.000000;0.199106
3112.000000;0.200100
3111.000000;0.200466
3110.000000;0.200536
3109.000000;0.200855
3108.000000;0.201553
3107.000000;0.202293
3106.000000;0.202735
3105.000000;0.202874
3104.000000;0.202958
3103.000000;0.203240
3102.000000;0.203861
3101.000000;0.204842
3100.000000;0.206043
3099.000000;0.207163
3098.000000;0.207891
3097.000000;0.208160
3096.000000;0.208239
3095.000000;0.208531
3094.000000;0.209246
3093.000000;0.210223
3092.000000;0.211050
3091.000000;0.211385
3090.000000;0.211183
3089.000000;0.210660
3088.000000;0.210107
3087.000000;0.209786
3086.000000;0.209938
3085.000000;0.210699
3084.000000;0.211914
3083.000000;0.213110
3082.000000;0.213796
3081.000000;0.213820
3080.000000;0.213454
3079.000000;0.213196
3078.000000;0.213520
3077.000000;0.214638
3076.000000;0.216268
3075.000000;0.217688
3074.000000;0.218233
3073.000000;0.217882
3072.000000;0.217256
3071.000000;0.217004
3070.000000;0.217284
3069.000000;0.217811
3068.000000;0.218249
3067.000000;0.218454
3066.000000;0.218487
3065.000000;0.218508
3064.000000;0.218626
3063.000000;0.218804
3062.000000;0.219006
3061.000000;0.219422
3060.000000;0.220307
3059.000000;0.221503
3058.000000;0.222350
3057.000000;0.222400
3056.000000;0.222083
3055.000000;0.222334
3054.000000;0.223539
3053.000000;0.225148
3052.000000;0.226370
3051.000000;0.226985
3050.000000;0.227328
3049.000000;0.227707
3048.000000;0.228137
3047.000000;0.228536
3046.000000;0.228901
3045.000000;0.229238
3044.000000;0.229475
3043.000000;0.229494
3042.000000;0.229218
3041.000000;0.228698
3040.000000;0.228166
3039.000000;0.227964
3038.000000;0.228334
3037.000000;0.229252
3036.000000;0.230514
3035.000000;0.231928
3034.000000;0.233334
3033.000000;0.234504
3032.000000;0.235208
3031.000000;0.235419
3030.000000;0.235369
3029.000000;0.235352
3028.000000;0.235525
3027.000000;0.235893
3026.000000;0.236353
3025.000000;0.236726
3024.000000;0.236859
3023.000000;0.236780
3022.000000;0.236681
3021.000000;0.236702
3020.000000;0.236815
3019.000000;0.236979
3018.000000;0.237257
3017.000000;0.237672
3016.000000;0.238039
3015.000000;0.238127
3014.000000;0.237981
3013.000000;0.237958
3012.000000;0.238450
3011.000000;0.239617
3010.000000;0.241305
3009.000000;0.243040
3008.000000;0.244197
3007.000000;0.244460
3006.000000;0.244189
3005.000000;0.244141
3004.000000;0.244676
3003.000000;0.245396
3002.000000;0.245696
3001.000000;0.245537
3000.000000;0.245449
2999.000000;0.245848
2998.000000;0.246633
2997.000000;0.247474
2996.000000;0.248250
2995.000000;0.249015
2994.000000;0.249654
2993.000000;0.249853
2992.000000;0.249490
2991.000000;0.248938
2990.000000;0.248809
2989.000000;0.249404
2988.000000;0.250480
2987.000000;0.251583
2986.000000;0.252495
2985.000000;0.253302
2984.000000;0.254110
2983.000000;0.254843
2982.000000;0.255330
2981.000000;0.255449
2980.000000;0.255172
2979.000000;0.254592
2978.000000;0.253976
2977.000000;0.253680
2976.000000;0.253899
2975.000000;0.254571
2974.000000;0.255546
2973.000000;0.256720
2972.000000;0.257895
2971.000000;0.258669
2970.000000;0.258737
2969.000000;0.258329
2968.000000;0.258113
2967.000000;0.258533
2966.000000;0.259374
2965.000000;0.260104
2964.000000;0.260585
2963.000000;0.261237
2962.000000;0.262426
2961.000000;0.263881
2960.000000;0.264901
2959.000000;0.265136
2958.000000;0.264968
2957.000000;0.265059
2956.000000;0.265687
2955.000000;0.266600
2954.000000;0.267348
2953.000000;0.267523
2952.000000;0.266864
2951.000000;0.265508
2950.000000;0.264181
2949.000000;0.263803
2948.000000;0.264670
2947.000000;0.266172
2946.000000;0.267453
2945.000000;0.268219
2944.000000;0.268703
2943.000000;0.269077
2942.000000;0.269244
2941.000000;0.269185
2940.000000;0.269182
2939.000000;0.269535
2938.000000;0.270238
2937.000000;0.271055
2936.000000;0.271797
2935.000000;0.272429
2934.000000;0.272964
2933.000000;0.273357
2932.000000;0.273546
2931.000000;0.273542
2930.000000;0.273483
2929.000000;0.273581
2928.000000;0.274029
2927.000000;0.274945
2926.000000;0.276338
2925.000000;0.278012
2924.000000;0.279522
2923.000000;0.280409
2922.000000;0.280574
2921.000000;0.280346
2920.000000;0.280103
2919.000000;0.279976
2918.000000;0.280014
2917.000000;0.280468
2916.000000;0.281605
2915.000000;0.283229
2914.000000;0.284604
2913.000000;0.285003
2912.000000;0.284320
2911.000000;0.283149
2910.000000;0.282307
2909.000000;0.282274
2908.000000;0.282973
2907.000000;0.284020
2906.000000;0.285166
2905.000000;0.286392
2904.000000;0.287582
2903.000000;0.288305
2902.000000;0.288188
2901.000000;0.287450
2900.000000;0.286839
2899.000000;0.287020
2898.000000;0.288102
2897.000000;0.289699
2896.000000;0.291250
2895.000000;0.292287
2894.000000;0.292656
2893.000000;0.292625
2892.000000;0.292675
2891.000000;0.293094
2890.000000;0.293787
2889.000000;0.294481
2888.000000;0.294970
2887.000000;0.295145
2886.000000;0.294997
2885.000000;0.294732
2884.000000;0.294740
2883.000000;0.295268
2882.000000;0.296126
2881.000000;0.296879
2880.000000;0.297361
2879.000000;0.297848
2878.000000;0.298648
2877.000000;0.299630
2876.000000;0.300355
2875.000000;0.300672
2874.000000;0.301000
2873.000000;0.301853
2872.000000;0.303163
2871.000000;0.304266
2870.000000;0.304603
2869.000000;0.304289
2868.000000;0.303918
2867.000000;0.303945
2866.000000;0.304342
2865.000000;0.304776
2864.000000;0.304999
2863.000000;0.305141
2862.000000;0.305639
2861.000000;0.306754
2860.000000;0.308129
2859.000000;0.309029
2858.000000;0.309148
2857.000000;0.308952
2856.000000;0.309036
2855.000000;0.309382
2854.000000;0.309551
2853.000000;0.309459
2852.000000;0.309513
2851.000000;0.309954
2850.000000;0.310482
2849.000000;0.310740
2848.000000;0.310899
2847.000000;0.311475
2846.000000;0.312668
2845.000000;0.314116
2844.000000;0.315272
2843.000000;0.315898
2842.000000;0.316180
2841.000000;0.316440
2840.000000;0.316781
2839.000000;0.317024
2838.000000;0.317032
2837.000000;0.317023
2836.000000;0.317423
2835.000000;0.318373
2834.000000;0.319521
2833.000000;0.320401
2832.000000;0.320927
2831.000000;0.321414
2830.000000;0.322137
2829.000000;0.323015
2828.000000;0.323701
2827.000000;0.323953
2826.000000;0.323878
2825.000000;0.323855
2824.000000;0.324193
2823.000000;0.324864
2822.000000;0.325571
2821.000000;0.326073
2820.000000;0.326410
2819.000000;0.326832
2818.000000;0.327567
2817.000000;0.328635
2816.000000;0.329842
2815.000000;0.330892
2814.000000;0.331552
2813.000000;0.331732
2812.000000;0.331464
2811.000000;0.330906
2810.000000;0.330401
2809.000000;0.330418
2808.000000;0.331247
2807.000000;0.332684
2806.000000;0.334110
2805.000000;0.334996
2804.000000;0.335354
2803.000000;0.335676
2802.000000;0.336411
2801.000000;0.337503
2800.000000;0.338439
2799.000000;0.338719
2798.000000;0.338272
2797.000000;0.337430
2796.000000;0.336637
2795.000000;0.336268
2794.000000;0.336577
2793.000000;0.337527
2792.000000;0.338647
2791.000000;0.339352
2790.000000;0.339566
2789.000000;0.339834
2788.000000;0.340604
2787.000000;0.341606
2786.000000;0.342258
2785.000000;0.342579
2784.000000;0.343270
2783.000000;0.344786
2782.000000;0.346640
2781.000000;0.347859
2780.000000;0.348005
2779.000000;0.347546
2778.000000;0.347294
2777.000000;0.347682
2776.000000;0.348579
2775.000000;0.349626
2774.000000;0.350608
2773.000000;0.351509
2772.000000;0.352308
2771.000000;0.352873
2770.000000;0.353096
2769.000000;0.353061
2768.000000;0.352990
2767.000000;0.353053
2766.000000;0.353294
2765.000000;0.353687
2764.000000;0.354182
2763.000000;0.354697
2762.000000;0.355180
2761.000000;0.355695
2760.000000;0.356392
2759.000000;0.357384
2758.000000;0.358647
2757.000000;0.359988
2756.000000;0.361080
2755.000000;0.361648
2754.000000;0.361741
2753.000000;0.361781
2752.000000;0.362196
2751.000000;0.362973
2750.000000;0.363636
2749.000000;0.363707
2748.000000;0.363206
2747.000000;0.362719
2746.000000;0.362947
2745.000000;0.364078
2744.000000;0.365552
2743.000000;0.366504
2742.000000;0.366572
2741.000000;0.366204
2740.000000;0.366146
2739.000000;0.366728
2738.000000;0.367748
2737.000000;0.368855
2736.000000;0.369812
2735.000000;0.370471
2734.000000;0.370759
2733.000000;0.370743
2732.000000;0.370582
2731.000000;0.370403
2730.000000;0.370323
2729.000000;0.370537
2728.000000;0.371209
2727.000000;0.372226
2726.000000;0.373173
2725.000000;0.373662
2724.000000;0.373698
2723.000000;0.373693
2722.000000;0.374136
2721.000000;0.375202
2720.000000;0.376614
2719.000000;0.377858
2718.000000;0.378545
2717.000000;0.378626
2716.000000;0.378373
2715.000000;0.378285
2714.000000;0.378879
2713.000000;0.380276
2712.000000;0.381915
2711.000000;0.382973
2710.000000;0.383208
2709.000000;0.383160
2708.000000;0.383391
2707.000000;0.383832
2706.000000;0.384139
2705.000000;0.384381
2704.000000;0.384936
2703.000000;0.385837
2702.000000;0.386691
2701.000000;0.387255
2700.000000;0.387684
2699.000000;0.388138
2698.000000;0.388514
2697.000000;0.388728
2696.000000;0.388957
2695.000000;0.389408
2694.000000;0.390073
2693.000000;0.390874
2692.000000;0.391855
2691.000000;0.393047
2690.000000;0.394271
2689.000000;0.395278
2688.000000;0.396011
2687.000000;0.396600
2686.000000;0.397155
2685.000000;0.397635
2684.000000;0.397906
2683.000000;0.397878
2682.000000;0.397658
2681.000000;0.397563
2680.000000;0.397879
2679.000000;0.398569
2678.000000;0.399330
2677.000000;0.399946
2676.000000;0.400426
2675.000000;0.400800
2674.000000;0.401002
2673.000000;0.401093
2672.000000;0.401391
2671.000000;0.402160
2670.000000;0.403249
2669.000000;0.404228
2668.000000;0.404859
2667.000000;0.405281
2666.000000;0.405701
2665.000000;0.406058
2664.000000;0.406155
2663.000000;0.406062
2662.000000;0.406214
2661.000000;0.406965
2660.000000;0.408117
2659.000000;0.409064
2658.000000;0.409459
2657.000000;0.409547
2656.000000;0.409738
2655.000000;0.410070
2654.000000;0.410323
2653.000000;0.410553
2652.000000;0.411169
2651.000000;0.412401
2650.000000;0.413919
2649.000000;0.415126
2648.000000;0.415694
2647.000000;0.415760
2646.000000;0.415735
2645.000000;0.416005
2644.000000;0.416693
2643.000000;0.417580
2642.000000;0.418328
2641.000000;0.418830
2640.000000;0.419268
2639.000000;0.419789
2638.000000;0.420262
2637.000000;0.420476
2636.000000;0.420489
2635.000000;0.420650
2634.000000;0.421273
2633.000000;0.422355
2632.000000;0.423552
2631.000000;0.424403
2630.000000;0.424676
2629.000000;0.424580
2628.000000;0.424607
2627.000000;0.425069
2626.000000;0.425809
2625.000000;0.426413
2624.000000;0.426717
2623.000000;0.426987
2622.000000;0.427578
2621.000000;0.428512
2620.000000;0.429460
2619.000000;0.430081
2618.000000;0.430302
2617.000000;0.430275
2616.000000;0.430205
2615.000000;0.430291
2614.000000;0.430725
2613.000000;0.431592
2612.000000;0.432805
2611.000000;0.434182
2610.000000;0.435549
2609.000000;0.436683
2608.000000;0.437324
2607.000000;0.437460
2606.000000;0.437531
2605.000000;0.438064
2604.000000;0.439054
2603.000000;0.439936
2602.000000;0.440246
2601.000000;0.440110
2600.000000;0.440013
2599.000000;0.440315
2598.000000;0.441071
2597.000000;0.442057
2596.000000;0.442843
2595.000000;0.443125
2594.000000;0.443141
2593.000000;0.443487
2592.000000;0.444343
2591.000000;0.445202
2590.000000;0.445630
2589.000000;0.445936
2588.000000;0.446647
2587.000000;0.447638
2586.000000;0.448300
2585.000000;0.448485
2584.000000;0.448687
2583.000000;0.449235
2582.000000;0.449831
2581.000000;0.450106
2580.000000;0.450223
2579.000000;0.450646
2578.000000;0.451516
2577.000000;0.452486
2576.000000;0.453096
2575.000000;0.453216
2574.000000;0.453215
2573.000000;0.453654
2572.000000;0.454674
2571.000000;0.455759
2570.000000;0.456277
2569.000000;0.456232
2568.000000;0.456244
2567.000000;0.456846
2566.000000;0.458052
2565.000000;0.459545
2564.000000;0.460918
2563.000000;0.461710
2562.000000;0.461636
2561.000000;0.461008
2560.000000;0.460615
2559.000000;0.460986
2558.000000;0.461958
2557.000000;0.463070
2556.000000;0.464061
2555.000000;0.464808
2554.000000;0.465079
2553.000000;0.464773
2552.000000;0.464278
2551.000000;0.464232
2550.000000;0.464869
2549.000000;0.465808
2548.000000;0.466522
2547.000000;0.466871
2546.000000;0.467130
2545.000000;0.467573
2544.000000;0.468153
2543.000000;0.468616
2542.000000;0.468903
2541.000000;0.469283
2540.000000;0.469989
2539.000000;0.470841
2538.000000;0.471423
2537.000000;0.471627
2536.000000;0.471801
2535.000000;0.472348
2534.000000;0.473375
2533.000000;0.474738
2532.000000;0.476180
2531.000000;0.477352
2530.000000;0.477970
2529.000000;0.478174
2528.000000;0.478543
2527.000000;0.479532
2526.000000;0.480949
2525.000000;0.482076
2524.000000;0.482303
2523.000000;0.481634
2522.000000;0.480714
2521.000000;0.480360
2520.000000;0.480913
2519.000000;0.481959
2518.000000;0.482795
2517.000000;0.483219
2516.000000;0.483685
2515.000000;0.484675
2514.000000;0.486156
2513.000000;0.487724
2512.000000;0.489020
2511.000000;0.489856
2510.000000;0.490148
2509.000000;0.490020
2508.000000;0.489867
2507.000000;0.490097
2506.000000;0.490762
2505.000000;0.491530
2504.000000;0.491980
2503.000000;0.491931
2502.000000;0.491635
2501.000000;0.491669
2500.000000;0.492475
2499.000000;0.493887
2498.000000;0.495237
2497.000000;0.496028
2496.000000;0.496355
2495.000000;0.496541
2494.000000;0.496665
2493.000000;0.496700
2492.000000;0.496880
2491.000000;0.497578
2490.000000;0.498847
2489.000000;0.500277
2488.000000;0.501326
2487.000000;0.501701
2486.000000;0.501527
2485.000000;0.501302
2484.000000;0.501559
2483.000000;0.502355
2482.000000;0.503145
2481.000000;0.503387
2480.000000;0.503194
2479.000000;0.503165
2478.000000;0.503654
2477.000000;0.504503
2476.000000;0.505458
2475.000000;0.506482
2474.000000;0.507518
2473.000000;0.508252
2472.000000;0.508384
2471.000000;0.508080
2470.000000;0.507926
2469.000000;0.508385
2468.000000;0.509354
2467.000000;0.510266
2466.000000;0.510652
2465.000000;0.510645
2464.000000;0.510914
2463.000000;0.511999
2462.000000;0.513750
2461.000000;0.515461
2460.000000;0.516546
2459.000000;0.516988
2458.000000;0.517135
2457.000000;0.517243
2456.000000;0.517340
2455.000000;0.517448
2454.000000;0.517739
2453.000000;0.518408
2452.000000;0.519385
2451.000000;0.520272
2450.000000;0.520664
2449.000000;0.520554
2448.000000;0.520358
2447.000000;0.520478
2446.000000;0.520928
2445.000000;0.521465
2444.000000;0.521961
2443.000000;0.522457
2442.000000;0.522941
2441.000000;0.523332
2440.000000;0.523738
2439.000000;0.524456
2438.000000;0.525539
2437.000000;0.526527
2436.000000;0.526866
2435.000000;0.526542
2434.000000;0.526131
2433.000000;0.526216
2432.000000;0.526922
2431.000000;0.528013
2430.000000;0.529231
2429.000000;0.530421
2428.000000;0.531465
2427.000000;0.532221
2426.000000;0.532545
2425.000000;0.532353
2424.000000;0.531789
2423.000000;0.531329
2422.000000;0.531541
2421.000000;0.532574
2420.000000;0.533983
2419.000000;0.535200
2418.000000;0.536082
2417.000000;0.536779
2416.000000;0.537192
2415.000000;0.536951
2414.000000;0.536039
2413.000000;0.535083
2412.000000;0.534818
2411.000000;0.535445
2410.000000;0.536705
2409.000000;0.538313
2408.000000;0.540004
2407.000000;0.541328
2406.000000;0.541884
2405.000000;0.541868
2404.000000;0.542057
2403.000000;0.543043
2402.000000;0.544633
2401.000000;0.546137
2400.000000;0.547079
2399.000000;0.547493
2398.000000;0.547690
2397.000000;0.547988
2396.000000;0.548595
2395.000000;0.549491
2394.000000;0.550330
2393.000000;0.550663
2392.000000;0.550420
2391.000000;0.550093
2390.000000;0.550300
2389.000000;0.551169
2388.000000;0.552255
2387.000000;0.553061
2386.000000;0.553511
2385.000000;0.553866
2384.000000;0.554349
2383.000000;0.555031
2382.000000;0.555963
2381.000000;0.557096
2380.000000;0.558047
2379.000000;0.558281
2378.000000;0.557768
2377.000000;0.557254
2376.000000;0.557567
2375.000000;0.558720
2374.000000;0.559962
2373.000000;0.560703
2372.000000;0.561152
2371.000000;0.561919
2370.000000;0.563194
2369.000000;0.564492
2368.000000;0.565178
2367.000000;0.565105
2366.000000;0.564756
2365.000000;0.564791
2364.000000;0.565415
2363.000000;0.566189
2362.000000;0.566501
2361.000000;0.566212
2360.000000;0.565859
2359.000000;0.566191
2358.000000;0.567491
2357.000000;0.569348
2356.000000;0.570920
2355.000000;0.571597
2354.000000;0.571455
2353.000000;0.571197
2352.000000;0.571515
2351.000000;0.572417
2350.000000;0.573328
2349.000000;0.573763
2348.000000;0.573828
2347.000000;0.573983
2346.000000;0.574450
2345.000000;0.575149
2344.000000;0.575947
2343.000000;0.576848
2342.000000;0.577760
2341.000000;0.578359
2340.000000;0.578374
2339.000000;0.577947
2338.000000;0.577618
2337.000000;0.577879
2336.000000;0.578850
2335.000000;0.580298
2334.000000;0.581868
2333.000000;0.583133
2332.000000;0.583672
2331.000000;0.583234
2330.000000;0.582203
2329.000000;0.581442
2328.000000;0.581666
2327.000000;0.582805
2326.000000;0.584139
2325.000000;0.584983
2324.000000;0.585156
2323.000000;0.585005
2322.000000;0.585069
2321.000000;0.585725
2320.000000;0.586902
2319.000000;0.588067
2318.000000;0.588724
2317.000000;0.588887
2316.000000;0.589087
2315.000000;0.589721
2314.000000;0.590635
2313.000000;0.591267
2312.000000;0.591260
2311.000000;0.590777
2310.000000;0.590406
2309.000000;0.590687
2308.000000;0.591738
2307.000000;0.593184
2306.000000;0.594515
2305.000000;0.595462
2304.000000;0.596054
2303.000000;0.596337
2302.000000;0.596293
2301.000000;0.596013
2300.000000;0.595830
2299.000000;0.596023
2298.000000;0.596549
2297.000000;0.597120
2296.000000;0.597535
2295.000000;0.597797
2294.000000;0.597999
2293.000000;0.598291
2292.000000;0.598952
2291.000000;0.600217
2290.000000;0.601880
2289.000000;0.603227
2288.000000;0.603638
2287.000000;0.603251
2286.000000;0.602805
2285.000000;0.602783
2284.000000;0.602907
2283.000000;0.602630
2282.000000;0.601994
2281.000000;0.601748
2280.000000;0.602586
2279.000000;0.604425
2278.000000;0.606501
2277.000000;0.608029
2276.000000;0.608722
2275.000000;0.608759
2274.000000;0.608431
2273.000000;0.607961
2272.000000;0.607607
2271.000000;0.607734
2270.000000;0.608586
2269.000000;0.609948
2268.000000;0.611238
2267.000000;0.612076
2266.000000;0.612687
2265.000000;0.613591
2264.000000;0.614933
2263.000000;0.616315
2262.000000;0.617237
2261.000000;0.617540
2260.000000;0.617436
2259.000000;0.617300
2258.000000;0.617463
2257.000000;0.617989
2256.000000;0.618606
2255.000000;0.619011
2254.000000;0.619270
2253.000000;0.619679
2252.000000;0.620272
2251.000000;0.620733
2250.000000;0.620919
2249.000000;0.621132
2248.000000;0.621676
2247.000000;0.622413
2246.000000;0.623030
2245.000000;0.623556
2244.000000;0.624326
2243.000000;0.625527
2242.000000;0.627012
2241.000000;0.628470
2240.000000;0.629530
2239.000000;0.629830
2238.000000;0.629291
2237.000000;0.628358
2236.000000;0.627744
2235.000000;0.627842
2234.000000;0.628495
2233.000000;0.629261
2232.000000;0.629801
2231.000000;0.630063
2230.000000;0.630334
2229.000000;0.631039
2228.000000;0.632291
2227.000000;0.633595
2226.000000;0.634223
2225.000000;0.633973
2224.000000;0.633437
2223.000000;0.633446
2222.000000;0.634371
2221.000000;0.635940
2220.000000;0.637565
2219.000000;0.638774
2218.000000;0.639413
2217.000000;0.639609
2216.000000;0.639612
2215.000000;0.639654
2214.000000;0.639848
2213.000000;0.640121
2212.000000;0.640287
2211.000000;0.640301
2210.000000;0.640414
2209.000000;0.640907
2208.000000;0.641673
2207.000000;0.642317
2206.000000;0.642738
2205.000000;0.643320
2204.000000;0.644388
2203.000000;0.645671
2202.000000;0.646567
2201.000000;0.646802
2200.000000;0.646617
2199.000000;0.646412
2198.000000;0.646479
2197.000000;0.646983
2196.000000;0.647929
2195.000000;0.649120
2194.000000;0.650297
2193.000000;0.651273
2192.000000;0.651829
2191.000000;0.651690
2190.000000;0.650895
2189.000000;0.650080
2188.000000;0.650049
2187.000000;0.650986
2186.000000;0.652314
2185.000000;0.653390
2184.000000;0.654118
2183.000000;0.654780
2182.000000;0.655469
2181.000000;0.655931
2180.000000;0.655957
2179.000000;0.655799
2178.000000;0.656042
2177.000000;0.656996
2176.000000;0.658279
2175.000000;0.659169
2174.000000;0.659348
2173.000000;0.659152
2172.000000;0.659081
2171.000000;0.659355
2170.000000;0.659999
2169.000000;0.661001
2168.000000;0.662155
2167.000000;0.663028
2166.000000;0.663386
2165.000000;0.663457
2164.000000;0.663548
2163.000000;0.663683
2162.000000;0.663906
2161.000000;0.664600
2160.000000;0.666059
2159.000000;0.667870
2158.000000;0.669196
2157.000000;0.669647
2156.000000;0.669513
2155.000000;0.669256
2154.000000;0.669184
2153.000000;0.669566
2152.000000;0.670549
2151.000000;0.671870
2150.000000;0.673038
2149.000000;0.673867
2148.000000;0.674506
2147.000000;0.674953
2146.000000;0.674987
2145.000000;0.674663
2144.000000;0.674450
2143.000000;0.674699
2142.000000;0.675295
2141.000000;0.675959
2140.000000;0.676583
2139.000000;0.677127
2138.000000;0.677509
2137.000000;0.677775
2136.000000;0.678154
2135.000000;0.678807
2134.000000;0.679691
2133.000000;0.680712
2132.000000;0.681791
2131.000000;0.682727
2130.000000;0.683310
2129.000000;0.683641
2128.000000;0.684034
2127.000000;0.684492
2126.000000;0.684637
2125.000000;0.684339
2124.000000;0.684085
2123.000000;0.684489
2122.000000;0.685639
2121.000000;0.687072
2120.000000;0.688217
2119.000000;0.688731
2118.000000;0.688640
2117.000000;0.688341
2116.000000;0.688326
2115.000000;0.688773
2114.000000;0.689540
2113.000000;0.690504
2112.000000;0.691612
2111.000000;0.692582
2110.000000;0.692987
2109.000000;0.692874
2108.000000;0.692935
2107.000000;0.693756
2106.000000;0.695101
2105.000000;0.696188
2104.000000;0.696513
2103.000000;0.696197
2102.000000;0.695716
2101.000000;0.695556
2100.000000;0.695965
2099.000000;0.696795
2098.000000;0.697645
2097.000000;0.698317
2096.000000;0.698954
2095.000000;0.699641
2094.000000;0.700124
2093.000000;0.700212
2092.000000;0.700211
2091.000000;0.700601
2090.000000;0.701369
2089.000000;0.702030
2088.000000;0.702333
2087.000000;0.702648
2086.000000;0.703521
2085.000000;0.704946
2084.000000;0.706222
2083.000000;0.706574
2082.000000;0.705982
2081.000000;0.705372
2080.000000;0.705841
2079.000000;0.707631
2078.000000;0.709906
2077.000000;0.711516
2076.000000;0.711916
2075.000000;0.711437
2074.000000;0.710889
2073.000000;0.710981
2072.000000;0.711873
2071.000000;0.713090
2070.000000;0.713990
2069.000000;0.714414
2068.000000;0.714747
2067.000000;0.715311
2066.000000;0.715948
2065.000000;0.716332
2064.000000;0.716467
2063.000000;0.716681
2062.000000;0.717221
2061.000000;0.718040
2060.000000;0.718863
2059.000000;0.719388
2058.000000;0.719532
2057.000000;0.719552
2056.000000;0.719792
2055.000000;0.720277
2054.000000;0.720734
2053.000000;0.721061
2052.000000;0.721453
2051.000000;0.721971
2050.000000;0.722332
2049.000000;0.722361
2048.000000;0.722363
2047.000000;0.722724
2046.000000;0.723335
2045.000000;0.723772
2044.000000;0.723908
2043.000000;0.724083
2042.000000;0.724689
2041.000000;0.725830
2040.000000;0.727332
2039.000000;0.728844
2038.000000;0.730009
2037.000000;0.730741
2036.000000;0.731274
2035.000000;0.731775
2034.000000;0.732066
2033.000000;0.732004
2032.000000;0.731961
2031.000000;0.732520
2030.000000;0.733708
2029.000000;0.734909
2028.000000;0.735605
2027.000000;0.735915
2026.000000;0.736257
2025.000000;0.736791
2024.000000;0.737395
2023.000000;0.737936
2022.000000;0.738326
2021.000000;0.738438
2020.000000;0.738260
2019.000000;0.738122
2018.000000;0.738491
2017.000000;0.739407
2016.000000;0.740319
2015.000000;0.740676
2014.000000;0.740678
2013.000000;0.741156
2012.000000;0.742573
2011.000000;0.744351
2010.000000;0.745387
2009.000000;0.745235
2008.000000;0.744521
2007.000000;0.744211
2006.000000;0.744703
2005.000000;0.745694
2004.000000;0.746685
2003.000000;0.747404
2002.000000;0.747905
2001.000000;0.748443
2000.000000;0.749210
1999.000000;0.750096
1998.000000;0.750766
1997.000000;0.751070
1996.000000;0.751240
1995.000000;0.751606
1994.000000;0.752244
1993.000000;0.752998
1992.000000;0.753710
1991.000000;0.754270
1990.000000;0.754556
1989.000000;0.754536
1988.000000;0.754425
1987.000000;0.754591
1986.000000;0.755266
1985.000000;0.756387
1984.000000;0.757624
1983.000000;0.758556
1982.000000;0.758954
1981.000000;0.759052
1980.000000;0.759447
1979.000000;0.760564
1978.000000;0.762177
1977.000000;0.763551
1976.000000;0.764085
1975.000000;0.763802
1974.000000;0.763271
1973.000000;0.763113
1972.000000;0.763576
1971.000000;0.764459
1970.000000;0.765387
1969.000000;0.766114
1968.000000;0.766607
1967.000000;0.766959
1966.000000;0.767324
1965.000000;0.767820
1964.000000;0.768375
1963.000000;0.768750
1962.000000;0.768870
1961.000000;0.769059
1960.000000;0.769712
1959.000000;0.770778
1958.000000;0.771837
1957.000000;0.772690
1956.000000;0.773518
1955.000000;0.774396
1954.000000;0.775029
1953.000000;0.775198
1952.000000;0.775205
1951.000000;0.775551
1950.000000;0.776315
1949.000000;0.777107
1948.000000;0.777531
1947.000000;0.777561
1946.000000;0.777557
1945.000000;0.778026
1944.000000;0.779190
1943.000000;0.780619
1942.000000;0.781499
1941.000000;0.781506
1940.000000;0.781182
1939.000000;0.781216
1938.000000;0.781573
1937.000000;0.781645
1936.000000;0.781155
1935.000000;0.780562
1934.000000;0.780573
1933.000000;0.781499
1932.000000;0.783110
1931.000000;0.784848
1930.000000;0.786154
1929.000000;0.786854
1928.000000;0.787267
1927.000000;0.787840
1926.000000;0.788638
1925.000000;0.789366
1924.000000;0.789838
1923.000000;0.790180
1922.000000;0.790587
1921.000000;0.791110
1920.000000;0.791776
1919.000000;0.792681
1918.000000;0.793790
1917.000000;0.794799
1916.000000;0.795394
1915.000000;0.795569
1914.000000;0.795597
1913.000000;0.795727
1912.000000;0.796009
1911.000000;0.796358
1910.000000;0.796666
1909.000000;0.796842
1908.000000;0.796834
1907.000000;0.796731
1906.000000;0.796792
1905.000000;0.797277
1904.000000;0.798214
1903.000000;0.799350
1902.000000;0.800370
1901.000000;0.801178
1900.000000;0.801901
1899.000000;0.802668
1898.000000;0.803467
1897.000000;0.804240
1896.000000;0.805072
1895.000000;0.806131
1894.000000;0.807433
1893.000000;0.808705
1892.000000;0.809534
1891.000000;0.809750
1890.000000;0.809621
1889.000000;0.809591
1888.000000;0.809731
1887.000000;0.809585
1886.000000;0.808754
1885.000000;0.807587
1884.000000;0.807005
1883.000000;0.807617
1882.000000;0.809141
1881.000000;0.810650
1880.000000;0.811228
1879.000000;0.810543
1878.000000;0.809089
1877.000000;0.807876
1876.000000;0.807611
1875.000000;0.808124
1874.000000;0.808799
1873.000000;0.809498
1872.000000;0.810616
1871.000000;0.812351
1870.000000;0.814463
1869.000000;0.816684
1868.000000;0.818976
1867.000000;0.821226
1866.000000;0.822920
1865.000000;0.823546
1864.000000;0.823277
1863.000000;0.822889
1862.000000;0.823046
1861.000000;0.823874
1860.000000;0.825081
1859.000000;0.826195
1858.000000;0.826784
1857.000000;0.826761
1856.000000;0.826516
1855.000000;0.826579
1854.000000;0.827135
1853.000000;0.828006
1852.000000;0.828902
1851.000000;0.829556
1850.000000;0.829743
1849.000000;0.829399
1848.000000;0.828736
1847.000000;0.828137
1846.000000;0.827995
1845.000000;0.828620
1844.000000;0.830026
1843.000000;0.831770
1842.000000;0.833158
1841.000000;0.833891
1840.000000;0.834522
1839.000000;0.835930
1838.000000;0.838195
1837.000000;0.840214
1836.000000;0.840716
1835.000000;0.839693
1834.000000;0.838566
1833.000000;0.838837
1832.000000;0.840590
1831.000000;0.842503
1830.000000;0.843372
1829.000000;0.843338
1828.000000;0.843298
1827.000000;0.843405
1826.000000;0.843079
1825.000000;0.842498
1824.000000;0.842879
1823.000000;0.844759
1822.000000;0.846880
1821.000000;0.847611
1820.000000;0.847014
1819.000000;0.846544
1818.000000;0.846959
1817.000000;0.847609
1816.000000;0.847806
1815.000000;0.847862
1814.000000;0.848378
1813.000000;0.849222
1812.000000;0.849824
1811.000000;0.850076
1810.000000;0.850387
1809.000000;0.850988
1808.000000;0.851659
1807.000000;0.852095
1806.000000;0.852299
1805.000000;0.852604
1804.000000;0.853403
1803.000000;0.854825
1802.000000;0.856595
1801.000000;0.858138
1800.000000;0.858960
1799.000000;0.859031
1798.000000;0.858787
1797.000000;0.858770
1796.000000;0.859169
1795.000000;0.859652
1794.000000;0.859804
1793.000000;0.859696
1792.000000;0.859789
1791.000000;0.860375
1790.000000;0.861314
1789.000000;0.862352
1788.000000;0.863438
1787.000000;0.864423
1786.000000;0.864786
1785.000000;0.864223
1784.000000;0.863422
1783.000000;0.863573
1782.000000;0.865113
1781.000000;0.867274
1780.000000;0.868927
1779.000000;0.869578
1778.000000;0.869444
1777.000000;0.868990
1776.000000;0.868613
1775.000000;0.868523
1774.000000;0.868849
1773.000000;0.869733
1772.000000;0.871159
1771.000000;0.872886
1770.000000;0.874495
1769.000000;0.875580
1768.000000;0.876140
1767.000000;0.876518
1766.000000;0.876943
1765.000000;0.877384
1764.000000;0.877842
1763.000000;0.878423
1762.000000;0.879066
1761.000000;0.879563
1760.000000;0.879952
1759.000000;0.880479
1758.000000;0.881198
1757.000000;0.881995
1756.000000;0.882905
1755.000000;0.883994
1754.000000;0.884890
1753.000000;0.884946
1752.000000;0.884124
1751.000000;0.883250
1750.000000;0.883111
1749.000000;0.883751
1748.000000;0.884837
1747.000000;0.886163
1746.000000;0.887544
1745.000000;0.888550
1744.000000;0.888822
1743.000000;0.888493
1742.000000;0.887957
1741.000000;0.887431
1740.000000;0.887076
1739.000000;0.887241
1738.000000;0.888109
1737.000000;0.889237
1736.000000;0.890007
1735.000000;0.890549
1734.000000;0.891327
1733.000000;0.892287
1732.000000;0.893039
1731.000000;0.893603
1730.000000;0.894584
1729.000000;0.896385
1728.000000;0.898567
1727.000000;0.900178
1726.000000;0.900669
1725.000000;0.900287
1724.000000;0.899793
1723.000000;0.899951
1722.000000;0.900995
1721.000000;0.902400
1720.000000;0.903293
1719.000000;0.903291
1718.000000;0.902555
1717.000000;0.901352
1716.000000;0.900128
1715.000000;0.899557
1714.000000;0.900095
1713.000000;0.901506
1712.000000;0.903035
1711.000000;0.904153
1710.000000;0.904937
1709.000000;0.905664
1708.000000;0.906247
1707.000000;0.906390
1706.000000;0.906080
1705.000000;0.905705
1704.000000;0.905733
1703.000000;0.906160
1702.000000;0.906574
1701.000000;0.906958
1700.000000;0.907610
1699.000000;0.908685
1698.000000;0.910261
1697.000000;0.912203
1696.000000;0.913990
1695.000000;0.915043
1694.000000;0.915249
1693.000000;0.915139
1692.000000;0.915409
1691.000000;0.916101
1690.000000;0.916589
1689.000000;0.916508
1688.000000;0.916254
1687.000000;0.916255
1686.000000;0.916558
1685.000000;0.917270
1684.000000;0.918212
1683.000000;0.919043
1682.000000;0.919559
1681.000000;0.919702
1680.000000;0.920008
1679.000000;0.921162
1678.000000;0.923024
1677.000000;0.924632
1676.000000;0.925382
1675.000000;0.925594
1674.000000;0.925816
1673.000000;0.926057
1672.000000;0.926075
1671.000000;0.926158
1670.000000;0.926871
1669.000000;0.928259
1668.000000;0.929837
1667.000000;0.931064
1666.000000;0.931673
1665.000000;0.931662
1664.000000;0.931252
1663.000000;0.930702
1662.000000;0.930191
1661.000000;0.929987
1660.000000;0.930426
1659.000000;0.931715
1658.000000;0.933704
1657.000000;0.935863
1656.000000;0.937390
1655.000000;0.938086
1654.000000;0.938748
1653.000000;0.939415
1652.000000;0.939923
1651.000000;0.940416
1650.000000;0.940687
1649.000000;0.940742
1648.000000;0.940965
1647.000000;0.941513
1646.000000;0.942136
1645.000000;0.942759
1644.000000;0.943438
1643.000000;0.944051
1642.000000;0.944347
1641.000000;0.944365
1640.000000;0.944569
1639.000000;0.945336
1638.000000;0.946383
1637.000000;0.947181
1636.000000;0.947502
1635.000000;0.947736
1634.000000;0.948566
1633.000000;0.949824
1632.000000;0.950633
1631.000000;0.950604
1630.000000;0.950262
1629.000000;0.950287
1628.000000;0.950816
1627.000000;0.951649
1626.000000;0.952701
1625.000000;0.953978
1624.000000;0.955276
1623.000000;0.956139
1622.000000;0.956328
1621.000000;0.956117
1620.000000;0.955919
1619.000000;0.955899
1618.000000;0.956074
1617.000000;0.956445
1616.000000;0.957049
1615.000000;0.958037
1614.000000;0.959362
1613.000000;0.960606
1612.000000;0.961376
1611.000000;0.961661
1610.000000;0.961705
1609.000000;0.961672
1608.000000;0.961640
1607.000000;0.961772
1606.000000;0.962311
1605.000000;0.963378
1604.000000;0.964819
1603.000000;0.966299
1602.000000;0.967520
1601.000000;0.968360
1600.000000;0.968864
1599.000000;0.969120
1598.000000;0.969167
1597.000000;0.969092
1596.000000;0.969181
1595.000000;0.969757
1594.000000;0.970740
1593.000000;0.971616
1592.000000;0.972036
1591.000000;0.972289
1590.000000;0.972891
1589.000000;0.973850
1588.000000;0.974688
1587.000000;0.975125
1586.000000;0.975352
1585.000000;0.975668
1584.000000;0.976176
1583.000000;0.976912
1582.000000;0.978010
1581.000000;0.979484
1580.000000;0.980988
1579.000000;0.981998
1578.000000;0.982301
1577.000000;0.982080
1576.000000;0.981555
1575.000000;0.981085
1574.000000;0.981164
1573.000000;0.981812
1572.000000;0.982501
1571.000000;0.982966
1570.000000;0.983515
1569.000000;0.984441
1568.000000;0.985632
1567.000000;0.986658
1566.000000;0.987197
1565.000000;0.987386
1564.000000;0.987675
1563.000000;0.988373
1562.000000;0.989191
1561.000000;0.989336
1560.000000;0.989490
1559.000000;0.990084
1558.000000;0.990476
1557.000000;0.990969
1556.000000;0.991640
1555.000000;0.992112
1554.000000;0.992191
1553.000000;0.992143
1552.000000;0.992330
1551.000000;0.993046
1550.000000;0.994479
1549.000000;0.996456
1548.000000;0.998351
1547.000000;0.999452
1546.000000;0.999591
1545.000000;0.999157
1544.000000;0.998461
1543.000000;0.997602
1542.000000;0.997108
1541.000000;0.997883
1540.000000;0.999626
1539.000000;1.001114
1538.000000;1.001837
1537.000000;1.001924
1536.000000;1.001733
1535.000000;1.001648
1534.000000;1.001952
1533.000000;1.002501
1532.000000;1.002922
1531.000000;1.003172
1530.000000;1.003627
1529.000000;1.004651
1528.000000;1.006089
1527.000000;1.007408
1526.000000;1.008400
1525.000000;1.009358
1524.000000;1.010409
1523.000000;1.011270
1522.000000;1.011722
1521.000000;1.012006
1520.000000;1.012648
1519.000000;1.013724
1518.000000;1.014795
1517.000000;1.015514
1516.000000;1.015931
1515.000000;1.016278
1514.000000;1.016573
1513.000000;1.016734
1512.000000;1.016960
1511.000000;1.017629
1510.000000;1.018784
1509.000000;1.020025
1508.000000;1.021280
1507.000000;1.022227
1506.000000;1.022322
1505.000000;1.022111
1504.000000;1.022233
1503.000000;1.022696
1502.000000;1.023273
1501.000000;1.023891
1500.000000;1.024553
1499.000000;1.025128
1498.000000;1.025461
1497.000000;1.025469
1496.000000;1.025189
1495.000000;1.024860
1494.000000;1.024846
1493.000000;1.025381
1492.000000;1.026316
1491.000000;1.027298
1490.000000;1.028128
1489.000000;1.028919
1488.000000;1.029930
1487.000000;1.031148
1486.000000;1.032246
1485.000000;1.033027
1484.000000;1.033570
1483.000000;1.033932
1482.000000;1.034089
1481.000000;1.034119
1480.000000;1.034194
1479.000000;1.034368
1478.000000;1.034696
1477.000000;1.035475
1476.000000;1.036915
1475.000000;1.038532
1474.000000;1.039459
1473.000000;1.039429
1472.000000;1.039060
1471.000000;1.039193
1470.000000;1.039945
1469.000000;1.040700
1468.000000;1.041023
1467.000000;1.041127
1466.000000;1.041516
1465.000000;1.042480
1464.000000;1.043934
1463.000000;1.045571
1462.000000;1.046970
1461.000000;1.047833
1460.000000;1.048206
1459.000000;1.048373
1458.000000;1.048451
1457.000000;1.048105
1456.000000;1.047386
1455.000000;1.046944
1454.000000;1.047035
1453.000000;1.047345
1452.000000;1.047634
1451.000000;1.048278
1450.000000;1.049852
1449.000000;1.052280
1448.000000;1.054647
1447.000000;1.055902
1446.000000;1.055782
1445.000000;1.054985
1444.000000;1.054390
1443.000000;1.054400
1442.000000;1.054998
1441.000000;1.056104
1440.000000;1.057556
1439.000000;1.058893
1438.000000;1.059569
1437.000000;1.059510
1436.000000;1.059227
1435.000000;1.059326
1434.000000;1.059983
1433.000000;1.060917
1432.000000;1.061822
1431.000000;1.062611
1430.000000;1.063296
1429.000000;1.063840
1428.000000;1.064259
1427.000000;1.064614
1426.000000;1.064898
1425.000000;1.065176
1424.000000;1.065645
1423.000000;1.066460
1422.000000;1.067452
1421.000000;1.068145
1420.000000;1.068301
1419.000000;1.068202
1418.000000;1.068313
1417.000000;1.068937
1416.000000;1.070029
1415.000000;1.071217
1414.000000;1.072059
1413.000000;1.072314
1412.000000;1.072081
1411.000000;1.071732
1410.000000;1.071695
1409.000000;1.072215
1408.000000;1.073332
1407.000000;1.074908
1406.000000;1.076589
1405.000000;1.077923
1404.000000;1.078733
1403.000000;1.079349
1402.000000;1.080166
1401.000000;1.081054
1400.000000;1.081520
1399.000000;1.081411
1398.000000;1.081175
1397.000000;1.081286
1396.000000;1.081656
1395.000000;1.081832
1394.000000;1.081689
1393.000000;1.081627
1392.000000;1.082015
1391.000000;1.082749
1390.000000;1.083481
1389.000000;1.084091
1388.000000;1.084804
1387.000000;1.085881
1386.000000;1.087269
1385.000000;1.088545
1384.000000;1.089226
1383.000000;1.089300
1382.000000;1.089328
1381.000000;1.089801
1380.000000;1.090518
1379.000000;1.090855
1378.000000;1.090682
1377.000000;1.090668
1376.000000;1.091545
1375.000000;1.093240
1374.000000;1.094934
1373.000000;1.095959
1372.000000;1.096376
1371.000000;1.096608
1370.000000;1.096806
1369.000000;1.096796
1368.000000;1.096466
1367.000000;1.096039
1366.000000;1.095889
1365.000000;1.096196
1364.000000;1.096907
1363.000000;1.097935
1362.000000;1.099226
1361.000000;1.100575
1360.000000;1.101511
1359.000000;1.101619
1358.000000;1.101054
1357.000000;1.100536
1356.000000;1.100767
1355.000000;1.101918
1354.000000;1.103560
1353.000000;1.104900
1352.000000;1.105215
1351.000000;1.104448
1350.000000;1.103449
1349.000000;1.103378
1348.000000;1.104677
1347.000000;1.106795
1346.000000;1.108873
1345.000000;1.110401
1344.000000;1.111159
1343.000000;1.111060
1342.000000;1.110381
1341.000000;1.109813
1340.000000;1.109830
1339.000000;1.110178
1338.000000;1.110409
1337.000000;1.110662
1336.000000;1.111432
1335.000000;1.112713
1334.000000;1.113952
1333.000000;1.114874
1332.000000;1.115860
1331.000000;1.117319
1330.000000;1.119058
1329.000000;1.120420
1328.000000;1.120868
1327.000000;1.120347
1326.000000;1.119283
1325.000000;1.118313
1324.000000;1.117871
1323.000000;1.117956
1322.000000;1.118365
1321.000000;1.119018
1320.000000;1.119828
1319.000000;1.120513
1318.000000;1.120914
1317.000000;1.121421
1316.000000;1.122569
1315.000000;1.124204
1314.000000;1.125536
1313.000000;1.126104
1312.000000;1.126169
1311.000000;1.126089
1310.000000;1.125917
1309.000000;1.125885
1308.000000;1.126687
1307.000000;1.128714
1306.000000;1.131262
1305.000000;1.133054
1304.000000;1.133517
1303.000000;1.133157
1302.000000;1.132741
1301.000000;1.132536
1300.000000;1.132395
1299.000000;1.132213
1298.000000;1.132152
1297.000000;1.132565
1296.000000;1.133764
1295.000000;1.135693
1294.000000;1.137730
1293.000000;1.139003
1292.000000;1.139097
1291.000000;1.138495
1290.000000;1.138198
1289.000000;1.138806
1288.000000;1.139934
1287.000000;1.140612
1286.000000;1.140374
1285.000000;1.139850
1284.000000;1.140110
1283.000000;1.141516
1282.000000;1.143402
1281.000000;1.144832
1280.000000;1.145437
1279.000000;1.145515
1278.000000;1.145620
1277.000000;1.146131
1276.000000;1.146983
1275.000000;1.147727
1274.000000;1.148056
1273.000000;1.148287
1272.000000;1.149028
1271.000000;1.150327
1270.000000;1.151518
1269.000000;1.152033
1268.000000;1.152034
1267.000000;1.152005
1266.000000;1.152102
1265.000000;1.152190
1264.000000;1.152224
1263.000000;1.152251
1262.000000;1.152236
1261.000000;1.152241
1260.000000;1.152609
1259.000000;1.153639
1258.000000;1.155161
1257.000000;1.156680
1256.000000;1.157850
1255.000000;1.158550
1254.000000;1.158689
1253.000000;1.158310
1252.000000;1.157853
1251.000000;1.157925
1250.000000;1.158742
1249.000000;1.159976
1248.000000;1.161167
1247.000000;1.162085
1246.000000;1.162704
1245.000000;1.163051
1244.000000;1.163135
1243.000000;1.162954
1242.000000;1.162591
1241.000000;1.162348
1240.000000;1.162629
1239.000000;1.163530
1238.000000;1.164679
1237.000000;1.165642
1236.000000;1.166357
1235.000000;1.167011
1234.000000;1.167669
1233.000000;1.168260
1232.000000;1.168789
1231.000000;1.169316
1230.000000;1.169819
1229.000000;1.170290
1228.000000;1.170817
1227.000000;1.171322
1226.000000;1.171455
1225.000000;1.171113
1224.000000;1.170897
1223.000000;1.171588
1222.000000;1.173169
1221.000000;1.174775
1220.000000;1.175658
1219.000000;1.175882
1218.000000;1.175985
1217.000000;1.176336
1216.000000;1.177006
1215.000000;1.177932
1214.000000;1.178929
1213.000000;1.179659
1212.000000;1.179818
1211.000000;1.179378
1210.000000;1.178670
1209.000000;1.178279
1208.000000;1.178743
1207.000000;1.180112
1206.000000;1.181777
1205.000000;1.182937
1204.000000;1.183325
1203.000000;1.183321
1202.000000;1.183496
1201.000000;1.184033
1200.000000;1.184542
