Criado como novo conjunto de dados;"0307_DANIEL.spp","74885.7 Secs"
cm-1;Abs
10000.000000;0.557702
9999.000000;0.556960
9998.000000;0.556220
9997.000000;0.555481
9996.000000;0.554743
9995.000000;0.554006
9994.000000;0.553271
9993.000000;0.552537
9992.000000;0.551803
9991.000000;0.551111
9990.000000;0.550432
9989.000000;0.549785
9988.000000;0.549138
9987.000000;0.548323
9986.000000;0.547189
9985.000000;0.545868
9984.000000;0.544762
9983.000000;0.544158
9982.000000;0.543902
9981.000000;0.543551
9980.000000;0.542848
9979.000000;0.541941
9978.000000;0.541111
9977.000000;0.540415
9976.000000;0.539697
9975.000000;0.538859
9974.000000;0.537974
9973.000000;0.537082
9972.000000;0.536032
9971.000000;0.534682
9970.000000;0.533200
9969.000000;0.531991
9968.000000;0.531270
9967.000000;0.530816
9966.000000;0.530252
9965.000000;0.529496
9964.000000;0.528790
9963.000000;0.528317
9962.000000;0.527932
9961.000000;0.527328
9960.000000;0.526357
9959.000000;0.525116
9958.000000;0.523819
9957.000000;0.522658
9956.000000;0.521732
9955.000000;0.521042
9954.000000;0.520534
9953.000000;0.520166
9952.000000;0.519870
9951.000000;0.519463
9950.000000;0.518746
9949.000000;0.517755
9948.000000;0.516793
9947.000000;0.516081
9946.000000;0.515439
9945.000000;0.514478
9944.000000;0.513077
9943.000000;0.511533
9942.000000;0.510234
9941.000000;0.509315
9940.000000;0.508619
9939.000000;0.507870
9938.000000;0.506848
9937.000000;0.505529
9936.000000;0.504141
9935.000000;0.502986
9934.000000;0.502134
9933.000000;0.501365
9932.000000;0.500443
9931.000000;0.499392
9930.000000;0.498409
9929.000000;0.497564
9928.000000;0.496674
9927.000000;0.495512
9926.000000;0.494084
9925.000000;0.492686
9924.000000;0.491671
9923.000000;0.491154
9922.000000;0.490944
9921.000000;0.490762
9920.000000;0.490466
9919.000000;0.490019
9918.000000;0.489316
9917.000000;0.488237
9916.000000;0.486895
9915.000000;0.485691
9914.000000;0.484973
9913.000000;0.484683
9912.000000;0.484388
9911.000000;0.483667
9910.000000;0.482449
9909.000000;0.481035
9908.000000;0.479830
9907.000000;0.478992
9906.000000;0.478305
9905.000000;0.477416
9904.000000;0.476228
9903.000000;0.474975
9902.000000;0.473874
9901.000000;0.472836
9900.000000;0.471628
9899.000000;0.470252
9898.000000;0.469000
9897.000000;0.468124
9896.000000;0.467558
9895.000000;0.466993
9894.000000;0.466168
9893.000000;0.465059
9892.000000;0.463877
9891.000000;0.462902
9890.000000;0.462276
9889.000000;0.461880
9888.000000;0.461432
9887.000000;0.460724
9886.000000;0.459776
9885.000000;0.458769
9884.000000;0.457840
9883.000000;0.456961
9882.000000;0.455976
9881.000000;0.454768
9880.000000;0.453391
9879.000000;0.452011
9878.000000;0.450735
9877.000000;0.449532
9876.000000;0.448362
9875.000000;0.447305
9874.000000;0.446502
9873.000000;0.445976
9872.000000;0.445555
9871.000000;0.444942
9870.000000;0.443850
9869.000000;0.442202
9868.000000;0.440265
9867.000000;0.438502
9866.000000;0.437171
9865.000000;0.436098
9864.000000;0.434965
9863.000000;0.433748
9862.000000;0.432701
9861.000000;0.431935
9860.000000;0.431236
9859.000000;0.430368
9858.000000;0.429363
9857.000000;0.428398
9856.000000;0.427508
9855.000000;0.426565
9854.000000;0.425487
9853.000000;0.424334
9852.000000;0.423253
9851.000000;0.422363
9850.000000;0.421664
9849.000000;0.420990
9848.000000;0.420126
9847.000000;0.419049
9846.000000;0.417945
9845.000000;0.416906
9844.000000;0.415743
9843.000000;0.414258
9842.000000;0.412613
9841.000000;0.411213
9840.000000;0.410235
9839.000000;0.409432
9838.000000;0.408452
9837.000000;0.407182
9836.000000;0.405738
9835.000000;0.404273
9834.000000;0.402927
9833.000000;0.401840
9832.000000;0.401043
9831.000000;0.400357
9830.000000;0.399501
9829.000000;0.398348
9828.000000;0.397014
9827.000000;0.395712
9826.000000;0.394564
9825.000000;0.393562
9824.000000;0.392631
9823.000000;0.391684
9822.000000;0.390657
9821.000000;0.389544
9820.000000;0.388400
9819.000000;0.387237
9818.000000;0.385912
9817.000000;0.384242
9816.000000;0.382308
9815.000000;0.380548
9814.000000;0.379382
9813.000000;0.378729
9812.000000;0.378058
9811.000000;0.376975
9810.000000;0.375594
9809.000000;0.374247
9808.000000;0.373026
9807.000000;0.371780
9806.000000;0.370418
9805.000000;0.369002
9804.000000;0.367597
9803.000000;0.366234
9802.000000;0.364990
9801.000000;0.363904
9800.000000;0.362836
9799.000000;0.361598
9798.000000;0.360237
9797.000000;0.358992
9796.000000;0.357956
9795.000000;0.357012
9794.000000;0.356096
9793.000000;0.355291
9792.000000;0.354566
9791.000000;0.353690
9790.000000;0.352525
9789.000000;0.351191
9788.000000;0.349802
9787.000000;0.348237
9786.000000;0.346405
9785.000000;0.344542
9784.000000;0.343007
9783.000000;0.341865
9782.000000;0.340863
9781.000000;0.339780
9780.000000;0.338615
9779.000000;0.337457
9778.000000;0.336322
9777.000000;0.335133
9776.000000;0.333777
9775.000000;0.332239
9774.000000;0.330717
9773.000000;0.329465
9772.000000;0.328436
9771.000000;0.327239
9770.000000;0.325579
9769.000000;0.323631
9768.000000;0.321800
9767.000000;0.320264
9766.000000;0.318932
9765.000000;0.317705
9764.000000;0.316521
9763.000000;0.315266
9762.000000;0.313893
9761.000000;0.312585
9760.000000;0.311525
9759.000000;0.310573
9758.000000;0.309430
9757.000000;0.308084
9756.000000;0.306810
9755.000000;0.305706
9754.000000;0.304527
9753.000000;0.303050
9752.000000;0.301337
9751.000000;0.299586
9750.000000;0.297942
9749.000000;0.296540
9748.000000;0.295458
9747.000000;0.294529
9746.000000;0.293419
9745.000000;0.292012
9744.000000;0.290491
9743.000000;0.288973
9742.000000;0.287325
9741.000000;0.285501
9740.000000;0.283769
9739.000000;0.282371
9738.000000;0.281151
9737.000000;0.279755
9736.000000;0.278068
9735.000000;0.276258
9734.000000;0.274511
9733.000000;0.272940
9732.000000;0.271623
9731.000000;0.270505
9730.000000;0.269353
9729.000000;0.268013
9728.000000;0.266637
9727.000000;0.265422
9726.000000;0.264213
9725.000000;0.262656
9724.000000;0.260736
9723.000000;0.258885
9722.000000;0.257460
9721.000000;0.256299
9720.000000;0.254958
9719.000000;0.253247
9718.000000;0.251415
9717.000000;0.249833
9716.000000;0.248614
9715.000000;0.247534
9714.000000;0.246267
9713.000000;0.244651
9712.000000;0.242740
9711.000000;0.240706
9710.000000;0.238745
9709.000000;0.237029
9708.000000;0.235597
9707.000000;0.234287
9706.000000;0.232905
9705.000000;0.231464
9704.000000;0.230104
9703.000000;0.228781
9702.000000;0.227226
9701.000000;0.225316
9700.000000;0.223254
9699.000000;0.221287
9698.000000;0.219441
9697.000000;0.217700
9696.000000;0.216216
9695.000000;0.215061
9694.000000;0.213951
9693.000000;0.212526
9692.000000;0.210838
9691.000000;0.209275
9690.000000;0.207995
9689.000000;0.206732
9688.000000;0.205211
9687.000000;0.203472
9686.000000;0.201707
9685.000000;0.199967
9684.000000;0.198185
9683.000000;0.196328
9682.000000;0.194415
9681.000000;0.192475
9680.000000;0.190560
9679.000000;0.188720
9678.000000;0.186923
9677.000000;0.185096
9676.000000;0.183280
9675.000000;0.181636
9674.000000;0.180224
9673.000000;0.178872
9672.000000;0.177347
9671.000000;0.175592
9670.000000;0.173759
9669.000000;0.172041
9668.000000;0.170502
9667.000000;0.169021
9666.000000;0.167400
9665.000000;0.165583
9664.000000;0.163752
9663.000000;0.162098
9662.000000;0.160544
9661.000000;0.158819
9660.000000;0.156814
9659.000000;0.154713
9658.000000;0.152720
9657.000000;0.150808
9656.000000;0.148835
9655.000000;0.146787
9654.000000;0.144809
9653.000000;0.143070
9652.000000;0.141661
9651.000000;0.140533
9650.000000;0.139443
9649.000000;0.138042
9648.000000;0.136159
9647.000000;0.133975
9646.000000;0.131865
9645.000000;0.130066
9644.000000;0.128519
9643.000000;0.126964
9642.000000;0.125124
9641.000000;0.122893
9640.000000;0.120428
9639.000000;0.118029
9638.000000;0.115869
9637.000000;0.113879
9636.000000;0.111921
9635.000000;0.109984
9634.000000;0.108143
9633.000000;0.106417
9632.000000;0.104781
9631.000000;0.103258
9630.000000;0.101840
9629.000000;0.100374
9628.000000;0.098675
9627.000000;0.096781
9626.000000;0.094939
9625.000000;0.093311
9624.000000;0.091799
9623.000000;0.090221
9622.000000;0.088527
9621.000000;0.086743
9620.000000;0.084821
9619.000000;0.082670
9618.000000;0.080316
9617.000000;0.077921
9616.000000;0.075647
9615.000000;0.073588
9614.000000;0.071788
9613.000000;0.070200
9612.000000;0.068597
9611.000000;0.066666
9610.000000;0.064276
9609.000000;0.061634
9608.000000;0.059106
9607.000000;0.056925
9606.000000;0.055094
9605.000000;0.053468
9604.000000;0.051820
9603.000000;0.049881
9602.000000;0.047502
9601.000000;0.044866
9600.000000;0.042436
9599.000000;0.040575
9598.000000;0.039213
9597.000000;0.037909
9596.000000;0.036250
9595.000000;0.034154
9594.000000;0.031856
9593.000000;0.029667
9592.000000;0.027750
9591.000000;0.026025
9590.000000;0.024251
9589.000000;0.022224
9588.000000;0.019964
9587.000000;0.017722
9586.000000;0.015792
9585.000000;0.014264
9584.000000;0.012939
9583.000000;0.011464
9582.000000;0.009573
9581.000000;0.007279
9580.000000;0.004848
9579.000000;0.002598
9578.000000;0.000632
9577.000000;-0.001266
9576.000000;-0.003445
9575.000000;-0.006010
9574.000000;-0.008636
9573.000000;-0.010822
9572.000000;-0.012386
9571.000000;-0.013649
9570.000000;-0.015134
9569.000000;-0.017108
9568.000000;-0.019465
9567.000000;-0.021919
9566.000000;-0.024222
9565.000000;-0.026246
9564.000000;-0.028029
9563.000000;-0.029762
9562.000000;-0.031656
9561.000000;-0.033773
9560.000000;-0.036041
9559.000000;-0.038366
9558.000000;-0.040646
9557.000000;-0.042699
9556.000000;-0.044374
9555.000000;-0.045794
9554.000000;-0.047336
9553.000000;-0.049273
9552.000000;-0.051499
9551.000000;-0.053702
9550.000000;-0.055743
9549.000000;-0.057754
9548.000000;-0.059927
9547.000000;-0.062312
9546.000000;-0.064790
9545.000000;-0.067148
9544.000000;-0.069167
9543.000000;-0.070725
9542.000000;-0.071884
9541.000000;-0.072887
9540.000000;-0.074041
9539.000000;-0.075577
9538.000000;-0.077533
9537.000000;-0.079744
9536.000000;-0.081969
9535.000000;-0.084050
9534.000000;-0.085969
9533.000000;-0.087789
9532.000000;-0.089613
9531.000000;-0.091556
9530.000000;-0.093638
9529.000000;-0.095685
9528.000000;-0.097475
9527.000000;-0.099028
9526.000000;-0.100650
9525.000000;-0.102579
9524.000000;-0.104700
9523.000000;-0.106727
9522.000000;-0.108571
9521.000000;-0.110386
9520.000000;-0.112275
9519.000000;-0.114138
9518.000000;-0.115825
9517.000000;-0.117322
9516.000000;-0.118708
9515.000000;-0.120026
9514.000000;-0.121277
9513.000000;-0.122491
9512.000000;-0.123732
9511.000000;-0.125037
9510.000000;-0.126401
9509.000000;-0.127843
9508.000000;-0.129431
9507.000000;-0.131207
9506.000000;-0.133060
9505.000000;-0.134746
9504.000000;-0.136119
9503.000000;-0.137307
9502.000000;-0.138598
9501.000000;-0.140119
9500.000000;-0.141724
9499.000000;-0.143213
9498.000000;-0.144588
9497.000000;-0.146009
9496.000000;-0.147587
9495.000000;-0.149292
9494.000000;-0.150998
9493.000000;-0.152510
9492.000000;-0.153580
9491.000000;-0.154067
9490.000000;-0.154117
9489.000000;-0.154130
9488.000000;-0.154503
9487.000000;-0.155396
9486.000000;-0.156701
9485.000000;-0.158152
9484.000000;-0.159469
9483.000000;-0.160499
9482.000000;-0.161295
9481.000000;-0.162038
9480.000000;-0.162843
9479.000000;-0.163661
9478.000000;-0.164371
9477.000000;-0.164950
9476.000000;-0.165519
9475.000000;-0.166222
9474.000000;-0.167078
9473.000000;-0.167957
9472.000000;-0.168713
9471.000000;-0.169335
9470.000000;-0.169939
9469.000000;-0.170640
9468.000000;-0.171466
9467.000000;-0.172367
9466.000000;-0.173224
9465.000000;-0.173853
9464.000000;-0.174122
9463.000000;-0.174128
9462.000000;-0.174175
9461.000000;-0.174491
9460.000000;-0.175000
9459.000000;-0.175458
9458.000000;-0.175772
9457.000000;-0.176072
9456.000000;-0.176479
9455.000000;-0.176931
9454.000000;-0.177257
9453.000000;-0.177371
9452.000000;-0.177336
9451.000000;-0.177286
9450.000000;-0.177298
9449.000000;-0.177333
9448.000000;-0.177285
9447.000000;-0.177094
9446.000000;-0.176819
9445.000000;-0.176589
9444.000000;-0.176484
9443.000000;-0.176481
9442.000000;-0.176481
9441.000000;-0.176373
9440.000000;-0.176108
9439.000000;-0.175752
9438.000000;-0.175449
9437.000000;-0.175288
9436.000000;-0.175223
9435.000000;-0.175142
9434.000000;-0.174961
9433.000000;-0.174606
9432.000000;-0.173974
9431.000000;-0.173032
9430.000000;-0.171929
9429.000000;-0.170922
9428.000000;-0.170167
9427.000000;-0.169622
9426.000000;-0.169145
9425.000000;-0.168605
9424.000000;-0.167927
9423.000000;-0.167135
9422.000000;-0.166367
9421.000000;-0.165730
9420.000000;-0.165133
9419.000000;-0.164361
9418.000000;-0.163392
9417.000000;-0.162498
9416.000000;-0.161890
9415.000000;-0.161357
9414.000000;-0.160457
9413.000000;-0.159103
9412.000000;-0.157772
9411.000000;-0.156993
9410.000000;-0.156720
9409.000000;-0.156397
9408.000000;-0.155620
9407.000000;-0.154541
9406.000000;-0.153547
9405.000000;-0.152695
9404.000000;-0.151684
9403.000000;-0.150323
9402.000000;-0.148820
9401.000000;-0.147511
9400.000000;-0.146445
9399.000000;-0.145391
9398.000000;-0.144207
9397.000000;-0.143053
9396.000000;-0.142195
9395.000000;-0.141697
9394.000000;-0.141332
9393.000000;-0.140774
9392.000000;-0.139813
9391.000000;-0.138410
9390.000000;-0.136635
9389.000000;-0.134623
9388.000000;-0.132607
9387.000000;-0.130876
9386.000000;-0.129570
9385.000000;-0.128520
9384.000000;-0.127398
9383.000000;-0.126057
9382.000000;-0.124643
9381.000000;-0.123341
9380.000000;-0.122142
9379.000000;-0.120927
9378.000000;-0.119653
9377.000000;-0.118318
9376.000000;-0.116828
9375.000000;-0.115089
9374.000000;-0.113231
9373.000000;-0.111587
9372.000000;-0.110383
9371.000000;-0.109526
9370.000000;-0.108722
9369.000000;-0.107699
9368.000000;-0.106301
9367.000000;-0.104520
9366.000000;-0.102561
9365.000000;-0.100779
9364.000000;-0.099438
9363.000000;-0.098510
9362.000000;-0.097749
9361.000000;-0.096910
9360.000000;-0.095833
9359.000000;-0.094416
9358.000000;-0.092642
9357.000000;-0.090670
9356.000000;-0.088775
9355.000000;-0.087106
9354.000000;-0.085533
9353.000000;-0.083823
9352.000000;-0.081974
9351.000000;-0.080318
9350.000000;-0.079210
9349.000000;-0.078640
9348.000000;-0.078180
9347.000000;-0.077323
9346.000000;-0.075871
9345.000000;-0.074025
9344.000000;-0.072157
9343.000000;-0.070516
9342.000000;-0.069108
9341.000000;-0.067812
9340.000000;-0.066555
9339.000000;-0.065350
9338.000000;-0.064162
9337.000000;-0.062836
9336.000000;-0.061250
9335.000000;-0.059500
9334.000000;-0.057836
9333.000000;-0.056380
9332.000000;-0.055040
9331.000000;-0.053720
9330.000000;-0.052484
9329.000000;-0.051430
9328.000000;-0.050477
9327.000000;-0.049407
9326.000000;-0.048061
9325.000000;-0.046423
9324.000000;-0.044569
9323.000000;-0.042633
9322.000000;-0.040797
9321.000000;-0.039189
9320.000000;-0.037809
9319.000000;-0.036595
9318.000000;-0.035510
9317.000000;-0.034488
9316.000000;-0.033388
9315.000000;-0.032095
9314.000000;-0.030626
9313.000000;-0.029028
9312.000000;-0.027276
9311.000000;-0.025416
9310.000000;-0.023736
9309.000000;-0.022535
9308.000000;-0.021723
9307.000000;-0.020885
9306.000000;-0.019756
9305.000000;-0.018439
9304.000000;-0.017077
9303.000000;-0.015567
9302.000000;-0.013785
9301.000000;-0.011886
9300.000000;-0.010180
9299.000000;-0.008781
9298.000000;-0.007552
9297.000000;-0.006367
9296.000000;-0.005235
9295.000000;-0.004166
9294.000000;-0.003083
9293.000000;-0.001892
9292.000000;-0.000558
9291.000000;0.000903
9290.000000;0.002429
9289.000000;0.003913
9288.000000;0.005251
9287.000000;0.006417
9286.000000;0.007449
9285.000000;0.008382
9284.000000;0.009272
9283.000000;0.010242
9282.000000;0.011451
9281.000000;0.012983
9280.000000;0.014814
9279.000000;0.016813
9278.000000;0.018714
9277.000000;0.020161
9276.000000;0.020963
9275.000000;0.021341
9274.000000;0.021810
9273.000000;0.022735
9272.000000;0.024061
9271.000000;0.025506
9270.000000;0.026913
9269.000000;0.028333
9268.000000;0.029830
9267.000000;0.031347
9266.000000;0.032766
9265.000000;0.034028
9264.000000;0.035146
9263.000000;0.036153
9262.000000;0.037076
9261.000000;0.037948
9260.000000;0.038811
9259.000000;0.039703
9258.000000;0.040672
9257.000000;0.041787
9256.000000;0.043113
9255.000000;0.044615
9254.000000;0.046105
9253.000000;0.047354
9252.000000;0.048318
9251.000000;0.049230
9250.000000;0.050372
9249.000000;0.051751
9248.000000;0.053068
9247.000000;0.054046
9246.000000;0.054751
9245.000000;0.055510
9244.000000;0.056566
9243.000000;0.057866
9242.000000;0.059176
9241.000000;0.060339
9240.000000;0.061367
9239.000000;0.062346
9238.000000;0.063316
9237.000000;0.064242
9236.000000;0.065090
9235.000000;0.065908
9234.000000;0.066823
9233.000000;0.067943
9232.000000;0.069242
9231.000000;0.070555
9230.000000;0.071706
9229.000000;0.072644
9228.000000;0.073474
9227.000000;0.074361
9226.000000;0.075404
9225.000000;0.076574
9224.000000;0.077737
9223.000000;0.078778
9222.000000;0.079693
9221.000000;0.080586
9220.000000;0.081553
9219.000000;0.082612
9218.000000;0.083719
9217.000000;0.084814
9216.000000;0.085870
9215.000000;0.086931
9214.000000;0.088082
9213.000000;0.089325
9212.000000;0.090489
9211.000000;0.091382
9210.000000;0.092038
9209.000000;0.092702
9208.000000;0.093525
9207.000000;0.094423
9206.000000;0.095291
9205.000000;0.096197
9204.000000;0.097206
9203.000000;0.098159
9202.000000;0.098850
9201.000000;0.099360
9200.000000;0.099992
9199.000000;0.100866
9198.000000;0.101813
9197.000000;0.102684
9196.000000;0.103566
9195.000000;0.104597
9194.000000;0.105757
9193.000000;0.106944
9192.000000;0.108124
9191.000000;0.109262
9190.000000;0.110252
9189.000000;0.111044
9188.000000;0.111765
9187.000000;0.112586
9186.000000;0.113521
9185.000000;0.114460
9184.000000;0.115327
9183.000000;0.116108
9182.000000;0.116785
9181.000000;0.117386
9180.000000;0.118032
9179.000000;0.118816
9178.000000;0.119654
9177.000000;0.120397
9176.000000;0.121070
9175.000000;0.121879
9174.000000;0.122957
9173.000000;0.124206
9172.000000;0.125427
9171.000000;0.126505
9170.000000;0.127430
9169.000000;0.128226
9168.000000;0.128933
9167.000000;0.129624
9166.000000;0.130357
9165.000000;0.131108
9164.000000;0.131815
9163.000000;0.132476
9162.000000;0.133166
9161.000000;0.133903
9160.000000;0.134568
9159.000000;0.135040
9158.000000;0.135424
9157.000000;0.136022
9156.000000;0.137004
9155.000000;0.138205
9154.000000;0.139313
9153.000000;0.140189
9152.000000;0.140885
9151.000000;0.141448
9150.000000;0.141891
9149.000000;0.142321
9148.000000;0.142885
9147.000000;0.143565
9146.000000;0.144208
9145.000000;0.144796
9144.000000;0.145496
9143.000000;0.146371
9142.000000;0.147247
9141.000000;0.147980
9140.000000;0.148660
9139.000000;0.149416
9138.000000;0.150197
9137.000000;0.150895
9136.000000;0.151553
9135.000000;0.152248
9134.000000;0.152903
9133.000000;0.153418
9132.000000;0.153898
9131.000000;0.154533
9130.000000;0.155313
9129.000000;0.156041
9128.000000;0.156611
9127.000000;0.157094
9126.000000;0.157570
9125.000000;0.158086
9124.000000;0.158778
9123.000000;0.159812
9122.000000;0.161102
9121.000000;0.162245
9120.000000;0.162871
9119.000000;0.163016
9118.000000;0.163087
9117.000000;0.163463
9116.000000;0.164166
9115.000000;0.164921
9114.000000;0.165512
9113.000000;0.166047
9112.000000;0.166799
9111.000000;0.167807
9110.000000;0.168800
9109.000000;0.169539
9108.000000;0.170090
9107.000000;0.170619
9106.000000;0.171095
9105.000000;0.171388
9104.000000;0.171541
9103.000000;0.171744
9102.000000;0.172075
9101.000000;0.172488
9100.000000;0.173009
9099.000000;0.173740
9098.000000;0.174648
9097.000000;0.175530
9096.000000;0.176249
9095.000000;0.176857
9094.000000;0.177458
9093.000000;0.178088
9092.000000;0.178729
9091.000000;0.179336
9090.000000;0.179820
9089.000000;0.180169
9088.000000;0.180551
9087.000000;0.181156
9086.000000;0.181910
9085.000000;0.182537
9084.000000;0.182915
9083.000000;0.183208
9082.000000;0.183589
9081.000000;0.184054
9080.000000;0.184587
9079.000000;0.185298
9078.000000;0.186226
9077.000000;0.187128
9076.000000;0.187667
9075.000000;0.187776
9074.000000;0.187707
9073.000000;0.187765
9072.000000;0.188076
9071.000000;0.188575
9070.000000;0.189104
9069.000000;0.189516
9068.000000;0.189790
9067.000000;0.190062
9066.000000;0.190481
9065.000000;0.191054
9064.000000;0.191654
9063.000000;0.192165
9062.000000;0.192578
9061.000000;0.192961
9060.000000;0.193375
9059.000000;0.193844
9058.000000;0.194366
9057.000000;0.194925
9056.000000;0.195463
9055.000000;0.195871
9054.000000;0.196098
9053.000000;0.196278
9052.000000;0.196651
9051.000000;0.197260
9050.000000;0.197826
9049.000000;0.198054
9048.000000;0.198035
9047.000000;0.198173
9046.000000;0.198715
9045.000000;0.199492
9044.000000;0.200186
9043.000000;0.200697
9042.000000;0.201160
9041.000000;0.201680
9040.000000;0.202184
9039.000000;0.202509
9038.000000;0.202581
9037.000000;0.202499
9036.000000;0.202485
9035.000000;0.202717
9034.000000;0.203221
9033.000000;0.203907
9032.000000;0.204688
9031.000000;0.205492
9030.000000;0.206184
9029.000000;0.206596
9028.000000;0.206684
9027.000000;0.206620
9026.000000;0.206678
9025.000000;0.207038
9024.000000;0.207672
9023.000000;0.208370
9022.000000;0.208883
9021.000000;0.209115
9020.000000;0.209188
9019.000000;0.209307
9018.000000;0.209578
9017.000000;0.209988
9016.000000;0.210497
9015.000000;0.211033
9014.000000;0.211435
9013.000000;0.211521
9012.000000;0.211288
9011.000000;0.210995
9010.000000;0.210967
9009.000000;0.211344
9008.000000;0.211982
9007.000000;0.212593
9006.000000;0.212995
9005.000000;0.213272
9004.000000;0.213654
9003.000000;0.214205
9002.000000;0.214704
9001.000000;0.214908
9000.000000;0.214876
8999.000000;0.214900
8998.000000;0.215158
8997.000000;0.215557
8996.000000;0.215899
8995.000000;0.216075
8994.000000;0.216104
8993.000000;0.216108
8992.000000;0.216260
8991.000000;0.216618
8990.000000;0.217000
8989.000000;0.217144
8988.000000;0.217056
8987.000000;0.217058
8986.000000;0.217436
8985.000000;0.218135
8984.000000;0.218841
8983.000000;0.219273
8982.000000;0.219363
8981.000000;0.219257
8980.000000;0.219212
8979.000000;0.219406
8978.000000;0.219796
8977.000000;0.220205
8976.000000;0.220550
8975.000000;0.220879
8974.000000;0.221179
8973.000000;0.221334
8972.000000;0.221352
8971.000000;0.221457
8970.000000;0.221827
8969.000000;0.222324
8968.000000;0.222642
8967.000000;0.222668
8966.000000;0.222568
8965.000000;0.222561
8964.000000;0.222732
8963.000000;0.223038
8962.000000;0.223369
8961.000000;0.223599
8960.000000;0.223685
8959.000000;0.223731
8958.000000;0.223892
8957.000000;0.224217
8956.000000;0.224615
8955.000000;0.224985
8954.000000;0.225290
8953.000000;0.225526
8952.000000;0.225693
8951.000000;0.225811
8950.000000;0.225908
8949.000000;0.225955
8948.000000;0.225891
8947.000000;0.225727
8946.000000;0.225605
8945.000000;0.225683
8944.000000;0.225991
8943.000000;0.226431
8942.000000;0.226874
8941.000000;0.227211
8940.000000;0.227352
8939.000000;0.227281
8938.000000;0.227152
8937.000000;0.227227
8936.000000;0.227601
8935.000000;0.228039
8934.000000;0.228167
8933.000000;0.227868
8932.000000;0.227415
8931.000000;0.227187
8930.000000;0.227353
8929.000000;0.227829
8928.000000;0.228425
8927.000000;0.228939
8926.000000;0.229183
8925.000000;0.229096
8924.000000;0.228846
8923.000000;0.228734
8922.000000;0.228939
8921.000000;0.229373
8920.000000;0.229783
8919.000000;0.229971
8918.000000;0.229934
8917.000000;0.229841
8916.000000;0.229904
8915.000000;0.230210
8914.000000;0.230664
8913.000000;0.231041
8912.000000;0.231123
8911.000000;0.230847
8910.000000;0.230399
8909.000000;0.230128
8908.000000;0.230257
8907.000000;0.230656
8906.000000;0.230972
8905.000000;0.231008
8904.000000;0.230861
8903.000000;0.230688
8902.000000;0.230523
8901.000000;0.230385
8900.000000;0.230400
8899.000000;0.230628
8898.000000;0.230887
8897.000000;0.230951
8896.000000;0.230871
8895.000000;0.230923
8894.000000;0.231257
8893.000000;0.231739
8892.000000;0.232105
8891.000000;0.232161
8890.000000;0.231883
8889.000000;0.231507
8888.000000;0.231474
8887.000000;0.232062
8886.000000;0.233016
8885.000000;0.233722
8884.000000;0.233814
8883.000000;0.233506
8882.000000;0.233258
8881.000000;0.233290
8880.000000;0.233483
8879.000000;0.233616
8878.000000;0.233571
8877.000000;0.233388
8876.000000;0.233201
8875.000000;0.233135
8874.000000;0.233206
8873.000000;0.233339
8872.000000;0.233454
8871.000000;0.233481
8870.000000;0.233362
8869.000000;0.233138
8868.000000;0.232999
8867.000000;0.233094
8866.000000;0.233282
8865.000000;0.233246
8864.000000;0.232879
8863.000000;0.232413
8862.000000;0.232119
8861.000000;0.232045
8860.000000;0.232130
8859.000000;0.232382
8858.000000;0.232789
8857.000000;0.233152
8856.000000;0.233217
8855.000000;0.232965
8854.000000;0.232677
8853.000000;0.232652
8852.000000;0.232927
8851.000000;0.233253
8850.000000;0.233340
8849.000000;0.233121
8848.000000;0.232813
8847.000000;0.232673
8846.000000;0.232740
8845.000000;0.232841
8844.000000;0.232831
8843.000000;0.232721
8842.000000;0.232565
8841.000000;0.232357
8840.000000;0.232097
8839.000000;0.231868
8838.000000;0.231763
8837.000000;0.231792
8836.000000;0.231904
8835.000000;0.232035
8834.000000;0.232109
8833.000000;0.232056
8832.000000;0.231882
8831.000000;0.231671
8830.000000;0.231472
8829.000000;0.231266
8828.000000;0.231075
8827.000000;0.231009
8826.000000;0.231156
8825.000000;0.231471
8824.000000;0.231832
8823.000000;0.232125
8822.000000;0.232271
8821.000000;0.232244
8820.000000;0.232138
8819.000000;0.232117
8818.000000;0.232213
8817.000000;0.232253
8816.000000;0.232094
8815.000000;0.231853
8814.000000;0.231803
8813.000000;0.232031
8812.000000;0.232320
8811.000000;0.232389
8810.000000;0.232189
8809.000000;0.231915
8808.000000;0.231750
8807.000000;0.231650
8806.000000;0.231408
8805.000000;0.230943
8804.000000;0.230449
8803.000000;0.230177
8802.000000;0.230120
8801.000000;0.230051
8800.000000;0.229854
8799.000000;0.229662
8798.000000;0.229601
8797.000000;0.229563
8796.000000;0.229366
8795.000000;0.229057
8794.000000;0.228875
8793.000000;0.228966
8792.000000;0.229234
8791.000000;0.229503
8790.000000;0.229697
8789.000000;0.229819
8788.000000;0.229842
8787.000000;0.229675
8786.000000;0.229258
8785.000000;0.228701
8784.000000;0.228288
8783.000000;0.228261
8782.000000;0.228538
8781.000000;0.228729
8780.000000;0.228520
8779.000000;0.228017
8778.000000;0.227592
8777.000000;0.227440
8776.000000;0.227425
8775.000000;0.227361
8774.000000;0.227285
8773.000000;0.227340
8772.000000;0.227501
8771.000000;0.227558
8770.000000;0.227373
8769.000000;0.227037
8768.000000;0.226748
8767.000000;0.226609
8766.000000;0.226571
8765.000000;0.226519
8764.000000;0.226350
8763.000000;0.226019
8762.000000;0.225585
8761.000000;0.225211
8760.000000;0.225060
8759.000000;0.225176
8758.000000;0.225472
8757.000000;0.225805
8756.000000;0.226015
8755.000000;0.225933
8754.000000;0.225481
8753.000000;0.224792
8752.000000;0.224159
8751.000000;0.223811
8750.000000;0.223788
8749.000000;0.224016
8748.000000;0.224379
8747.000000;0.224682
8746.000000;0.224691
8745.000000;0.224369
8744.000000;0.223968
8743.000000;0.223769
8742.000000;0.223755
8741.000000;0.223675
8740.000000;0.223380
8739.000000;0.222964
8738.000000;0.222602
8737.000000;0.222399
8736.000000;0.222385
8735.000000;0.222530
8734.000000;0.222697
8733.000000;0.222725
8732.000000;0.222568
8731.000000;0.222293
8730.000000;0.221928
8729.000000;0.221462
8728.000000;0.220990
8727.000000;0.220678
8726.000000;0.220525
8725.000000;0.220298
8724.000000;0.219827
8723.000000;0.219279
8722.000000;0.218994
8721.000000;0.219096
8720.000000;0.219362
8719.000000;0.219456
8718.000000;0.219238
8717.000000;0.218857
8716.000000;0.218587
8715.000000;0.218562
8714.000000;0.218625
8713.000000;0.218495
8712.000000;0.218081
8711.000000;0.217586
8710.000000;0.217275
8709.000000;0.217216
8708.000000;0.217310
8707.000000;0.217474
8706.000000;0.217659
8705.000000;0.217734
8704.000000;0.217521
8703.000000;0.217003
8702.000000;0.216411
8701.000000;0.216009
8700.000000;0.215833
8699.000000;0.215698
8698.000000;0.215438
8697.000000;0.215070
8696.000000;0.214711
8695.000000;0.214429
8694.000000;0.214228
8693.000000;0.214120
8692.000000;0.214112
8691.000000;0.214100
8690.000000;0.213898
8689.000000;0.213450
8688.000000;0.212938
8687.000000;0.212624
8686.000000;0.212574
8685.000000;0.212623
8684.000000;0.212561
8683.000000;0.212320
8682.000000;0.211991
8681.000000;0.211722
8680.000000;0.211596
8679.000000;0.211575
8678.000000;0.211556
8677.000000;0.211471
8676.000000;0.211276
8675.000000;0.210870
8674.000000;0.210172
8673.000000;0.209328
8672.000000;0.208720
8671.000000;0.208590
8670.000000;0.208751
8669.000000;0.208796
8668.000000;0.208553
8667.000000;0.208183
8666.000000;0.207890
8665.000000;0.207730
8664.000000;0.207695
8663.000000;0.207759
8662.000000;0.207789
8661.000000;0.207618
8660.000000;0.207275
8659.000000;0.207008
8658.000000;0.206950
8657.000000;0.206931
8656.000000;0.206724
8655.000000;0.206354
8654.000000;0.206016
8653.000000;0.205776
8652.000000;0.205517
8651.000000;0.205149
8650.000000;0.204744
8649.000000;0.204427
8648.000000;0.204235
8647.000000;0.204102
8646.000000;0.203950
8645.000000;0.203765
8644.000000;0.203594
8643.000000;0.203458
8642.000000;0.203275
8641.000000;0.202949
8640.000000;0.202524
8639.000000;0.202180
8638.000000;0.202026
8637.000000;0.201982
8636.000000;0.201877
8635.000000;0.201599
8634.000000;0.201111
8633.000000;0.200460
8632.000000;0.199831
8631.000000;0.199501
8630.000000;0.199557
8629.000000;0.199724
8628.000000;0.199589
8627.000000;0.199034
8626.000000;0.198343
8625.000000;0.197874
8624.000000;0.197706
8623.000000;0.197632
8622.000000;0.197426
8621.000000;0.197040
8620.000000;0.196570
8619.000000;0.196086
8618.000000;0.195554
8617.000000;0.194949
8616.000000;0.194383
8615.000000;0.194062
8614.000000;0.194077
8613.000000;0.194299
8612.000000;0.194491
8611.000000;0.194507
8610.000000;0.194343
8609.000000;0.194080
8608.000000;0.193823
8607.000000;0.193680
8606.000000;0.193681
8605.000000;0.193701
8604.000000;0.193513
8603.000000;0.192961
8602.000000;0.192110
8601.000000;0.191237
8600.000000;0.190649
8599.000000;0.190463
8598.000000;0.190526
8597.000000;0.190556
8596.000000;0.190372
8595.000000;0.190005
8594.000000;0.189607
8593.000000;0.189301
8592.000000;0.189088
8591.000000;0.188875
8590.000000;0.188574
8589.000000;0.188223
8588.000000;0.187975
8587.000000;0.187920
8586.000000;0.187934
8585.000000;0.187780
8584.000000;0.187375
8583.000000;0.186868
8582.000000;0.186447
8581.000000;0.186162
8580.000000;0.185976
8579.000000;0.185878
8578.000000;0.185871
8577.000000;0.185892
8576.000000;0.185854
8575.000000;0.185732
8574.000000;0.185539
8573.000000;0.185269
8572.000000;0.184907
8571.000000;0.184489
8570.000000;0.184077
8569.000000;0.183681
8568.000000;0.183266
8567.000000;0.182823
8566.000000;0.182393
8565.000000;0.182022
8564.000000;0.181722
8563.000000;0.181478
8562.000000;0.181254
8561.000000;0.181008
8560.000000;0.180733
8559.000000;0.180465
8558.000000;0.180219
8557.000000;0.179942
8556.000000;0.179574
8555.000000;0.179142
8554.000000;0.178737
8553.000000;0.178390
8552.000000;0.178038
8551.000000;0.177631
8550.000000;0.177207
8549.000000;0.176832
8548.000000;0.176523
8547.000000;0.176278
8546.000000;0.176134
8545.000000;0.176125
8544.000000;0.176185
8543.000000;0.176180
8542.000000;0.176059
8541.000000;0.175910
8540.000000;0.175801
8539.000000;0.175638
8538.000000;0.175255
8537.000000;0.174636
8536.000000;0.173948
8535.000000;0.173364
8534.000000;0.172928
8533.000000;0.172606
8532.000000;0.172365
8531.000000;0.172153
8530.000000;0.171895
8529.000000;0.171583
8528.000000;0.171314
8527.000000;0.171157
8526.000000;0.171045
8525.000000;0.170873
8524.000000;0.170668
8523.000000;0.170531
8522.000000;0.170442
8521.000000;0.170233
8520.000000;0.169776
8519.000000;0.169124
8518.000000;0.168442
8517.000000;0.167857
8516.000000;0.167421
8515.000000;0.167127
8514.000000;0.166935
8513.000000;0.166798
8512.000000;0.166669
8511.000000;0.166485
8510.000000;0.166157
8509.000000;0.165659
8508.000000;0.165105
8507.000000;0.164678
8506.000000;0.164469
8505.000000;0.164436
8504.000000;0.164473
8503.000000;0.164467
8502.000000;0.164309
8501.000000;0.163953
8500.000000;0.163476
8499.000000;0.163003
8498.000000;0.162564
8497.000000;0.162115
8496.000000;0.161691
8495.000000;0.161410
8494.000000;0.161292
8493.000000;0.161179
8492.000000;0.160908
8491.000000;0.160489
8490.000000;0.160037
8489.000000;0.159622
8488.000000;0.159249
8487.000000;0.158938
8486.000000;0.158712
8485.000000;0.158527
8484.000000;0.158297
8483.000000;0.157986
8482.000000;0.157628
8481.000000;0.157269
8480.000000;0.156936
8479.000000;0.156640
8478.000000;0.156352
8477.000000;0.156004
8476.000000;0.155552
8475.000000;0.155064
8474.000000;0.154690
8473.000000;0.154535
8472.000000;0.154574
8471.000000;0.154677
8470.000000;0.154676
8469.000000;0.154459
8468.000000;0.154021
8467.000000;0.153474
8466.000000;0.152973
8465.000000;0.152615
8464.000000;0.152406
8463.000000;0.152277
8462.000000;0.152132
8461.000000;0.151894
8460.000000;0.151545
8459.000000;0.151137
8458.000000;0.150760
8457.000000;0.150488
8456.000000;0.150340
8455.000000;0.150280
8454.000000;0.150238
8453.000000;0.150144
8452.000000;0.149931
8451.000000;0.149531
8450.000000;0.148911
8449.000000;0.148150
8448.000000;0.147434
8447.000000;0.146931
8446.000000;0.146665
8445.000000;0.146549
8444.000000;0.146509
8443.000000;0.146501
8442.000000;0.146442
8441.000000;0.146228
8440.000000;0.145850
8439.000000;0.145434
8438.000000;0.145107
8437.000000;0.144862
8436.000000;0.144594
8435.000000;0.144230
8434.000000;0.143806
8433.000000;0.143416
8432.000000;0.143117
8431.000000;0.142871
8430.000000;0.142586
8429.000000;0.142226
8428.000000;0.141859
8427.000000;0.141559
8426.000000;0.141296
8425.000000;0.141000
8424.000000;0.140724
8423.000000;0.140631
8422.000000;0.140729
8421.000000;0.140761
8420.000000;0.140462
8419.000000;0.139910
8418.000000;0.139469
8417.000000;0.139376
8416.000000;0.139466
8415.000000;0.139363
8414.000000;0.138877
8413.000000;0.138166
8412.000000;0.137553
8411.000000;0.137263
8410.000000;0.137305
8409.000000;0.137508
8408.000000;0.137635
8407.000000;0.137507
8406.000000;0.137106
8405.000000;0.136563
8404.000000;0.136028
8403.000000;0.135537
8402.000000;0.135031
8401.000000;0.134477
8400.000000;0.133951
8399.000000;0.133572
8398.000000;0.133394
8397.000000;0.133358
8396.000000;0.133330
8395.000000;0.133167
8394.000000;0.132821
8393.000000;0.132391
8392.000000;0.132045
8391.000000;0.131851
8390.000000;0.131713
8389.000000;0.131511
8388.000000;0.131246
8387.000000;0.131002
8386.000000;0.130814
8385.000000;0.130655
8384.000000;0.130528
8383.000000;0.130467
8382.000000;0.130442
8381.000000;0.130352
8380.000000;0.130136
8379.000000;0.129836
8378.000000;0.129513
8377.000000;0.129174
8376.000000;0.128833
8375.000000;0.128577
8374.000000;0.128480
8373.000000;0.128464
8372.000000;0.128330
8371.000000;0.127953
8370.000000;0.127415
8369.000000;0.126902
8368.000000;0.126536
8367.000000;0.126321
8366.000000;0.126228
8365.000000;0.126235
8364.000000;0.126270
8363.000000;0.126184
8362.000000;0.125859
8361.000000;0.125356
8360.000000;0.124857
8359.000000;0.124485
8358.000000;0.124197
8357.000000;0.123883
8356.000000;0.123495
8355.000000;0.123076
8354.000000;0.122716
8353.000000;0.122501
8352.000000;0.122459
8351.000000;0.122516
8350.000000;0.122550
8349.000000;0.122503
8348.000000;0.122388
8347.000000;0.122170
8346.000000;0.121742
8345.000000;0.121104
8344.000000;0.120467
8343.000000;0.120073
8342.000000;0.119943
8341.000000;0.119896
8340.000000;0.119782
8339.000000;0.119582
8338.000000;0.119321
8337.000000;0.119001
8336.000000;0.118660
8335.000000;0.118393
8334.000000;0.118247
8333.000000;0.118168
8332.000000;0.118075
8331.000000;0.117943
8330.000000;0.117788
8329.000000;0.117622
8328.000000;0.117430
8327.000000;0.117166
8326.000000;0.116763
8325.000000;0.116220
8324.000000;0.115677
8323.000000;0.115329
8322.000000;0.115230
8321.000000;0.115229
8320.000000;0.115136
8319.000000;0.114900
8318.000000;0.114609
8317.000000;0.114364
8316.000000;0.114191
8315.000000;0.114035
8314.000000;0.113826
8313.000000;0.113552
8312.000000;0.113273
8311.000000;0.113058
8310.000000;0.112915
8309.000000;0.112834
8308.000000;0.112841
8307.000000;0.112923
8306.000000;0.112938
8305.000000;0.112716
8304.000000;0.112286
8303.000000;0.111899
8302.000000;0.111746
8301.000000;0.111735
8300.000000;0.111645
8299.000000;0.111420
8298.000000;0.111194
8297.000000;0.111048
8296.000000;0.110878
8295.000000;0.110545
8294.000000;0.110088
8293.000000;0.109696
8292.000000;0.109512
8291.000000;0.109524
8290.000000;0.109626
8289.000000;0.109720
8288.000000;0.109717
8287.000000;0.109527
8286.000000;0.109136
8285.000000;0.108684
8284.000000;0.108381
8283.000000;0.108291
8282.000000;0.108253
8281.000000;0.108070
8280.000000;0.107724
8279.000000;0.107365
8278.000000;0.107113
8277.000000;0.106954
8276.000000;0.106814
8275.000000;0.106638
8274.000000;0.106394
8273.000000;0.106091
8272.000000;0.105811
8271.000000;0.105671
8270.000000;0.105683
8269.000000;0.105706
8268.000000;0.105597
8267.000000;0.105356
8266.000000;0.105101
8265.000000;0.104915
8264.000000;0.104775
8263.000000;0.104623
8262.000000;0.104437
8261.000000;0.104223
8260.000000;0.103975
8259.000000;0.103675
8258.000000;0.103333
8257.000000;0.103010
8256.000000;0.102777
8255.000000;0.102653
8254.000000;0.102599
8253.000000;0.102560
8252.000000;0.102499
8251.000000;0.102400
8250.000000;0.102250
8249.000000;0.102063
8248.000000;0.101872
8247.000000;0.101692
8246.000000;0.101503
8245.000000;0.101287
8244.000000;0.101058
8243.000000;0.100829
8242.000000;0.100573
8241.000000;0.100275
8240.000000;0.100004
8239.000000;0.099855
8238.000000;0.099836
8237.000000;0.099853
8236.000000;0.099827
8235.000000;0.099779
8234.000000;0.099762
8233.000000;0.099769
8232.000000;0.099734
8231.000000;0.099594
8230.000000;0.099346
8229.000000;0.099050
8228.000000;0.098803
8227.000000;0.098683
8226.000000;0.098699
8225.000000;0.098787
8224.000000;0.098864
8223.000000;0.098876
8222.000000;0.098805
8221.000000;0.098659
8220.000000;0.098465
8219.000000;0.098246
8218.000000;0.098012
8217.000000;0.097781
8216.000000;0.097589
8215.000000;0.097456
8214.000000;0.097340
8213.000000;0.097163
8212.000000;0.096896
8211.000000;0.096590
8210.000000;0.096334
8209.000000;0.096174
8208.000000;0.096072
8207.000000;0.095938
8206.000000;0.095713
8205.000000;0.095437
8204.000000;0.095232
8203.000000;0.095175
8202.000000;0.095217
8201.000000;0.095249
8200.000000;0.095234
8199.000000;0.095216
8198.000000;0.095210
8197.000000;0.095170
8196.000000;0.095060
8195.000000;0.094908
8194.000000;0.094776
8193.000000;0.094697
8192.000000;0.094661
8191.000000;0.094617
8190.000000;0.094496
8189.000000;0.094258
8188.000000;0.093960
8187.000000;0.093705
8186.000000;0.093531
8185.000000;0.093372
8184.000000;0.093184
8183.000000;0.093033
8182.000000;0.092997
8181.000000;0.093005
8180.000000;0.092879
8179.000000;0.092554
8178.000000;0.092184
8177.000000;0.091985
8176.000000;0.092016
8175.000000;0.092144
8174.000000;0.092211
8173.000000;0.092172
8172.000000;0.092079
8171.000000;0.091991
8170.000000;0.091922
8169.000000;0.091838
8168.000000;0.091687
8167.000000;0.091458
8166.000000;0.091220
8165.000000;0.091076
8164.000000;0.091036
8163.000000;0.090983
8162.000000;0.090823
8161.000000;0.090616
8160.000000;0.090510
8159.000000;0.090564
8158.000000;0.090685
8157.000000;0.090745
8156.000000;0.090678
8155.000000;0.090484
8154.000000;0.090223
8153.000000;0.090006
8152.000000;0.089924
8151.000000;0.089956
8150.000000;0.089993
8149.000000;0.089972
8148.000000;0.089917
8147.000000;0.089847
8146.000000;0.089723
8145.000000;0.089529
8144.000000;0.089317
8143.000000;0.089142
8142.000000;0.089014
8141.000000;0.088945
8140.000000;0.088960
8139.000000;0.089007
8138.000000;0.088951
8137.000000;0.088727
8136.000000;0.088430
8135.000000;0.088187
8134.000000;0.088017
8133.000000;0.087885
8132.000000;0.087808
8131.000000;0.087795
8130.000000;0.087775
8129.000000;0.087688
8128.000000;0.087616
8127.000000;0.087670
8126.000000;0.087811
8125.000000;0.087888
8124.000000;0.087851
8123.000000;0.087776
8122.000000;0.087695
8121.000000;0.087557
8120.000000;0.087386
8119.000000;0.087318
8118.000000;0.087404
8117.000000;0.087511
8116.000000;0.087486
8115.000000;0.087343
8114.000000;0.087195
8113.000000;0.087094
8112.000000;0.087007
8111.000000;0.086912
8110.000000;0.086808
8109.000000;0.086679
8108.000000;0.086524
8107.000000;0.086392
8106.000000;0.086314
8105.000000;0.086238
8104.000000;0.086106
8103.000000;0.085983
8102.000000;0.085999
8101.000000;0.086153
8100.000000;0.086258
8099.000000;0.086147
8098.000000;0.085870
8097.000000;0.085623
8096.000000;0.085500
8095.000000;0.085407
8094.000000;0.085217
8093.000000;0.084953
8092.000000;0.084749
8091.000000;0.084692
8090.000000;0.084740
8089.000000;0.084796
8088.000000;0.084810
8087.000000;0.084809
8086.000000;0.084849
8085.000000;0.084945
8084.000000;0.085040
8083.000000;0.085053
8082.000000;0.084995
8081.000000;0.084985
8080.000000;0.085113
8079.000000;0.085293
8078.000000;0.085343
8077.000000;0.085208
8076.000000;0.085015
8075.000000;0.084897
8074.000000;0.084831
8073.000000;0.084712
8072.000000;0.084501
8071.000000;0.084244
8070.000000;0.083991
8069.000000;0.083783
8068.000000;0.083677
8067.000000;0.083713
8066.000000;0.083852
8065.000000;0.084004
8064.000000;0.084129
8063.000000;0.084250
8062.000000;0.084379
8061.000000;0.084463
8060.000000;0.084427
8059.000000;0.084248
8058.000000;0.084003
8057.000000;0.083817
8056.000000;0.083755
8055.000000;0.083746
8054.000000;0.083672
8053.000000;0.083520
8052.000000;0.083392
8051.000000;0.083360
8050.000000;0.083380
8049.000000;0.083383
8048.000000;0.083368
8047.000000;0.083348
8046.000000;0.083294
8045.000000;0.083197
8044.000000;0.083135
8043.000000;0.083175
8042.000000;0.083260
8041.000000;0.083280
8040.000000;0.083221
8039.000000;0.083164
8038.000000;0.083135
8037.000000;0.083075
8036.000000;0.082949
8035.000000;0.082794
8034.000000;0.082648
8033.000000;0.082505
8032.000000;0.082369
8031.000000;0.082284
8030.000000;0.082287
8029.000000;0.082359
8028.000000;0.082441
8027.000000;0.082466
8026.000000;0.082386
8025.000000;0.082206
8024.000000;0.082000
8023.000000;0.081868
8022.000000;0.081865
8021.000000;0.081976
8020.000000;0.082134
8019.000000;0.082237
8018.000000;0.082195
8017.000000;0.082008
8016.000000;0.081777
8015.000000;0.081626
8014.000000;0.081619
8013.000000;0.081750
8012.000000;0.081958
8011.000000;0.082122
8010.000000;0.082117
8009.000000;0.081924
8008.000000;0.081665
8007.000000;0.081471
8006.000000;0.081372
8005.000000;0.081349
8004.000000;0.081411
8003.000000;0.081541
8002.000000;0.081624
8001.000000;0.081552
8000.000000;0.081367
7999.000000;0.081222
7998.000000;0.081221
7997.000000;0.081358
7996.000000;0.081572
7995.000000;0.081781
7994.000000;0.081880
7993.000000;0.081814
7992.000000;0.081649
7991.000000;0.081494
7990.000000;0.081369
7989.000000;0.081220
7988.000000;0.081038
7987.000000;0.080860
7986.000000;0.080704
7985.000000;0.080585
7984.000000;0.080583
7983.000000;0.080758
7982.000000;0.081010
7981.000000;0.081139
7980.000000;0.081082
7979.000000;0.080976
7978.000000;0.080958
7977.000000;0.081001
7976.000000;0.081001
7975.000000;0.080936
7974.000000;0.080849
7973.000000;0.080759
7972.000000;0.080650
7971.000000;0.080539
7970.000000;0.080489
7969.000000;0.080563
7968.000000;0.080748
7967.000000;0.080930
7966.000000;0.080957
7965.000000;0.080780
7964.000000;0.080535
7963.000000;0.080408
7962.000000;0.080443
7961.000000;0.080512
7960.000000;0.080497
7959.000000;0.080409
7958.000000;0.080325
7957.000000;0.080285
7956.000000;0.080282
7955.000000;0.080295
7954.000000;0.080291
7953.000000;0.080238
7952.000000;0.080127
7951.000000;0.079976
7950.000000;0.079815
7949.000000;0.079681
7948.000000;0.079620
7947.000000;0.079645
7946.000000;0.079714
7945.000000;0.079789
7944.000000;0.079885
7943.000000;0.080010
7942.000000;0.080090
7941.000000;0.080039
7940.000000;0.079896
7939.000000;0.079795
7938.000000;0.079801
7937.000000;0.079833
7936.000000;0.079777
7935.000000;0.079591
7934.000000;0.079324
7933.000000;0.079073
7932.000000;0.078942
7931.000000;0.078969
7930.000000;0.079090
7929.000000;0.079208
7928.000000;0.079296
7927.000000;0.079380
7926.000000;0.079438
7925.000000;0.079418
7924.000000;0.079330
7923.000000;0.079258
7922.000000;0.079247
7921.000000;0.079263
7920.000000;0.079272
7919.000000;0.079275
7918.000000;0.079254
7917.000000;0.079167
7916.000000;0.079015
7915.000000;0.078861
7914.000000;0.078764
7913.000000;0.078742
7912.000000;0.078811
7911.000000;0.078975
7910.000000;0.079179
7909.000000;0.079340
7908.000000;0.079430
7907.000000;0.079480
7906.000000;0.079509
7905.000000;0.079502
7904.000000;0.079475
7903.000000;0.079456
7902.000000;0.079410
7901.000000;0.079272
7900.000000;0.079077
7899.000000;0.078950
7898.000000;0.078962
7897.000000;0.079045
7896.000000;0.079094
7895.000000;0.079051
7894.000000;0.078903
7893.000000;0.078680
7892.000000;0.078490
7891.000000;0.078440
7890.000000;0.078505
7889.000000;0.078549
7888.000000;0.078529
7887.000000;0.078543
7886.000000;0.078651
7885.000000;0.078760
7884.000000;0.078767
7883.000000;0.078713
7882.000000;0.078695
7881.000000;0.078722
7880.000000;0.078737
7879.000000;0.078715
7878.000000;0.078656
7877.000000;0.078536
7876.000000;0.078351
7875.000000;0.078166
7874.000000;0.078051
7873.000000;0.077996
7872.000000;0.077966
7871.000000;0.077984
7870.000000;0.078072
7869.000000;0.078167
7868.000000;0.078172
7867.000000;0.078083
7866.000000;0.077976
7865.000000;0.077910
7864.000000;0.077890
7863.000000;0.077911
7862.000000;0.077955
7861.000000;0.077969
7860.000000;0.077911
7859.000000;0.077822
7858.000000;0.077777
7857.000000;0.077774
7856.000000;0.077748
7855.000000;0.077683
7854.000000;0.077652
7853.000000;0.077704
7852.000000;0.077777
7851.000000;0.077747
7850.000000;0.077573
7849.000000;0.077354
7848.000000;0.077254
7847.000000;0.077357
7846.000000;0.077583
7845.000000;0.077747
7844.000000;0.077714
7843.000000;0.077520
7842.000000;0.077321
7841.000000;0.077255
7840.000000;0.077342
7839.000000;0.077498
7838.000000;0.077633
7837.000000;0.077717
7836.000000;0.077766
7835.000000;0.077778
7834.000000;0.077717
7833.000000;0.077573
7832.000000;0.077399
7831.000000;0.077252
7830.000000;0.077142
7829.000000;0.077073
7828.000000;0.077094
7827.000000;0.077226
7826.000000;0.077364
7825.000000;0.077338
7824.000000;0.077104
7823.000000;0.076810
7822.000000;0.076644
7821.000000;0.076676
7820.000000;0.076848
7819.000000;0.077048
7818.000000;0.077164
7817.000000;0.077132
7816.000000;0.076995
7815.000000;0.076876
7814.000000;0.076857
7813.000000;0.076908
7812.000000;0.076950
7811.000000;0.076945
7810.000000;0.076906
7809.000000;0.076862
7808.000000;0.076854
7807.000000;0.076914
7806.000000;0.077016
7805.000000;0.077069
7804.000000;0.076996
7803.000000;0.076809
7802.000000;0.076597
7801.000000;0.076459
7800.000000;0.076440
7799.000000;0.076502
7798.000000;0.076554
7797.000000;0.076543
7796.000000;0.076514
7795.000000;0.076532
7794.000000;0.076564
7793.000000;0.076532
7792.000000;0.076453
7791.000000;0.076442
7790.000000;0.076544
7789.000000;0.076656
7788.000000;0.076664
7787.000000;0.076574
7786.000000;0.076459
7785.000000;0.076343
7784.000000;0.076206
7783.000000;0.076070
7782.000000;0.075997
7781.000000;0.076027
7780.000000;0.076140
7779.000000;0.076284
7778.000000;0.076394
7777.000000;0.076437
7776.000000;0.076431
7775.000000;0.076409
7774.000000;0.076354
7773.000000;0.076234
7772.000000;0.076095
7771.000000;0.076041
7770.000000;0.076094
7769.000000;0.076153
7768.000000;0.076138
7767.000000;0.076088
7766.000000;0.076079
7765.000000;0.076106
7764.000000;0.076117
7763.000000;0.076097
7762.000000;0.076060
7761.000000;0.076005
7760.000000;0.075930
7759.000000;0.075865
7758.000000;0.075820
7757.000000;0.075755
7756.000000;0.075665
7755.000000;0.075627
7754.000000;0.075704
7753.000000;0.075837
7752.000000;0.075910
7751.000000;0.075892
7750.000000;0.075841
7749.000000;0.075806
7748.000000;0.075794
7747.000000;0.075813
7746.000000;0.075863
7745.000000;0.075890
7744.000000;0.075817
7743.000000;0.075638
7742.000000;0.075429
7741.000000;0.075269
7740.000000;0.075194
7739.000000;0.075223
7738.000000;0.075352
7737.000000;0.075532
7736.000000;0.075677
7735.000000;0.075735
7734.000000;0.075717
7733.000000;0.075671
7732.000000;0.075642
7731.000000;0.075652
7730.000000;0.075681
7729.000000;0.075675
7728.000000;0.075603
7727.000000;0.075491
7726.000000;0.075386
7725.000000;0.075305
7724.000000;0.075226
7723.000000;0.075124
7722.000000;0.074985
7721.000000;0.074822
7720.000000;0.074702
7719.000000;0.074723
7718.000000;0.074917
7717.000000;0.075188
7716.000000;0.075382
7715.000000;0.075404
7714.000000;0.075281
7713.000000;0.075126
7712.000000;0.075059
7711.000000;0.075119
7710.000000;0.075224
7709.000000;0.075245
7708.000000;0.075148
7707.000000;0.075042
7706.000000;0.075050
7705.000000;0.075180
7704.000000;0.075327
7703.000000;0.075378
7702.000000;0.075281
7701.000000;0.075073
7700.000000;0.074880
7699.000000;0.074840
7698.000000;0.074964
7697.000000;0.075109
7696.000000;0.075131
7695.000000;0.075034
7694.000000;0.074923
7693.000000;0.074862
7692.000000;0.074842
7691.000000;0.074835
7690.000000;0.074815
7689.000000;0.074738
7688.000000;0.074597
7687.000000;0.074477
7686.000000;0.074484
7685.000000;0.074610
7684.000000;0.074745
7683.000000;0.074804
7682.000000;0.074788
7681.000000;0.074725
7680.000000;0.074627
7679.000000;0.074514
7678.000000;0.074429
7677.000000;0.074395
7676.000000;0.074404
7675.000000;0.074443
7674.000000;0.074502
7673.000000;0.074544
7672.000000;0.074523
7671.000000;0.074443
7670.000000;0.074357
7669.000000;0.074289
7668.000000;0.074221
7667.000000;0.074156
7666.000000;0.074153
7665.000000;0.074246
7664.000000;0.074378
7663.000000;0.074450
7662.000000;0.074415
7661.000000;0.074307
7660.000000;0.074188
7659.000000;0.074097
7658.000000;0.074061
7657.000000;0.074089
7656.000000;0.074165
7655.000000;0.074222
7654.000000;0.074178
7653.000000;0.074008
7652.000000;0.073779
7651.000000;0.073606
7650.000000;0.073552
7649.000000;0.073602
7648.000000;0.073708
7647.000000;0.073829
7646.000000;0.073908
7645.000000;0.073886
7644.000000;0.073767
7643.000000;0.073653
7642.000000;0.073655
7641.000000;0.073779
7640.000000;0.073925
7639.000000;0.073991
7638.000000;0.073943
7637.000000;0.073809
7636.000000;0.073654
7635.000000;0.073536
7634.000000;0.073467
7633.000000;0.073403
7632.000000;0.073309
7631.000000;0.073213
7630.000000;0.073164
7629.000000;0.073161
7628.000000;0.073161
7627.000000;0.073158
7626.000000;0.073189
7625.000000;0.073265
7624.000000;0.073335
7623.000000;0.073347
7622.000000;0.073309
7621.000000;0.073271
7620.000000;0.073264
7619.000000;0.073270
7618.000000;0.073242
7617.000000;0.073149
7616.000000;0.073024
7615.000000;0.072954
7614.000000;0.072997
7613.000000;0.073100
7612.000000;0.073140
7611.000000;0.073056
7610.000000;0.072916
7609.000000;0.072844
7608.000000;0.072899
7607.000000;0.073034
7606.000000;0.073159
7605.000000;0.073210
7604.000000;0.073186
7603.000000;0.073143
7602.000000;0.073147
7601.000000;0.073209
7600.000000;0.073287
7599.000000;0.073336
7598.000000;0.073357
7597.000000;0.073367
7596.000000;0.073348
7595.000000;0.073262
7594.000000;0.073110
7593.000000;0.072958
7592.000000;0.072878
7591.000000;0.072887
7590.000000;0.072937
7589.000000;0.072972
7588.000000;0.072952
7587.000000;0.072854
7586.000000;0.072689
7585.000000;0.072524
7584.000000;0.072450
7583.000000;0.072489
7582.000000;0.072553
7581.000000;0.072530
7580.000000;0.072401
7579.000000;0.072248
7578.000000;0.072168
7577.000000;0.072203
7576.000000;0.072341
7575.000000;0.072533
7574.000000;0.072715
7573.000000;0.072836
7572.000000;0.072894
7571.000000;0.072902
7570.000000;0.072841
7569.000000;0.072690
7568.000000;0.072487
7567.000000;0.072301
7566.000000;0.072159
7565.000000;0.072043
7564.000000;0.071972
7563.000000;0.072000
7562.000000;0.072125
7561.000000;0.072248
7560.000000;0.072287
7559.000000;0.072263
7558.000000;0.072247
7557.000000;0.072254
7556.000000;0.072250
7555.000000;0.072220
7554.000000;0.072184
7553.000000;0.072150
7552.000000;0.072104
7551.000000;0.072044
7550.000000;0.071986
7549.000000;0.071935
7548.000000;0.071876
7547.000000;0.071788
7546.000000;0.071664
7545.000000;0.071526
7544.000000;0.071424
7543.000000;0.071402
7542.000000;0.071449
7541.000000;0.071511
7540.000000;0.071555
7539.000000;0.071590
7538.000000;0.071619
7537.000000;0.071610
7536.000000;0.071552
7535.000000;0.071475
7534.000000;0.071413
7533.000000;0.071371
7532.000000;0.071364
7531.000000;0.071431
7530.000000;0.071568
7529.000000;0.071695
7528.000000;0.071728
7527.000000;0.071669
7526.000000;0.071586
7525.000000;0.071535
7524.000000;0.071526
7523.000000;0.071541
7522.000000;0.071539
7521.000000;0.071486
7520.000000;0.071396
7519.000000;0.071320
7518.000000;0.071268
7517.000000;0.071192
7516.000000;0.071077
7515.000000;0.070988
7514.000000;0.070994
7513.000000;0.071077
7512.000000;0.071178
7511.000000;0.071275
7510.000000;0.071375
7509.000000;0.071444
7508.000000;0.071445
7507.000000;0.071396
7506.000000;0.071353
7505.000000;0.071326
7504.000000;0.071282
7503.000000;0.071201
7502.000000;0.071094
7501.000000;0.070978
7500.000000;0.070875
7499.000000;0.070816
7498.000000;0.070808
7497.000000;0.070809
7496.000000;0.070784
7495.000000;0.070755
7494.000000;0.070742
7493.000000;0.070736
7492.000000;0.070647
7491.000000;0.070509
7490.000000;0.070352
7489.000000;0.070176
7488.000000;0.070029
7487.000000;0.069971
7486.000000;0.070031
7485.000000;0.070143
7484.000000;0.070214
7483.000000;0.070234
7482.000000;0.070258
7481.000000;0.070303
7480.000000;0.070339
7479.000000;0.070349
7478.000000;0.070343
7477.000000;0.070307
7476.000000;0.070212
7475.000000;0.070070
7474.000000;0.069945
7473.000000;0.069893
7472.000000;0.069927
7471.000000;0.070014
7470.000000;0.070084
7469.000000;0.070062
7468.000000;0.069948
7467.000000;0.069838
7466.000000;0.069819
7465.000000;0.069879
7464.000000;0.069948
7463.000000;0.069991
7462.000000;0.070010
7461.000000;0.070002
7460.000000;0.069973
7459.000000;0.069960
7458.000000;0.069976
7457.000000;0.069957
7456.000000;0.069848
7455.000000;0.069688
7454.000000;0.069540
7453.000000;0.069394
7452.000000;0.069220
7451.000000;0.069077
7450.000000;0.069050
7449.000000;0.069113
7448.000000;0.069164
7447.000000;0.069183
7446.000000;0.069237
7445.000000;0.069350
7444.000000;0.069460
7443.000000;0.069507
7442.000000;0.069473
7441.000000;0.069348
7440.000000;0.069153
7439.000000;0.068992
7438.000000;0.068974
7437.000000;0.069075
7436.000000;0.069168
7435.000000;0.069192
7434.000000;0.069193
7433.000000;0.069203
7432.000000;0.069193
7431.000000;0.069156
7430.000000;0.069121
7429.000000;0.069082
7428.000000;0.069003
7427.000000;0.068917
7426.000000;0.068886
7425.000000;0.068898
7424.000000;0.068882
7423.000000;0.068834
7422.000000;0.068822
7421.000000;0.068879
7420.000000;0.068955
7419.000000;0.068986
7418.000000;0.068944
7417.000000;0.068822
7416.000000;0.068657
7415.000000;0.068551
7414.000000;0.068569
7413.000000;0.068643
7412.000000;0.068647
7411.000000;0.068569
7410.000000;0.068507
7409.000000;0.068481
7408.000000;0.068409
7407.000000;0.068281
7406.000000;0.068203
7405.000000;0.068244
7404.000000;0.068352
7403.000000;0.068444
7402.000000;0.068496
7401.000000;0.068480
7400.000000;0.068341
7399.000000;0.068137
7398.000000;0.068056
7397.000000;0.068139
7396.000000;0.068197
7395.000000;0.068114
7394.000000;0.067951
7393.000000;0.067708
7392.000000;0.067269
7391.000000;0.066691
7390.000000;0.066321
7389.000000;0.066430
7388.000000;0.066881
7387.000000;0.067342
7386.000000;0.067635
7385.000000;0.067755
7384.000000;0.067768
7383.000000;0.067796
7382.000000;0.067910
7381.000000;0.068042
7380.000000;0.068059
7379.000000;0.067965
7378.000000;0.067869
7377.000000;0.067797
7376.000000;0.067717
7375.000000;0.067703
7374.000000;0.067854
7373.000000;0.068061
7372.000000;0.068050
7371.000000;0.067714
7370.000000;0.067276
7369.000000;0.066998
7368.000000;0.066907
7367.000000;0.066966
7366.000000;0.067220
7365.000000;0.067510
7364.000000;0.067479
7363.000000;0.067040
7362.000000;0.066506
7361.000000;0.066262
7360.000000;0.066428
7359.000000;0.066820
7358.000000;0.067096
7357.000000;0.067008
7356.000000;0.066634
7355.000000;0.066337
7354.000000;0.066468
7353.000000;0.066950
7352.000000;0.067330
7351.000000;0.067257
7350.000000;0.066845
7349.000000;0.066487
7348.000000;0.066426
7347.000000;0.066537
7346.000000;0.066457
7345.000000;0.065980
7344.000000;0.065362
7343.000000;0.065240
7342.000000;0.066005
7341.000000;0.067250
7340.000000;0.068113
7339.000000;0.068177
7338.000000;0.067822
7337.000000;0.067516
7336.000000;0.067288
7335.000000;0.066982
7334.000000;0.066605
7333.000000;0.066338
7332.000000;0.066332
7331.000000;0.066464
7330.000000;0.066438
7329.000000;0.066170
7328.000000;0.065914
7327.000000;0.065901
7326.000000;0.066022
7325.000000;0.065983
7324.000000;0.065618
7323.000000;0.065116
7322.000000;0.064896
7321.000000;0.065175
7320.000000;0.065691
7319.000000;0.066009
7318.000000;0.066074
7317.000000;0.066168
7316.000000;0.066392
7315.000000;0.066514
7314.000000;0.066295
7313.000000;0.065903
7312.000000;0.065827
7311.000000;0.066243
7310.000000;0.066732
7309.000000;0.066751
7308.000000;0.066210
7307.000000;0.065503
7306.000000;0.065092
7305.000000;0.065203
7304.000000;0.065685
7303.000000;0.065998
7302.000000;0.065725
7301.000000;0.065003
7300.000000;0.064394
7299.000000;0.064378
7298.000000;0.064914
7297.000000;0.065497
7296.000000;0.065599
7295.000000;0.065201
7294.000000;0.064810
7293.000000;0.064924
7292.000000;0.065594
7291.000000;0.066386
7290.000000;0.066838
7289.000000;0.066953
7288.000000;0.067058
7287.000000;0.067237
7286.000000;0.067195
7285.000000;0.066778
7284.000000;0.066308
7283.000000;0.066120
7282.000000;0.066197
7281.000000;0.066319
7280.000000;0.066361
7279.000000;0.066350
7278.000000;0.066290
7277.000000;0.066169
7276.000000;0.066109
7275.000000;0.066244
7274.000000;0.066485
7273.000000;0.066662
7272.000000;0.066749
7271.000000;0.066797
7270.000000;0.066774
7269.000000;0.066644
7268.000000;0.066498
7267.000000;0.066470
7266.000000;0.066586
7265.000000;0.066810
7264.000000;0.067138
7263.000000;0.067507
7262.000000;0.067722
7261.000000;0.067647
7260.000000;0.067382
7259.000000;0.067124
7258.000000;0.066981
7257.000000;0.066995
7256.000000;0.067210
7255.000000;0.067621
7254.000000;0.068091
7253.000000;0.068422
7252.000000;0.068457
7251.000000;0.068243
7250.000000;0.067954
7249.000000;0.067695
7248.000000;0.067601
7247.000000;0.067810
7246.000000;0.068222
7245.000000;0.068565
7244.000000;0.068757
7243.000000;0.068951
7242.000000;0.069258
7241.000000;0.069565
7240.000000;0.069651
7239.000000;0.069356
7238.000000;0.068773
7237.000000;0.068290
7236.000000;0.068293
7235.000000;0.068787
7234.000000;0.069415
7233.000000;0.069772
7232.000000;0.069654
7231.000000;0.069283
7230.000000;0.069025
7229.000000;0.068898
7228.000000;0.068777
7227.000000;0.068714
7226.000000;0.068736
7225.000000;0.068746
7224.000000;0.068688
7223.000000;0.068559
7222.000000;0.068306
7221.000000;0.067954
7220.000000;0.067741
7219.000000;0.067826
7218.000000;0.068007
7217.000000;0.067973
7216.000000;0.067682
7215.000000;0.067320
7214.000000;0.067056
7213.000000;0.066969
7212.000000;0.067070
7211.000000;0.067289
7210.000000;0.067464
7209.000000;0.067499
7208.000000;0.067536
7207.000000;0.067774
7206.000000;0.068139
7205.000000;0.068397
7204.000000;0.068467
7203.000000;0.068419
7202.000000;0.068228
7201.000000;0.067832
7200.000000;0.067351
7199.000000;0.066987
7198.000000;0.066801
7197.000000;0.066733
7196.000000;0.066757
7195.000000;0.066846
7194.000000;0.066880
7193.000000;0.066771
7192.000000;0.066598
7191.000000;0.066482
7190.000000;0.066405
7189.000000;0.066307
7188.000000;0.066225
7187.000000;0.066200
7186.000000;0.066162
7185.000000;0.065970
7184.000000;0.065550
7183.000000;0.064977
7182.000000;0.064465
7181.000000;0.064292
7180.000000;0.064666
7179.000000;0.065437
7178.000000;0.066074
7177.000000;0.066192
7176.000000;0.065985
7175.000000;0.065847
7174.000000;0.065874
7173.000000;0.065919
7172.000000;0.065901
7171.000000;0.065923
7170.000000;0.066067
7169.000000;0.066309
7168.000000;0.066468
7167.000000;0.066305
7166.000000;0.065851
7165.000000;0.065374
7164.000000;0.064975
7163.000000;0.064460
7162.000000;0.063751
7161.000000;0.063205
7160.000000;0.063305
7159.000000;0.064028
7158.000000;0.064775
7157.000000;0.065010
7156.000000;0.064801
7155.000000;0.064526
7154.000000;0.064381
7153.000000;0.064352
7152.000000;0.064335
7151.000000;0.064268
7150.000000;0.064224
7149.000000;0.064270
7148.000000;0.064272
7147.000000;0.064064
7146.000000;0.063727
7145.000000;0.063565
7144.000000;0.063819
7143.000000;0.064352
7142.000000;0.064711
7141.000000;0.064554
7140.000000;0.064018
7139.000000;0.063558
7138.000000;0.063494
7137.000000;0.063733
7136.000000;0.063945
7135.000000;0.063935
7134.000000;0.063782
7133.000000;0.063692
7132.000000;0.063724
7131.000000;0.063742
7130.000000;0.063650
7129.000000;0.063510
7128.000000;0.063436
7127.000000;0.063470
7126.000000;0.063546
7125.000000;0.063567
7124.000000;0.063487
7123.000000;0.063345
7122.000000;0.063229
7121.000000;0.063149
7120.000000;0.062971
7119.000000;0.062572
7118.000000;0.062063
7117.000000;0.061797
7116.000000;0.062036
7115.000000;0.062586
7114.000000;0.062947
7113.000000;0.062892
7112.000000;0.062698
7111.000000;0.062728
7110.000000;0.063008
7109.000000;0.063283
7108.000000;0.063340
7107.000000;0.063132
7106.000000;0.062769
7105.000000;0.062426
7104.000000;0.062166
7103.000000;0.061981
7102.000000;0.061890
7101.000000;0.061878
7100.000000;0.061897
7099.000000;0.061920
7098.000000;0.061885
7097.000000;0.061686
7096.000000;0.061313
7095.000000;0.060978
7094.000000;0.060971
7093.000000;0.061326
7092.000000;0.061718
7091.000000;0.061825
7090.000000;0.061667
7089.000000;0.061506
7088.000000;0.061482
7087.000000;0.061502
7086.000000;0.061458
7085.000000;0.061369
7084.000000;0.061276
7083.000000;0.061156
7082.000000;0.060984
7081.000000;0.060809
7080.000000;0.060724
7079.000000;0.060778
7078.000000;0.060881
7077.000000;0.060898
7076.000000;0.060829
7075.000000;0.060751
7074.000000;0.060661
7073.000000;0.060478
7072.000000;0.060204
7071.000000;0.059991
7070.000000;0.059979
7069.000000;0.060126
7068.000000;0.060252
7067.000000;0.060236
7066.000000;0.060137
7065.000000;0.060083
7064.000000;0.060094
7063.000000;0.060081
7062.000000;0.059999
7061.000000;0.059895
7060.000000;0.059823
7059.000000;0.059803
7058.000000;0.059784
7057.000000;0.059695
7056.000000;0.059546
7055.000000;0.059409
7054.000000;0.059323
7053.000000;0.059293
7052.000000;0.059294
7051.000000;0.059268
7050.000000;0.059164
7049.000000;0.059001
7048.000000;0.058869
7047.000000;0.058844
7046.000000;0.058914
7045.000000;0.059002
7044.000000;0.059041
7043.000000;0.059019
7042.000000;0.058961
7041.000000;0.058892
7040.000000;0.058817
7039.000000;0.058738
7038.000000;0.058652
7037.000000;0.058539
7036.000000;0.058387
7035.000000;0.058204
7034.000000;0.058017
7033.000000;0.057888
7032.000000;0.057877
7031.000000;0.057971
7030.000000;0.058067
7029.000000;0.058050
7028.000000;0.057908
7027.000000;0.057734
7026.000000;0.057631
7025.000000;0.057619
7024.000000;0.057650
7023.000000;0.057651
7022.000000;0.057571
7021.000000;0.057412
7020.000000;0.057219
7019.000000;0.057050
7018.000000;0.056939
7017.000000;0.056890
7016.000000;0.056874
7015.000000;0.056838
7014.000000;0.056748
7013.000000;0.056644
7012.000000;0.056599
7011.000000;0.056623
7010.000000;0.056635
7009.000000;0.056559
7008.000000;0.056435
7007.000000;0.056368
7006.000000;0.056388
7005.000000;0.056418
7004.000000;0.056383
7003.000000;0.056300
7002.000000;0.056227
7001.000000;0.056185
7000.000000;0.056144
6999.000000;0.056068
6998.000000;0.055942
6997.000000;0.055787
6996.000000;0.055650
6995.000000;0.055568
6994.000000;0.055525
6993.000000;0.055464
6992.000000;0.055364
6991.000000;0.055267
6990.000000;0.055217
6989.000000;0.055216
6988.000000;0.055223
6987.000000;0.055200
6986.000000;0.055156
6985.000000;0.055123
6984.000000;0.055116
6983.000000;0.055122
6982.000000;0.055097
6981.000000;0.054998
6980.000000;0.054816
6979.000000;0.054584
6978.000000;0.054354
6977.000000;0.054168
6976.000000;0.054067
6975.000000;0.054069
6974.000000;0.054125
6973.000000;0.054136
6972.000000;0.054041
6971.000000;0.053870
6970.000000;0.053696
6969.000000;0.053564
6968.000000;0.053471
6967.000000;0.053400
6966.000000;0.053368
6965.000000;0.053389
6964.000000;0.053431
6963.000000;0.053434
6962.000000;0.053377
6961.000000;0.053283
6960.000000;0.053196
6959.000000;0.053136
6958.000000;0.053100
6957.000000;0.053086
6956.000000;0.053097
6955.000000;0.053109
6954.000000;0.053069
6953.000000;0.052953
6952.000000;0.052790
6951.000000;0.052618
6950.000000;0.052445
6949.000000;0.052281
6948.000000;0.052168
6947.000000;0.052138
6946.000000;0.052156
6945.000000;0.052159
6944.000000;0.052110
6943.000000;0.052003
6942.000000;0.051863
6941.000000;0.051743
6940.000000;0.051703
6939.000000;0.051754
6938.000000;0.051820
6937.000000;0.051805
6936.000000;0.051684
6935.000000;0.051506
6934.000000;0.051340
6933.000000;0.051226
6932.000000;0.051181
6931.000000;0.051171
6930.000000;0.051115
6929.000000;0.050962
6928.000000;0.050756
6927.000000;0.050583
6926.000000;0.050481
6925.000000;0.050446
6924.000000;0.050479
6923.000000;0.050553
6922.000000;0.050619
6921.000000;0.050638
6920.000000;0.050624
6919.000000;0.050620
6918.000000;0.050631
6917.000000;0.050615
6916.000000;0.050538
6915.000000;0.050405
6914.000000;0.050241
6913.000000;0.050078
6912.000000;0.049958
6911.000000;0.049895
6910.000000;0.049845
6909.000000;0.049759
6908.000000;0.049647
6907.000000;0.049562
6906.000000;0.049516
6905.000000;0.049481
6904.000000;0.049437
6903.000000;0.049397
6902.000000;0.049381
6901.000000;0.049398
6900.000000;0.049427
6899.000000;0.049431
6898.000000;0.049388
6897.000000;0.049304
6896.000000;0.049213
6895.000000;0.049133
6894.000000;0.049041
6893.000000;0.048906
6892.000000;0.048731
6891.000000;0.048550
6890.000000;0.048390
6889.000000;0.048271
6888.000000;0.048212
6887.000000;0.048212
6886.000000;0.048218
6885.000000;0.048173
6884.000000;0.048086
6883.000000;0.048020
6882.000000;0.048009
6881.000000;0.048020
6880.000000;0.048004
6879.000000;0.047955
6878.000000;0.047885
6877.000000;0.047791
6876.000000;0.047681
6875.000000;0.047593
6874.000000;0.047540
6873.000000;0.047491
6872.000000;0.047416
6871.000000;0.047342
6870.000000;0.047309
6869.000000;0.047301
6868.000000;0.047261
6867.000000;0.047171
6866.000000;0.047066
6865.000000;0.046982
6864.000000;0.046922
6863.000000;0.046868
6862.000000;0.046806
6861.000000;0.046745
6860.000000;0.046708
6859.000000;0.046709
6858.000000;0.046719
6857.000000;0.046686
6856.000000;0.046591
6855.000000;0.046454
6854.000000;0.046286
6853.000000;0.046095
6852.000000;0.045919
6851.000000;0.045820
6850.000000;0.045816
6849.000000;0.045859
6848.000000;0.045895
6847.000000;0.045910
6846.000000;0.045907
6845.000000;0.045873
6844.000000;0.045797
6843.000000;0.045691
6842.000000;0.045581
6841.000000;0.045482
6840.000000;0.045401
6839.000000;0.045351
6838.000000;0.045340
6837.000000;0.045354
6836.000000;0.045368
6835.000000;0.045358
6834.000000;0.045306
6833.000000;0.045216
6832.000000;0.045119
6831.000000;0.045043
6830.000000;0.044985
6829.000000;0.044931
6828.000000;0.044882
6827.000000;0.044846
6826.000000;0.044806
6825.000000;0.044737
6824.000000;0.044647
6823.000000;0.044567
6822.000000;0.044501
6821.000000;0.044423
6820.000000;0.044326
6819.000000;0.044235
6818.000000;0.044159
6817.000000;0.044071
6816.000000;0.043947
6815.000000;0.043802
6814.000000;0.043670
6813.000000;0.043569
6812.000000;0.043512
6811.000000;0.043515
6810.000000;0.043579
6809.000000;0.043676
6808.000000;0.043749
6807.000000;0.043744
6806.000000;0.043642
6805.000000;0.043478
6804.000000;0.043324
6803.000000;0.043238
6802.000000;0.043217
6801.000000;0.043211
6800.000000;0.043185
6799.000000;0.043139
6798.000000;0.043080
6797.000000;0.043007
6796.000000;0.042918
6795.000000;0.042827
6794.000000;0.042748
6793.000000;0.042690
6792.000000;0.042649
6791.000000;0.042606
6790.000000;0.042532
6789.000000;0.042420
6788.000000;0.042295
6787.000000;0.042198
6786.000000;0.042148
6785.000000;0.042146
6784.000000;0.042170
6783.000000;0.042183
6782.000000;0.042143
6781.000000;0.042036
6780.000000;0.041904
6779.000000;0.041805
6778.000000;0.041756
6777.000000;0.041728
6776.000000;0.041679
6775.000000;0.041593
6774.000000;0.041492
6773.000000;0.041412
6772.000000;0.041368
6771.000000;0.041339
6770.000000;0.041289
6769.000000;0.041210
6768.000000;0.041128
6767.000000;0.041075
6766.000000;0.041066
6765.000000;0.041098
6764.000000;0.041151
6763.000000;0.041188
6762.000000;0.041170
6761.000000;0.041093
6760.000000;0.040996
6759.000000;0.040905
6758.000000;0.040816
6757.000000;0.040729
6756.000000;0.040668
6755.000000;0.040637
6754.000000;0.040602
6753.000000;0.040527
6752.000000;0.040427
6751.000000;0.040340
6750.000000;0.040268
6749.000000;0.040189
6748.000000;0.040110
6747.000000;0.040060
6746.000000;0.040037
6745.000000;0.039997
6744.000000;0.039916
6743.000000;0.039811
6742.000000;0.039715
6741.000000;0.039645
6740.000000;0.039615
6739.000000;0.039625
6738.000000;0.039646
6737.000000;0.039633
6736.000000;0.039557
6735.000000;0.039427
6734.000000;0.039277
6733.000000;0.039155
6732.000000;0.039105
6731.000000;0.039131
6730.000000;0.039184
6729.000000;0.039208
6728.000000;0.039186
6727.000000;0.039136
6726.000000;0.039065
6725.000000;0.038977
6724.000000;0.038906
6723.000000;0.038878
6722.000000;0.038866
6721.000000;0.038819
6720.000000;0.038726
6719.000000;0.038628
6718.000000;0.038554
6717.000000;0.038494
6716.000000;0.038439
6715.000000;0.038401
6714.000000;0.038395
6713.000000;0.038417
6712.000000;0.038459
6711.000000;0.038511
6710.000000;0.038520
6709.000000;0.038476
6708.000000;0.038403
6707.000000;0.038299
6706.000000;0.038208
6705.000000;0.038139
6704.000000;0.038085
6703.000000;0.038051
6702.000000;0.038037
6701.000000;0.038015
6700.000000;0.037981
6699.000000;0.037930
6698.000000;0.037861
6697.000000;0.037763
6696.000000;0.037695
6695.000000;0.037678
6694.000000;0.037683
6693.000000;0.037650
6692.000000;0.037568
6691.000000;0.037478
6690.000000;0.037408
6689.000000;0.037333
6688.000000;0.037227
6687.000000;0.037109
6686.000000;0.037016
6685.000000;0.036955
6684.000000;0.036903
6683.000000;0.036851
6682.000000;0.036821
6681.000000;0.036844
6680.000000;0.036921
6679.000000;0.037011
6678.000000;0.037056
6677.000000;0.037032
6676.000000;0.036974
6675.000000;0.036926
6674.000000;0.036895
6673.000000;0.036855
6672.000000;0.036790
6671.000000;0.036711
6670.000000;0.036637
6669.000000;0.036572
6668.000000;0.036522
6667.000000;0.036485
6666.000000;0.036447
6665.000000;0.036393
6664.000000;0.036319
6663.000000;0.036238
6662.000000;0.036158
6661.000000;0.036087
6660.000000;0.036048
6659.000000;0.036052
6658.000000;0.036077
6657.000000;0.036078
6656.000000;0.036035
6655.000000;0.035957
6654.000000;0.035855
6653.000000;0.035743
6652.000000;0.035651
6651.000000;0.035610
6650.000000;0.035602
6649.000000;0.035577
6648.000000;0.035509
6647.000000;0.035433
6646.000000;0.035392
6645.000000;0.035385
6644.000000;0.035369
6643.000000;0.035310
6642.000000;0.035215
6641.000000;0.035127
6640.000000;0.035088
6639.000000;0.035101
6638.000000;0.035122
6637.000000;0.035107
6636.000000;0.035056
6635.000000;0.034996
6634.000000;0.034934
6633.000000;0.034864
6632.000000;0.034802
6631.000000;0.034786
6630.000000;0.034817
6629.000000;0.034839
6628.000000;0.034801
6627.000000;0.034712
6626.000000;0.034629
6625.000000;0.034603
6624.000000;0.034638
6623.000000;0.034701
6622.000000;0.034739
6621.000000;0.034716
6620.000000;0.034635
6619.000000;0.034527
6618.000000;0.034419
6617.000000;0.034319
6616.000000;0.034235
6615.000000;0.034177
6614.000000;0.034140
6613.000000;0.034101
6612.000000;0.034036
6611.000000;0.033944
6610.000000;0.033843
6609.000000;0.033757
6608.000000;0.033710
6607.000000;0.033708
6606.000000;0.033731
6605.000000;0.033738
6604.000000;0.033707
6603.000000;0.033639
6602.000000;0.033552
6601.000000;0.033466
6600.000000;0.033397
6599.000000;0.033358
6598.000000;0.033343
6597.000000;0.033334
6596.000000;0.033320
6595.000000;0.033303
6594.000000;0.033288
6593.000000;0.033275
6592.000000;0.033258
6591.000000;0.033231
6590.000000;0.033195
6589.000000;0.033166
6588.000000;0.033158
6587.000000;0.033154
6586.000000;0.033122
6585.000000;0.033064
6584.000000;0.033029
6583.000000;0.033054
6582.000000;0.033102
6581.000000;0.033102
6580.000000;0.033019
6579.000000;0.032881
6578.000000;0.032730
6577.000000;0.032588
6576.000000;0.032465
6575.000000;0.032368
6574.000000;0.032296
6573.000000;0.032249
6572.000000;0.032235
6571.000000;0.032259
6570.000000;0.032294
6569.000000;0.032304
6568.000000;0.032277
6567.000000;0.032235
6566.000000;0.032197
6565.000000;0.032167
6564.000000;0.032149
6563.000000;0.032149
6562.000000;0.032156
6561.000000;0.032146
6560.000000;0.032114
6559.000000;0.032075
6558.000000;0.032044
6557.000000;0.032021
6556.000000;0.032003
6555.000000;0.031991
6554.000000;0.031974
6553.000000;0.031936
6552.000000;0.031868
6551.000000;0.031777
6550.000000;0.031671
6549.000000;0.031562
6548.000000;0.031481
6547.000000;0.031454
6546.000000;0.031481
6545.000000;0.031533
6544.000000;0.031591
6543.000000;0.031653
6542.000000;0.031705
6541.000000;0.031713
6540.000000;0.031665
6539.000000;0.031589
6538.000000;0.031528
6537.000000;0.031496
6536.000000;0.031480
6535.000000;0.031461
6534.000000;0.031422
6533.000000;0.031354
6532.000000;0.031260
6531.000000;0.031161
6530.000000;0.031080
6529.000000;0.031028
6528.000000;0.030997
6527.000000;0.030975
6526.000000;0.030956
6525.000000;0.030940
6524.000000;0.030924
6523.000000;0.030889
6522.000000;0.030811
6521.000000;0.030697
6520.000000;0.030587
6519.000000;0.030522
6518.000000;0.030503
6517.000000;0.030502
6516.000000;0.030498
6515.000000;0.030477
6514.000000;0.030425
6513.000000;0.030334
6512.000000;0.030233
6511.000000;0.030171
6510.000000;0.030169
6509.000000;0.030197
6508.000000;0.030214
6507.000000;0.030208
6506.000000;0.030193
6505.000000;0.030187
6504.000000;0.030196
6503.000000;0.030216
6502.000000;0.030232
6501.000000;0.030224
6500.000000;0.030184
6499.000000;0.030123
6498.000000;0.030064
6497.000000;0.030027
6496.000000;0.030018
6495.000000;0.030027
6494.000000;0.030035
6493.000000;0.030032
6492.000000;0.030022
6491.000000;0.030004
6490.000000;0.029965
6489.000000;0.029889
6488.000000;0.029779
6487.000000;0.029662
6486.000000;0.029570
6485.000000;0.029533
6484.000000;0.029550
6483.000000;0.029581
6482.000000;0.029575
6481.000000;0.029530
6480.000000;0.029493
6479.000000;0.029494
6478.000000;0.029502
6477.000000;0.029469
6476.000000;0.029400
6475.000000;0.029344
6474.000000;0.029333
6473.000000;0.029347
6472.000000;0.029354
6471.000000;0.029336
6470.000000;0.029289
6469.000000;0.029224
6468.000000;0.029167
6467.000000;0.029145
6466.000000;0.029158
6465.000000;0.029188
6464.000000;0.029222
6463.000000;0.029252
6462.000000;0.029257
6461.000000;0.029225
6460.000000;0.029170
6459.000000;0.029123
6458.000000;0.029083
6457.000000;0.029015
6456.000000;0.028901
6455.000000;0.028771
6454.000000;0.028673
6453.000000;0.028643
6452.000000;0.028681
6451.000000;0.028760
6450.000000;0.028820
6449.000000;0.028808
6448.000000;0.028715
6447.000000;0.028591
6446.000000;0.028492
6445.000000;0.028437
6444.000000;0.028411
6443.000000;0.028398
6442.000000;0.028393
6441.000000;0.028397
6440.000000;0.028405
6439.000000;0.028405
6438.000000;0.028391
6437.000000;0.028367
6436.000000;0.028344
6435.000000;0.028326
6434.000000;0.028315
6433.000000;0.028317
6432.000000;0.028334
6431.000000;0.028358
6430.000000;0.028363
6429.000000;0.028336
6428.000000;0.028292
6427.000000;0.028257
6426.000000;0.028244
6425.000000;0.028249
6424.000000;0.028262
6423.000000;0.028267
6422.000000;0.028254
6421.000000;0.028226
6420.000000;0.028199
6419.000000;0.028183
6418.000000;0.028172
6417.000000;0.028167
6416.000000;0.028179
6415.000000;0.028211
6414.000000;0.028226
6413.000000;0.028183
6412.000000;0.028074
6411.000000;0.027934
6410.000000;0.027811
6409.000000;0.027738
6408.000000;0.027717
6407.000000;0.027723
6406.000000;0.027731
6405.000000;0.027735
6404.000000;0.027746
6403.000000;0.027765
6402.000000;0.027772
6401.000000;0.027755
6400.000000;0.027722
6399.000000;0.027678
6398.000000;0.027616
6397.000000;0.027544
6396.000000;0.027505
6395.000000;0.027531
6394.000000;0.027608
6393.000000;0.027690
6392.000000;0.027747
6391.000000;0.027778
6390.000000;0.027787
6389.000000;0.027783
6388.000000;0.027784
6387.000000;0.027795
6386.000000;0.027792
6385.000000;0.027746
6384.000000;0.027664
6383.000000;0.027586
6382.000000;0.027542
6381.000000;0.027527
6380.000000;0.027523
6379.000000;0.027512
6378.000000;0.027481
6377.000000;0.027440
6376.000000;0.027416
6375.000000;0.027424
6374.000000;0.027436
6373.000000;0.027414
6372.000000;0.027360
6371.000000;0.027303
6370.000000;0.027261
6369.000000;0.027223
6368.000000;0.027174
6367.000000;0.027116
6366.000000;0.027051
6365.000000;0.026975
6364.000000;0.026897
6363.000000;0.026841
6362.000000;0.026825
6361.000000;0.026849
6360.000000;0.026889
6359.000000;0.026917
6358.000000;0.026907
6357.000000;0.026863
6356.000000;0.026812
6355.000000;0.026779
6354.000000;0.026767
6353.000000;0.026775
6352.000000;0.026811
6351.000000;0.026870
6350.000000;0.026918
6349.000000;0.026921
6348.000000;0.026887
6347.000000;0.026848
6346.000000;0.026820
6345.000000;0.026784
6344.000000;0.026724
6343.000000;0.026651
6342.000000;0.026598
6341.000000;0.026595
6340.000000;0.026646
6339.000000;0.026721
6338.000000;0.026776
6337.000000;0.026782
6336.000000;0.026750
6335.000000;0.026700
6334.000000;0.026646
6333.000000;0.026605
6332.000000;0.026598
6331.000000;0.026619
6330.000000;0.026629
6329.000000;0.026593
6328.000000;0.026528
6327.000000;0.026470
6326.000000;0.026437
6325.000000;0.026422
6324.000000;0.026426
6323.000000;0.026453
6322.000000;0.026478
6321.000000;0.026461
6320.000000;0.026385
6319.000000;0.026276
6318.000000;0.026174
6317.000000;0.026103
6316.000000;0.026065
6315.000000;0.026051
6314.000000;0.026050
6313.000000;0.026068
6312.000000;0.026111
6311.000000;0.026157
6310.000000;0.026165
6309.000000;0.026120
6308.000000;0.026057
6307.000000;0.026017
6306.000000;0.026008
6305.000000;0.026013
6304.000000;0.026021
6303.000000;0.026022
6302.000000;0.026001
6301.000000;0.025961
6300.000000;0.025936
6299.000000;0.025943
6298.000000;0.025953
6297.000000;0.025930
6296.000000;0.025888
6295.000000;0.025868
6294.000000;0.025881
6293.000000;0.025909
6292.000000;0.025943
6291.000000;0.025988
6290.000000;0.026025
6289.000000;0.026014
6288.000000;0.025947
6287.000000;0.025852
6286.000000;0.025762
6285.000000;0.025691
6284.000000;0.025650
6283.000000;0.025641
6282.000000;0.025645
6281.000000;0.025636
6280.000000;0.025621
6279.000000;0.025625
6278.000000;0.025649
6277.000000;0.025670
6276.000000;0.025677
6275.000000;0.025687
6274.000000;0.025705
6273.000000;0.025707
6272.000000;0.025670
6271.000000;0.025606
6270.000000;0.025549
6269.000000;0.025517
6268.000000;0.025506
6267.000000;0.025494
6266.000000;0.025466
6265.000000;0.025420
6264.000000;0.025372
6263.000000;0.025339
6262.000000;0.025334
6261.000000;0.025359
6260.000000;0.025402
6259.000000;0.025428
6258.000000;0.025399
6257.000000;0.025311
6256.000000;0.025209
6255.000000;0.025142
6254.000000;0.025120
6253.000000;0.025130
6252.000000;0.025163
6251.000000;0.025212
6250.000000;0.025255
6249.000000;0.025277
6248.000000;0.025293
6247.000000;0.025323
6246.000000;0.025347
6245.000000;0.025326
6244.000000;0.025253
6243.000000;0.025173
6242.000000;0.025126
6241.000000;0.025123
6240.000000;0.025146
6239.000000;0.025168
6238.000000;0.025160
6237.000000;0.025117
6236.000000;0.025064
6235.000000;0.025030
6234.000000;0.025013
6233.000000;0.024991
6232.000000;0.024956
6231.000000;0.024922
6230.000000;0.024894
6229.000000;0.024874
6228.000000;0.024880
6227.000000;0.024929
6226.000000;0.025003
6225.000000;0.025053
6224.000000;0.025046
6223.000000;0.024994
6222.000000;0.024932
6221.000000;0.024889
6220.000000;0.024876
6219.000000;0.024876
6218.000000;0.024858
6217.000000;0.024810
6216.000000;0.024759
6215.000000;0.024735
6214.000000;0.024730
6213.000000;0.024715
6212.000000;0.024680
6211.000000;0.024651
6210.000000;0.024640
6209.000000;0.024637
6208.000000;0.024628
6207.000000;0.024609
6206.000000;0.024580
6205.000000;0.024544
6204.000000;0.024513
6203.000000;0.024499
6202.000000;0.024495
6201.000000;0.024481
6200.000000;0.024453
6199.000000;0.024421
6198.000000;0.024391
6197.000000;0.024363
6196.000000;0.024338
6195.000000;0.024328
6194.000000;0.024334
6193.000000;0.024346
6192.000000;0.024348
6191.000000;0.024324
6190.000000;0.024266
6189.000000;0.024189
6188.000000;0.024134
6187.000000;0.024124
6186.000000;0.024148
6185.000000;0.024182
6184.000000;0.024222
6183.000000;0.024270
6182.000000;0.024302
6181.000000;0.024295
6180.000000;0.024261
6179.000000;0.024228
6178.000000;0.024204
6177.000000;0.024173
6176.000000;0.024129
6175.000000;0.024083
6174.000000;0.024035
6173.000000;0.023975
6172.000000;0.023910
6171.000000;0.023860
6170.000000;0.023840
6169.000000;0.023847
6168.000000;0.023873
6167.000000;0.023902
6166.000000;0.023904
6165.000000;0.023866
6164.000000;0.023820
6163.000000;0.023804
6162.000000;0.023817
6161.000000;0.023813
6160.000000;0.023772
6159.000000;0.023717
6158.000000;0.023689
6157.000000;0.023700
6156.000000;0.023742
6155.000000;0.023790
6154.000000;0.023812
6153.000000;0.023792
6152.000000;0.023746
6151.000000;0.023709
6150.000000;0.023697
6149.000000;0.023697
6148.000000;0.023688
6147.000000;0.023653
6146.000000;0.023579
6145.000000;0.023484
6144.000000;0.023410
6143.000000;0.023391
6142.000000;0.023415
6141.000000;0.023446
6140.000000;0.023462
6139.000000;0.023467
6138.000000;0.023455
6137.000000;0.023415
6136.000000;0.023361
6135.000000;0.023325
6134.000000;0.023319
6133.000000;0.023320
6132.000000;0.023306
6131.000000;0.023280
6130.000000;0.023254
6129.000000;0.023225
6128.000000;0.023190
6127.000000;0.023151
6126.000000;0.023104
6125.000000;0.023043
6124.000000;0.022973
6123.000000;0.022916
6122.000000;0.022886
6121.000000;0.022884
6120.000000;0.022903
6119.000000;0.022937
6118.000000;0.022981
6117.000000;0.023015
6116.000000;0.023022
6115.000000;0.022986
6114.000000;0.022912
6113.000000;0.022826
6112.000000;0.022763
6111.000000;0.022731
6110.000000;0.022711
6109.000000;0.022693
6108.000000;0.022692
6107.000000;0.022714
6106.000000;0.022735
6105.000000;0.022720
6104.000000;0.022667
6103.000000;0.022600
6102.000000;0.022547
6101.000000;0.022531
6100.000000;0.022571
6099.000000;0.022656
6098.000000;0.022734
6097.000000;0.022760
6096.000000;0.022729
6095.000000;0.022667
6094.000000;0.022584
6093.000000;0.022481
6092.000000;0.022377
6091.000000;0.022296
6090.000000;0.022246
6089.000000;0.022219
6088.000000;0.022214
6087.000000;0.022225
6086.000000;0.022228
6085.000000;0.022195
6084.000000;0.022133
6083.000000;0.022071
6082.000000;0.022028
6081.000000;0.021995
6080.000000;0.021970
6079.000000;0.021955
6078.000000;0.021952
6077.000000;0.021948
6076.000000;0.021928
6075.000000;0.021881
6074.000000;0.021807
6073.000000;0.021735
6072.000000;0.021704
6071.000000;0.021717
6070.000000;0.021729
6069.000000;0.021705
6068.000000;0.021673
6067.000000;0.021680
6066.000000;0.021722
6065.000000;0.021748
6064.000000;0.021722
6063.000000;0.021652
6062.000000;0.021571
6061.000000;0.021518
6060.000000;0.021521
6059.000000;0.021571
6058.000000;0.021616
6057.000000;0.021602
6056.000000;0.021532
6055.000000;0.021445
6054.000000;0.021368
6053.000000;0.021298
6052.000000;0.021231
6051.000000;0.021174
6050.000000;0.021124
6049.000000;0.021078
6048.000000;0.021039
6047.000000;0.021010
6046.000000;0.020977
6045.000000;0.020938
6044.000000;0.020924
6043.000000;0.020965
6042.000000;0.021041
6041.000000;0.021097
6040.000000;0.021100
6039.000000;0.021059
6038.000000;0.020995
6037.000000;0.020917
6036.000000;0.020832
6035.000000;0.020749
6034.000000;0.020670
6033.000000;0.020603
6032.000000;0.020562
6031.000000;0.020554
6030.000000;0.020559
6029.000000;0.020556
6028.000000;0.020547
6027.000000;0.020535
6026.000000;0.020503
6025.000000;0.020434
6024.000000;0.020342
6023.000000;0.020257
6022.000000;0.020190
6021.000000;0.020145
6020.000000;0.020132
6019.000000;0.020153
6018.000000;0.020177
6017.000000;0.020177
6016.000000;0.020163
6015.000000;0.020163
6014.000000;0.020167
6013.000000;0.020140
6012.000000;0.020076
6011.000000;0.020001
6010.000000;0.019940
6009.000000;0.019899
6008.000000;0.019887
6007.000000;0.019902
6006.000000;0.019907
6005.000000;0.019863
6004.000000;0.019787
6003.000000;0.019728
6002.000000;0.019698
6001.000000;0.019657
6000.000000;0.019576
5999.000000;0.019475
5998.000000;0.019389
5997.000000;0.019331
5996.000000;0.019289
5995.000000;0.019244
5994.000000;0.019185
5993.000000;0.019122
5992.000000;0.019082
5991.000000;0.019083
5990.000000;0.019100
5989.000000;0.019091
5988.000000;0.019049
5987.000000;0.019000
5986.000000;0.018973
5985.000000;0.018967
5984.000000;0.018971
5983.000000;0.018965
5982.000000;0.018929
5981.000000;0.018861
5980.000000;0.018788
5979.000000;0.018737
5978.000000;0.018709
5977.000000;0.018691
5976.000000;0.018687
5975.000000;0.018702
5974.000000;0.018709
5973.000000;0.018675
5972.000000;0.018600
5971.000000;0.018510
5970.000000;0.018425
5969.000000;0.018347
5968.000000;0.018282
5967.000000;0.018234
5966.000000;0.018184
5965.000000;0.018112
5964.000000;0.018033
5963.000000;0.017976
5962.000000;0.017937
5961.000000;0.017887
5960.000000;0.017819
5959.000000;0.017752
5958.000000;0.017701
5957.000000;0.017666
5956.000000;0.017658
5955.000000;0.017691
5954.000000;0.017751
5953.000000;0.017797
5952.000000;0.017803
5951.000000;0.017767
5950.000000;0.017686
5949.000000;0.017563
5948.000000;0.017424
5947.000000;0.017311
5946.000000;0.017241
5945.000000;0.017212
5944.000000;0.017226
5943.000000;0.017278
5942.000000;0.017331
5941.000000;0.017335
5940.000000;0.017277
5939.000000;0.017194
5938.000000;0.017116
5937.000000;0.017043
5936.000000;0.016967
5935.000000;0.016897
5934.000000;0.016842
5933.000000;0.016806
5932.000000;0.016787
5931.000000;0.016774
5930.000000;0.016745
5929.000000;0.016694
5928.000000;0.016646
5927.000000;0.016623
5926.000000;0.016603
5925.000000;0.016550
5924.000000;0.016467
5923.000000;0.016393
5922.000000;0.016349
5921.000000;0.016321
5920.000000;0.016295
5919.000000;0.016260
5918.000000;0.016196
5917.000000;0.016086
5916.000000;0.015947
5915.000000;0.015832
5914.000000;0.015770
5913.000000;0.015759
5912.000000;0.015777
5911.000000;0.015793
5910.000000;0.015771
5909.000000;0.015691
5908.000000;0.015583
5907.000000;0.015503
5906.000000;0.015476
5905.000000;0.015474
5904.000000;0.015462
5903.000000;0.015421
5902.000000;0.015342
5901.000000;0.015231
5900.000000;0.015116
5899.000000;0.015020
5898.000000;0.014926
5897.000000;0.014812
5896.000000;0.014694
5895.000000;0.014614
5894.000000;0.014580
5893.000000;0.014563
5892.000000;0.014547
5891.000000;0.014538
5890.000000;0.014536
5889.000000;0.014525
5888.000000;0.014499
5887.000000;0.014467
5886.000000;0.014426
5885.000000;0.014363
5884.000000;0.014281
5883.000000;0.014197
5882.000000;0.014115
5881.000000;0.014034
5880.000000;0.013964
5879.000000;0.013919
5878.000000;0.013881
5877.000000;0.013820
5876.000000;0.013744
5875.000000;0.013694
5874.000000;0.013688
5873.000000;0.013698
5872.000000;0.013690
5871.000000;0.013643
5870.000000;0.013544
5869.000000;0.013401
5868.000000;0.013257
5867.000000;0.013163
5866.000000;0.013116
5865.000000;0.013064
5864.000000;0.012977
5863.000000;0.012883
5862.000000;0.012819
5861.000000;0.012798
5860.000000;0.012806
5859.000000;0.012824
5858.000000;0.012827
5857.000000;0.012799
5856.000000;0.012748
5855.000000;0.012691
5854.000000;0.012629
5853.000000;0.012552
5852.000000;0.012471
5851.000000;0.012409
5850.000000;0.012371
5849.000000;0.012337
5848.000000;0.012298
5847.000000;0.012261
5846.000000;0.012216
5845.000000;0.012145
5844.000000;0.012047
5843.000000;0.011945
5842.000000;0.011843
5841.000000;0.011719
5840.000000;0.011577
5839.000000;0.011450
5838.000000;0.011366
5837.000000;0.011315
5836.000000;0.011268
5835.000000;0.011205
5834.000000;0.011116
5833.000000;0.010998
5832.000000;0.010862
5831.000000;0.010726
5830.000000;0.010603
5829.000000;0.010499
5828.000000;0.010422
5827.000000;0.010368
5826.000000;0.010317
5825.000000;0.010251
5824.000000;0.010189
5823.000000;0.010164
5822.000000;0.010172
5821.000000;0.010171
5820.000000;0.010129
5819.000000;0.010051
5818.000000;0.009958
5817.000000;0.009875
5816.000000;0.009818
5815.000000;0.009790
5814.000000;0.009767
5813.000000;0.009726
5812.000000;0.009674
5811.000000;0.009631
5810.000000;0.009596
5809.000000;0.009544
5808.000000;0.009470
5807.000000;0.009388
5806.000000;0.009301
5805.000000;0.009196
5804.000000;0.009065
5803.000000;0.008922
5802.000000;0.008786
5801.000000;0.008676
5800.000000;0.008610
5799.000000;0.008587
5798.000000;0.008574
5797.000000;0.008532
5796.000000;0.008463
5795.000000;0.008388
5794.000000;0.008309
5793.000000;0.008212
5792.000000;0.008100
5791.000000;0.007998
5790.000000;0.007913
5789.000000;0.007830
5788.000000;0.007739
5787.000000;0.007646
5786.000000;0.007554
5785.000000;0.007460
5784.000000;0.007371
5783.000000;0.007294
5782.000000;0.007227
5781.000000;0.007160
5780.000000;0.007090
5779.000000;0.007010
5778.000000;0.006901
5777.000000;0.006756
5776.000000;0.006607
5775.000000;0.006495
5774.000000;0.006421
5773.000000;0.006347
5772.000000;0.006246
5771.000000;0.006128
5770.000000;0.006023
5769.000000;0.005956
5768.000000;0.005935
5767.000000;0.005929
5766.000000;0.005882
5765.000000;0.005768
5764.000000;0.005623
5763.000000;0.005497
5762.000000;0.005397
5761.000000;0.005299
5760.000000;0.005191
5759.000000;0.005079
5758.000000;0.004961
5757.000000;0.004839
5756.000000;0.004732
5755.000000;0.004655
5754.000000;0.004583
5753.000000;0.004479
5752.000000;0.004353
5751.000000;0.004248
5750.000000;0.004175
5749.000000;0.004111
5748.000000;0.004040
5747.000000;0.003972
5746.000000;0.003916
5745.000000;0.003863
5744.000000;0.003806
5743.000000;0.003735
5742.000000;0.003630
5741.000000;0.003483
5740.000000;0.003317
5739.000000;0.003165
5738.000000;0.003032
5737.000000;0.002910
5736.000000;0.002803
5735.000000;0.002711
5734.000000;0.002619
5733.000000;0.002516
5732.000000;0.002425
5731.000000;0.002359
5730.000000;0.002286
5729.000000;0.002160
5728.000000;0.001989
5727.000000;0.001825
5726.000000;0.001695
5725.000000;0.001589
5724.000000;0.001499
5723.000000;0.001419
5722.000000;0.001332
5721.000000;0.001226
5720.000000;0.001126
5719.000000;0.001060
5718.000000;0.001015
5717.000000;0.000954
5716.000000;0.000870
5715.000000;0.000779
5714.000000;0.000673
5713.000000;0.000533
5712.000000;0.000374
5711.000000;0.000241
5710.000000;0.000149
5709.000000;0.000077
5708.000000;0.000005
5707.000000;-0.000068
5706.000000;-0.000149
5705.000000;-0.000252
5704.000000;-0.000380
5703.000000;-0.000522
5702.000000;-0.000666
5701.000000;-0.000799
5700.000000;-0.000898
5699.000000;-0.000968
5698.000000;-0.001056
5697.000000;-0.001199
5696.000000;-0.001374
5695.000000;-0.001535
5694.000000;-0.001696
5693.000000;-0.001847
5692.000000;-0.001993
5691.000000;-0.002103
5690.000000;-0.002190
5689.000000;-0.002292
5688.000000;-0.002405
5687.000000;-0.002491
5686.000000;-0.002539
5685.000000;-0.002585
5684.000000;-0.002657
5683.000000;-0.002761
5682.000000;-0.002898
5681.000000;-0.003066
5680.000000;-0.003238
5679.000000;-0.003382
5678.000000;-0.003507
5677.000000;-0.003634
5676.000000;-0.003756
5675.000000;-0.003854
5674.000000;-0.003945
5673.000000;-0.004056
5672.000000;-0.004171
5671.000000;-0.004253
5670.000000;-0.004312
5669.000000;-0.004401
5668.000000;-0.004542
5667.000000;-0.004706
5666.000000;-0.004869
5665.000000;-0.005039
5664.000000;-0.005212
5663.000000;-0.005356
5662.000000;-0.005453
5661.000000;-0.005521
5660.000000;-0.005590
5659.000000;-0.005681
5658.000000;-0.005810
5657.000000;-0.005964
5656.000000;-0.006100
5655.000000;-0.006189
5654.000000;-0.006264
5653.000000;-0.006383
5652.000000;-0.006545
5651.000000;-0.006698
5650.000000;-0.006811
5649.000000;-0.006895
5648.000000;-0.006965
5647.000000;-0.007031
5646.000000;-0.007124
5645.000000;-0.007262
5644.000000;-0.007415
5643.000000;-0.007534
5642.000000;-0.007619
5641.000000;-0.007710
5640.000000;-0.007820
5639.000000;-0.007930
5638.000000;-0.008045
5637.000000;-0.008195
5636.000000;-0.008374
5635.000000;-0.008540
5634.000000;-0.008680
5633.000000;-0.008823
5632.000000;-0.008989
5631.000000;-0.009168
5630.000000;-0.009344
5629.000000;-0.009506
5628.000000;-0.009630
5627.000000;-0.009699
5626.000000;-0.009735
5625.000000;-0.009779
5624.000000;-0.009851
5623.000000;-0.009945
5622.000000;-0.010066
5621.000000;-0.010217
5620.000000;-0.010375
5619.000000;-0.010517
5618.000000;-0.010653
5617.000000;-0.010812
5616.000000;-0.010983
5615.000000;-0.011136
5614.000000;-0.011272
5613.000000;-0.011404
5612.000000;-0.011510
5611.000000;-0.011557
5610.000000;-0.011579
5609.000000;-0.011653
5608.000000;-0.011801
5607.000000;-0.011975
5606.000000;-0.012131
5605.000000;-0.012267
5604.000000;-0.012386
5603.000000;-0.012482
5602.000000;-0.012580
5601.000000;-0.012725
5600.000000;-0.012916
5599.000000;-0.013097
5598.000000;-0.013228
5597.000000;-0.013321
5596.000000;-0.013396
5595.000000;-0.013465
5594.000000;-0.013550
5593.000000;-0.013667
5592.000000;-0.013798
5591.000000;-0.013908
5590.000000;-0.014008
5589.000000;-0.014142
5588.000000;-0.014312
5587.000000;-0.014485
5586.000000;-0.014642
5585.000000;-0.014790
5584.000000;-0.014919
5583.000000;-0.015020
5582.000000;-0.015122
5581.000000;-0.015260
5580.000000;-0.015409
5579.000000;-0.015517
5578.000000;-0.015601
5577.000000;-0.015733
5576.000000;-0.015928
5575.000000;-0.016120
5574.000000;-0.016265
5573.000000;-0.016379
5572.000000;-0.016485
5571.000000;-0.016591
5570.000000;-0.016715
5569.000000;-0.016874
5568.000000;-0.017040
5567.000000;-0.017167
5566.000000;-0.017262
5565.000000;-0.017383
5564.000000;-0.017546
5563.000000;-0.017716
5562.000000;-0.017878
5561.000000;-0.018055
5560.000000;-0.018232
5559.000000;-0.018372
5558.000000;-0.018491
5557.000000;-0.018648
5556.000000;-0.018847
5555.000000;-0.019033
5554.000000;-0.019188
5553.000000;-0.019342
5552.000000;-0.019493
5551.000000;-0.019609
5550.000000;-0.019709
5549.000000;-0.019842
5548.000000;-0.019997
5547.000000;-0.020116
5546.000000;-0.020202
5545.000000;-0.020324
5544.000000;-0.020484
5543.000000;-0.020620
5542.000000;-0.020710
5541.000000;-0.020789
5540.000000;-0.020868
5539.000000;-0.020930
5538.000000;-0.021011
5537.000000;-0.021168
5536.000000;-0.021395
5535.000000;-0.021630
5534.000000;-0.021851
5533.000000;-0.022074
5532.000000;-0.022274
5531.000000;-0.022409
5530.000000;-0.022497
5529.000000;-0.022591
5528.000000;-0.022703
5527.000000;-0.022805
5526.000000;-0.022914
5525.000000;-0.023079
5524.000000;-0.023277
5523.000000;-0.023446
5522.000000;-0.023587
5521.000000;-0.023739
5520.000000;-0.023899
5519.000000;-0.024037
5518.000000;-0.024171
5517.000000;-0.024356
5516.000000;-0.024571
5515.000000;-0.024755
5514.000000;-0.024927
5513.000000;-0.025138
5512.000000;-0.025349
5511.000000;-0.025488
5510.000000;-0.025584
5509.000000;-0.025724
5508.000000;-0.025908
5507.000000;-0.026052
5506.000000;-0.026150
5505.000000;-0.026291
5504.000000;-0.026489
5503.000000;-0.026671
5502.000000;-0.026844
5501.000000;-0.027055
5500.000000;-0.027287
5499.000000;-0.027495
5498.000000;-0.027631
5497.000000;-0.027713
5496.000000;-0.027782
5495.000000;-0.027883
5494.000000;-0.028037
5493.000000;-0.028200
5492.000000;-0.028302
5491.000000;-0.028349
5490.000000;-0.028458
5489.000000;-0.028688
5488.000000;-0.028937
5487.000000;-0.029087
5486.000000;-0.029185
5485.000000;-0.029368
5484.000000;-0.029618
5483.000000;-0.029776
5482.000000;-0.029870
5481.000000;-0.030018
5480.000000;-0.030176
5479.000000;-0.030253
5478.000000;-0.030282
5477.000000;-0.030366
5476.000000;-0.030496
5475.000000;-0.030600
5474.000000;-0.030722
5473.000000;-0.030969
5472.000000;-0.031315
5471.000000;-0.031638
5470.000000;-0.031916
5469.000000;-0.032164
5468.000000;-0.032342
5467.000000;-0.032469
5466.000000;-0.032662
5465.000000;-0.032944
5464.000000;-0.033138
5463.000000;-0.033144
5462.000000;-0.033182
5461.000000;-0.033394
5460.000000;-0.033559
5459.000000;-0.033563
5458.000000;-0.033671
5457.000000;-0.034013
5456.000000;-0.034318
5455.000000;-0.034415
5454.000000;-0.034490
5453.000000;-0.034715
5452.000000;-0.034978
5451.000000;-0.035144
5450.000000;-0.035291
5449.000000;-0.035408
5448.000000;-0.035428
5447.000000;-0.035496
5446.000000;-0.035758
5445.000000;-0.036045
5444.000000;-0.036181
5443.000000;-0.036287
5442.000000;-0.036598
5441.000000;-0.036999
5440.000000;-0.037125
5439.000000;-0.036981
5438.000000;-0.036993
5437.000000;-0.037297
5436.000000;-0.037588
5435.000000;-0.037716
5434.000000;-0.037827
5433.000000;-0.037993
5432.000000;-0.038227
5431.000000;-0.038598
5430.000000;-0.039020
5429.000000;-0.039253
5428.000000;-0.039265
5427.000000;-0.039273
5426.000000;-0.039464
5425.000000;-0.039792
5424.000000;-0.040081
5423.000000;-0.040248
5422.000000;-0.040331
5421.000000;-0.040416
5420.000000;-0.040553
5419.000000;-0.040686
5418.000000;-0.040792
5417.000000;-0.040910
5416.000000;-0.041058
5415.000000;-0.041217
5414.000000;-0.041396
5413.000000;-0.041644
5412.000000;-0.041961
5411.000000;-0.042327
5410.000000;-0.042695
5409.000000;-0.042923
5408.000000;-0.042934
5407.000000;-0.042894
5406.000000;-0.043056
5405.000000;-0.043392
5404.000000;-0.043646
5403.000000;-0.043792
5402.000000;-0.043910
5401.000000;-0.044028
5400.000000;-0.044208
5399.000000;-0.044408
5398.000000;-0.044559
5397.000000;-0.044712
5396.000000;-0.044936
5395.000000;-0.045205
5394.000000;-0.045409
5393.000000;-0.045509
5392.000000;-0.045539
5391.000000;-0.045516
5390.000000;-0.045535
5389.000000;-0.045728
5388.000000;-0.046065
5387.000000;-0.046381
5386.000000;-0.046626
5385.000000;-0.046806
5384.000000;-0.046925
5383.000000;-0.047055
5382.000000;-0.047191
5381.000000;-0.047296
5380.000000;-0.047475
5379.000000;-0.047765
5378.000000;-0.048015
5377.000000;-0.048171
5376.000000;-0.048339
5375.000000;-0.048532
5374.000000;-0.048618
5373.000000;-0.048636
5372.000000;-0.048761
5371.000000;-0.048996
5370.000000;-0.049217
5369.000000;-0.049415
5368.000000;-0.049657
5367.000000;-0.049896
5366.000000;-0.050067
5365.000000;-0.050195
5364.000000;-0.050400
5363.000000;-0.050697
5362.000000;-0.050897
5361.000000;-0.050971
5360.000000;-0.051117
5359.000000;-0.051357
5358.000000;-0.051494
5357.000000;-0.051501
5356.000000;-0.051585
5355.000000;-0.051806
5354.000000;-0.052005
5353.000000;-0.052056
5352.000000;-0.052070
5351.000000;-0.052261
5350.000000;-0.052593
5349.000000;-0.052796
5348.000000;-0.052826
5347.000000;-0.052826
5346.000000;-0.052830
5345.000000;-0.052881
5344.000000;-0.053061
5343.000000;-0.053247
5342.000000;-0.053263
5341.000000;-0.053317
5340.000000;-0.053632
5339.000000;-0.054035
5338.000000;-0.054278
5337.000000;-0.054348
5336.000000;-0.054416
5335.000000;-0.054623
5334.000000;-0.054943
5333.000000;-0.055168
5332.000000;-0.055229
5331.000000;-0.055320
5330.000000;-0.055522
5329.000000;-0.055762
5328.000000;-0.056046
5327.000000;-0.056317
5326.000000;-0.056396
5325.000000;-0.056328
5324.000000;-0.056378
5323.000000;-0.056613
5322.000000;-0.056825
5321.000000;-0.056917
5320.000000;-0.057037
5319.000000;-0.057303
5318.000000;-0.057594
5317.000000;-0.057776
5316.000000;-0.057883
5315.000000;-0.057961
5314.000000;-0.058033
5313.000000;-0.058119
5312.000000;-0.058220
5311.000000;-0.058352
5310.000000;-0.058544
5309.000000;-0.058788
5308.000000;-0.059008
5307.000000;-0.059146
5306.000000;-0.059214
5305.000000;-0.059282
5304.000000;-0.059406
5303.000000;-0.059577
5302.000000;-0.059729
5301.000000;-0.059823
5300.000000;-0.059897
5299.000000;-0.059989
5298.000000;-0.060063
5297.000000;-0.060140
5296.000000;-0.060273
5295.000000;-0.060414
5294.000000;-0.060538
5293.000000;-0.060695
5292.000000;-0.060909
5291.000000;-0.061121
5290.000000;-0.061251
5289.000000;-0.061288
5288.000000;-0.061287
5287.000000;-0.061353
5286.000000;-0.061526
5285.000000;-0.061696
5284.000000;-0.061780
5283.000000;-0.061841
5282.000000;-0.061988
5281.000000;-0.062223
5280.000000;-0.062438
5279.000000;-0.062551
5278.000000;-0.062578
5277.000000;-0.062614
5276.000000;-0.062732
5275.000000;-0.062870
5274.000000;-0.062947
5273.000000;-0.063020
5272.000000;-0.063135
5271.000000;-0.063280
5270.000000;-0.063419
5269.000000;-0.063500
5268.000000;-0.063535
5267.000000;-0.063589
5266.000000;-0.063671
5265.000000;-0.063725
5264.000000;-0.063775
5263.000000;-0.063855
5262.000000;-0.063941
5261.000000;-0.064042
5260.000000;-0.064165
5259.000000;-0.064242
5258.000000;-0.064274
5257.000000;-0.064344
5256.000000;-0.064466
5255.000000;-0.064606
5254.000000;-0.064733
5253.000000;-0.064840
5252.000000;-0.064887
5251.000000;-0.064950
5250.000000;-0.065089
5249.000000;-0.065166
5248.000000;-0.065141
5247.000000;-0.065181
5246.000000;-0.065400
5245.000000;-0.065707
5244.000000;-0.065945
5243.000000;-0.066055
5242.000000;-0.066144
5241.000000;-0.066341
5240.000000;-0.066590
5239.000000;-0.066717
5238.000000;-0.066718
5237.000000;-0.066729
5236.000000;-0.066766
5235.000000;-0.066826
5234.000000;-0.066976
5233.000000;-0.067169
5232.000000;-0.067289
5231.000000;-0.067355
5230.000000;-0.067456
5229.000000;-0.067551
5228.000000;-0.067573
5227.000000;-0.067555
5226.000000;-0.067552
5225.000000;-0.067558
5224.000000;-0.067552
5223.000000;-0.067621
5222.000000;-0.067860
5221.000000;-0.068180
5220.000000;-0.068395
5219.000000;-0.068488
5218.000000;-0.068625
5217.000000;-0.068832
5216.000000;-0.068985
5215.000000;-0.069075
5214.000000;-0.069156
5213.000000;-0.069224
5212.000000;-0.069272
5211.000000;-0.069300
5210.000000;-0.069272
5209.000000;-0.069162
5208.000000;-0.069008
5207.000000;-0.068918
5206.000000;-0.068992
5205.000000;-0.069209
5204.000000;-0.069463
5203.000000;-0.069697
5202.000000;-0.069886
5201.000000;-0.070004
5200.000000;-0.070054
5199.000000;-0.070080
5198.000000;-0.070149
5197.000000;-0.070269
5196.000000;-0.070423
5195.000000;-0.070603
5194.000000;-0.070749
5193.000000;-0.070815
5192.000000;-0.070843
5191.000000;-0.070896
5190.000000;-0.070984
5189.000000;-0.071097
5188.000000;-0.071220
5187.000000;-0.071318
5186.000000;-0.071351
5185.000000;-0.071340
5184.000000;-0.071383
5183.000000;-0.071554
5182.000000;-0.071796
5181.000000;-0.072000
5180.000000;-0.072132
5179.000000;-0.072211
5178.000000;-0.072249
5177.000000;-0.072285
5176.000000;-0.072388
5175.000000;-0.072565
5174.000000;-0.072719
5173.000000;-0.072776
5172.000000;-0.072778
5171.000000;-0.072811
5170.000000;-0.072889
5169.000000;-0.072991
5168.000000;-0.073131
5167.000000;-0.073307
5166.000000;-0.073439
5165.000000;-0.073462
5164.000000;-0.073436
5163.000000;-0.073459
5162.000000;-0.073522
5161.000000;-0.073559
5160.000000;-0.073577
5159.000000;-0.073612
5158.000000;-0.073642
5157.000000;-0.073649
5156.000000;-0.073686
5155.000000;-0.073799
5154.000000;-0.073951
5153.000000;-0.074090
5152.000000;-0.074220
5151.000000;-0.074372
5150.000000;-0.074529
5149.000000;-0.074643
5148.000000;-0.074696
5147.000000;-0.074713
5146.000000;-0.074717
5145.000000;-0.074718
5144.000000;-0.074745
5143.000000;-0.074820
5142.000000;-0.074916
5141.000000;-0.074994
5140.000000;-0.075069
5139.000000;-0.075195
5138.000000;-0.075366
5137.000000;-0.075535
5136.000000;-0.075686
5135.000000;-0.075839
5134.000000;-0.075975
5133.000000;-0.076051
5132.000000;-0.076079
5131.000000;-0.076113
5130.000000;-0.076165
5129.000000;-0.076212
5128.000000;-0.076260
5127.000000;-0.076323
5126.000000;-0.076370
5125.000000;-0.076373
5124.000000;-0.076368
5123.000000;-0.076416
5122.000000;-0.076515
5121.000000;-0.076611
5120.000000;-0.076688
5119.000000;-0.076772
5118.000000;-0.076866
5117.000000;-0.076948
5116.000000;-0.077023
5115.000000;-0.077121
5114.000000;-0.077244
5113.000000;-0.077376
5112.000000;-0.077520
5111.000000;-0.077677
5110.000000;-0.077810
5109.000000;-0.077881
5108.000000;-0.077914
5107.000000;-0.077967
5106.000000;-0.078068
5105.000000;-0.078194
5104.000000;-0.078315
5103.000000;-0.078420
5102.000000;-0.078502
5101.000000;-0.078562
5100.000000;-0.078630
5099.000000;-0.078731
5098.000000;-0.078848
5097.000000;-0.078936
5096.000000;-0.078984
5095.000000;-0.079007
5094.000000;-0.079009
5093.000000;-0.078994
5092.000000;-0.078986
5091.000000;-0.079014
5090.000000;-0.079066
5089.000000;-0.079109
5088.000000;-0.079144
5087.000000;-0.079187
5086.000000;-0.079232
5085.000000;-0.079265
5084.000000;-0.079309
5083.000000;-0.079404
5082.000000;-0.079541
5081.000000;-0.079669
5080.000000;-0.079764
5079.000000;-0.079843
5078.000000;-0.079922
5077.000000;-0.079998
5076.000000;-0.080087
5075.000000;-0.080210
5074.000000;-0.080351
5073.000000;-0.080468
5072.000000;-0.080555
5071.000000;-0.080641
5070.000000;-0.080737
5069.000000;-0.080822
5068.000000;-0.080885
5067.000000;-0.080944
5066.000000;-0.081019
5065.000000;-0.081104
5064.000000;-0.081185
5063.000000;-0.081248
5062.000000;-0.081273
5061.000000;-0.081261
5060.000000;-0.081251
5059.000000;-0.081283
5058.000000;-0.081349
5057.000000;-0.081412
5056.000000;-0.081452
5055.000000;-0.081473
5054.000000;-0.081479
5053.000000;-0.081482
5052.000000;-0.081522
5051.000000;-0.081628
5050.000000;-0.081775
5049.000000;-0.081908
5048.000000;-0.082006
5047.000000;-0.082086
5046.000000;-0.082163
5045.000000;-0.082236
5044.000000;-0.082322
5043.000000;-0.082433
5042.000000;-0.082547
5041.000000;-0.082623
5040.000000;-0.082665
5039.000000;-0.082709
5038.000000;-0.082776
5037.000000;-0.082856
5036.000000;-0.082934
5035.000000;-0.083009
5034.000000;-0.083071
5033.000000;-0.083114
5032.000000;-0.083160
5031.000000;-0.083246
5030.000000;-0.083372
5029.000000;-0.083503
5028.000000;-0.083612
5027.000000;-0.083705
5026.000000;-0.083786
5025.000000;-0.083850
5024.000000;-0.083890
5023.000000;-0.083914
5022.000000;-0.083938
5021.000000;-0.083989
5020.000000;-0.084091
5019.000000;-0.084233
5018.000000;-0.084361
5017.000000;-0.084429
5016.000000;-0.084448
5015.000000;-0.084472
5014.000000;-0.084530
5013.000000;-0.084622
5012.000000;-0.084739
5011.000000;-0.084862
5010.000000;-0.084954
5009.000000;-0.084987
5008.000000;-0.084978
5007.000000;-0.084976
5006.000000;-0.085018
5005.000000;-0.085108
5004.000000;-0.085230
5003.000000;-0.085344
5002.000000;-0.085400
5001.000000;-0.085395
5000.000000;-0.085394
4999.000000;-0.085458
4998.000000;-0.085579
4997.000000;-0.085694
4996.000000;-0.085763
4995.000000;-0.085798
4994.000000;-0.085815
4993.000000;-0.085826
4992.000000;-0.085854
4991.000000;-0.085925
4990.000000;-0.086033
4989.000000;-0.086144
4988.000000;-0.086243
4987.000000;-0.086338
4986.000000;-0.086433
4985.000000;-0.086517
4984.000000;-0.086593
4983.000000;-0.086679
4982.000000;-0.086782
4981.000000;-0.086889
4980.000000;-0.086991
4979.000000;-0.087090
4978.000000;-0.087183
4977.000000;-0.087264
4976.000000;-0.087344
4975.000000;-0.087433
4974.000000;-0.087530
4973.000000;-0.087620
4972.000000;-0.087693
4971.000000;-0.087743
4970.000000;-0.087763
4969.000000;-0.087770
4968.000000;-0.087814
4967.000000;-0.087929
4966.000000;-0.088085
4965.000000;-0.088214
4964.000000;-0.088284
4963.000000;-0.088313
4962.000000;-0.088337
4961.000000;-0.088378
4960.000000;-0.088452
4959.000000;-0.088558
4958.000000;-0.088671
4957.000000;-0.088766
4956.000000;-0.088850
4955.000000;-0.088943
4954.000000;-0.089044
4953.000000;-0.089141
4952.000000;-0.089237
4951.000000;-0.089343
4950.000000;-0.089442
4949.000000;-0.089503
4948.000000;-0.089527
4947.000000;-0.089547
4946.000000;-0.089590
4945.000000;-0.089657
4944.000000;-0.089744
4943.000000;-0.089860
4942.000000;-0.090002
4941.000000;-0.090160
4940.000000;-0.090326
4939.000000;-0.090492
4938.000000;-0.090639
4937.000000;-0.090745
4936.000000;-0.090810
4935.000000;-0.090852
4934.000000;-0.090885
4933.000000;-0.090919
4932.000000;-0.090970
4931.000000;-0.091051
4930.000000;-0.091155
4929.000000;-0.091262
4928.000000;-0.091364
4927.000000;-0.091463
4926.000000;-0.091551
4925.000000;-0.091628
4924.000000;-0.091720
4923.000000;-0.091862
4922.000000;-0.092048
4921.000000;-0.092230
4920.000000;-0.092367
4919.000000;-0.092452
4918.000000;-0.092498
4917.000000;-0.092530
4916.000000;-0.092579
4915.000000;-0.092668
4914.000000;-0.092796
4913.000000;-0.092940
4912.000000;-0.093073
4911.000000;-0.093173
4910.000000;-0.093224
4909.000000;-0.093243
4908.000000;-0.093280
4907.000000;-0.093379
4906.000000;-0.093535
4905.000000;-0.093700
4904.000000;-0.093843
4903.000000;-0.093970
4902.000000;-0.094096
4901.000000;-0.094239
4900.000000;-0.094406
4899.000000;-0.094588
4898.000000;-0.094747
4897.000000;-0.094853
4896.000000;-0.094915
4895.000000;-0.094966
4894.000000;-0.095026
4893.000000;-0.095100
4892.000000;-0.095191
4891.000000;-0.095305
4890.000000;-0.095436
4889.000000;-0.095566
4888.000000;-0.095695
4887.000000;-0.095829
4886.000000;-0.095966
4885.000000;-0.096085
4884.000000;-0.096177
4883.000000;-0.096252
4882.000000;-0.096327
4881.000000;-0.096416
4880.000000;-0.096524
4879.000000;-0.096639
4878.000000;-0.096731
4877.000000;-0.096795
4876.000000;-0.096859
4875.000000;-0.096957
4874.000000;-0.097076
4873.000000;-0.097172
4872.000000;-0.097228
4871.000000;-0.097270
4870.000000;-0.097334
4869.000000;-0.097434
4868.000000;-0.097564
4867.000000;-0.097705
4866.000000;-0.097837
4865.000000;-0.097944
4864.000000;-0.098035
4863.000000;-0.098133
4862.000000;-0.098256
4861.000000;-0.098401
4860.000000;-0.098549
4859.000000;-0.098675
4858.000000;-0.098759
4857.000000;-0.098810
4856.000000;-0.098866
4855.000000;-0.098962
4854.000000;-0.099097
4853.000000;-0.099253
4852.000000;-0.099408
4851.000000;-0.099543
4850.000000;-0.099636
4849.000000;-0.099684
4848.000000;-0.099718
4847.000000;-0.099775
4846.000000;-0.099862
4845.000000;-0.099967
4844.000000;-0.100077
4843.000000;-0.100181
4842.000000;-0.100266
4841.000000;-0.100329
4840.000000;-0.100388
4839.000000;-0.100470
4838.000000;-0.100582
4837.000000;-0.100716
4836.000000;-0.100863
4835.000000;-0.101011
4834.000000;-0.101134
4833.000000;-0.101216
4832.000000;-0.101276
4831.000000;-0.101348
4830.000000;-0.101448
4829.000000;-0.101561
4828.000000;-0.101672
4827.000000;-0.101776
4826.000000;-0.101885
4825.000000;-0.102022
4824.000000;-0.102206
4823.000000;-0.102416
4822.000000;-0.102599
4821.000000;-0.102718
4820.000000;-0.102787
4819.000000;-0.102836
4818.000000;-0.102868
4817.000000;-0.102878
4816.000000;-0.102892
4815.000000;-0.102957
4814.000000;-0.103076
4813.000000;-0.103204
4812.000000;-0.103294
4811.000000;-0.103338
4810.000000;-0.103367
4809.000000;-0.103417
4808.000000;-0.103520
4807.000000;-0.103684
4806.000000;-0.103880
4805.000000;-0.104055
4804.000000;-0.104169
4803.000000;-0.104214
4802.000000;-0.104209
4801.000000;-0.104196
4800.000000;-0.104226
4799.000000;-0.104333
4798.000000;-0.104502
4797.000000;-0.104679
4796.000000;-0.104814
4795.000000;-0.104892
4794.000000;-0.104935
4793.000000;-0.104987
4792.000000;-0.105086
4791.000000;-0.105231
4790.000000;-0.105377
4789.000000;-0.105481
4788.000000;-0.105539
4787.000000;-0.105592
4786.000000;-0.105688
4785.000000;-0.105851
4784.000000;-0.106056
4783.000000;-0.106239
4782.000000;-0.106338
4781.000000;-0.106342
4780.000000;-0.106302
4779.000000;-0.106275
4778.000000;-0.106286
4777.000000;-0.106339
4776.000000;-0.106433
4775.000000;-0.106552
4774.000000;-0.106655
4773.000000;-0.106718
4772.000000;-0.106755
4771.000000;-0.106795
4770.000000;-0.106845
4769.000000;-0.106904
4768.000000;-0.106984
4767.000000;-0.107098
4766.000000;-0.107226
4765.000000;-0.107328
4764.000000;-0.107394
4763.000000;-0.107441
4762.000000;-0.107487
4761.000000;-0.107536
4760.000000;-0.107603
4759.000000;-0.107702
4758.000000;-0.107831
4757.000000;-0.107966
4756.000000;-0.108081
4755.000000;-0.108164
4754.000000;-0.108218
4753.000000;-0.108263
4752.000000;-0.108326
4751.000000;-0.108416
4750.000000;-0.108505
4749.000000;-0.108555
4748.000000;-0.108572
4747.000000;-0.108605
4746.000000;-0.108704
4745.000000;-0.108881
4744.000000;-0.109103
4743.000000;-0.109305
4742.000000;-0.109422
4741.000000;-0.109435
4740.000000;-0.109392
4739.000000;-0.109375
4738.000000;-0.109430
4737.000000;-0.109552
4736.000000;-0.109698
4735.000000;-0.109827
4734.000000;-0.109914
4733.000000;-0.109966
4732.000000;-0.110013
4731.000000;-0.110080
4730.000000;-0.110164
4729.000000;-0.110252
4728.000000;-0.110337
4727.000000;-0.110419
4726.000000;-0.110489
4725.000000;-0.110550
4724.000000;-0.110631
4723.000000;-0.110755
4722.000000;-0.110910
4721.000000;-0.111052
4720.000000;-0.111149
4719.000000;-0.111198
4718.000000;-0.111221
4717.000000;-0.111250
4716.000000;-0.111310
4715.000000;-0.111401
4714.000000;-0.111500
4713.000000;-0.111589
4712.000000;-0.111660
4711.000000;-0.111697
4710.000000;-0.111679
4709.000000;-0.111621
4708.000000;-0.111584
4707.000000;-0.111618
4706.000000;-0.111712
4705.000000;-0.111820
4704.000000;-0.111910
4703.000000;-0.111961
4702.000000;-0.111961
4701.000000;-0.111928
4700.000000;-0.111932
4699.000000;-0.112033
4698.000000;-0.112207
4697.000000;-0.112367
4696.000000;-0.112453
4695.000000;-0.112485
4694.000000;-0.112512
4693.000000;-0.112563
4692.000000;-0.112640
4691.000000;-0.112733
4690.000000;-0.112834
4689.000000;-0.112936
4688.000000;-0.113038
4687.000000;-0.113127
4686.000000;-0.113179
4685.000000;-0.113186
4684.000000;-0.113180
4683.000000;-0.113193
4682.000000;-0.113216
4681.000000;-0.113207
4680.000000;-0.113149
4679.000000;-0.113074
4678.000000;-0.113029
4677.000000;-0.113046
4676.000000;-0.113131
4675.000000;-0.113264
4674.000000;-0.113400
4673.000000;-0.113501
4672.000000;-0.113568
4671.000000;-0.113618
4670.000000;-0.113651
4669.000000;-0.113662
4668.000000;-0.113672
4667.000000;-0.113710
4666.000000;-0.113778
4665.000000;-0.113833
4664.000000;-0.113837
4663.000000;-0.113793
4662.000000;-0.113730
4661.000000;-0.113686
4660.000000;-0.113685
4659.000000;-0.113726
4658.000000;-0.113774
4657.000000;-0.113794
4656.000000;-0.113788
4655.000000;-0.113788
4654.000000;-0.113809
4653.000000;-0.113839
4652.000000;-0.113858
4651.000000;-0.113854
4650.000000;-0.113818
4649.000000;-0.113747
4648.000000;-0.113662
4647.000000;-0.113607
4646.000000;-0.113617
4645.000000;-0.113693
4644.000000;-0.113803
4643.000000;-0.113889
4642.000000;-0.113886
4641.000000;-0.113768
4640.000000;-0.113578
4639.000000;-0.113407
4638.000000;-0.113329
4637.000000;-0.113354
4636.000000;-0.113441
4635.000000;-0.113539
4634.000000;-0.113611
4633.000000;-0.113647
4632.000000;-0.113660
4631.000000;-0.113665
4630.000000;-0.113662
4629.000000;-0.113645
4628.000000;-0.113613
4627.000000;-0.113568
4626.000000;-0.113506
4625.000000;-0.113423
4624.000000;-0.113335
4623.000000;-0.113268
4622.000000;-0.113234
4621.000000;-0.113229
4620.000000;-0.113237
4619.000000;-0.113240
4618.000000;-0.113222
4617.000000;-0.113176
4616.000000;-0.113110
4615.000000;-0.113033
4614.000000;-0.112959
4613.000000;-0.112903
4612.000000;-0.112875
4611.000000;-0.112847
4610.000000;-0.112765
4609.000000;-0.112607
4608.000000;-0.112410
4607.000000;-0.112235
4606.000000;-0.112098
4605.000000;-0.111980
4604.000000;-0.111872
4603.000000;-0.111782
4602.000000;-0.111701
4601.000000;-0.111608
4600.000000;-0.111503
4599.000000;-0.111403
4598.000000;-0.111306
4597.000000;-0.111185
4596.000000;-0.111029
4595.000000;-0.110858
4594.000000;-0.110694
4593.000000;-0.110541
4592.000000;-0.110402
4591.000000;-0.110288
4590.000000;-0.110202
4589.000000;-0.110126
4588.000000;-0.110032
4587.000000;-0.109909
4586.000000;-0.109759
4585.000000;-0.109601
4584.000000;-0.109454
4583.000000;-0.109324
4582.000000;-0.109186
4581.000000;-0.108996
4580.000000;-0.108728
4579.000000;-0.108391
4578.000000;-0.108019
4577.000000;-0.107653
4576.000000;-0.107332
4575.000000;-0.107073
4574.000000;-0.106855
4573.000000;-0.106629
4572.000000;-0.106346
4571.000000;-0.105984
4570.000000;-0.105555
4569.000000;-0.105101
4568.000000;-0.104678
4567.000000;-0.104318
4566.000000;-0.104007
4565.000000;-0.103713
4564.000000;-0.103422
4563.000000;-0.103127
4562.000000;-0.102804
4561.000000;-0.102431
4560.000000;-0.102017
4559.000000;-0.101590
4558.000000;-0.101149
4557.000000;-0.100673
4556.000000;-0.100163
4555.000000;-0.099665
4554.000000;-0.099223
4553.000000;-0.098834
4552.000000;-0.098456
4551.000000;-0.098032
4550.000000;-0.097518
4549.000000;-0.096905
4548.000000;-0.096233
4547.000000;-0.095574
4546.000000;-0.094978
4545.000000;-0.094440
4544.000000;-0.093917
4543.000000;-0.093369
4542.000000;-0.092788
4541.000000;-0.092194
4540.000000;-0.091627
4539.000000;-0.091117
4538.000000;-0.090670
4537.000000;-0.090263
4536.000000;-0.089854
4535.000000;-0.089401
4534.000000;-0.088890
4533.000000;-0.088354
4532.000000;-0.087863
4531.000000;-0.087465
4530.000000;-0.087147
4529.000000;-0.086853
4528.000000;-0.086536
4527.000000;-0.086180
4526.000000;-0.085805
4525.000000;-0.085443
4524.000000;-0.085132
4523.000000;-0.084885
4522.000000;-0.084681
4521.000000;-0.084485
4520.000000;-0.084272
4519.000000;-0.084034
4518.000000;-0.083774
4517.000000;-0.083503
4516.000000;-0.083248
4515.000000;-0.083032
4514.000000;-0.082849
4513.000000;-0.082667
4512.000000;-0.082446
4511.000000;-0.082160
4510.000000;-0.081818
4509.000000;-0.081474
4508.000000;-0.081194
4507.000000;-0.080994
4506.000000;-0.080833
4505.000000;-0.080661
4504.000000;-0.080473
4503.000000;-0.080293
4502.000000;-0.080128
4501.000000;-0.079965
4500.000000;-0.079795
4499.000000;-0.079613
4498.000000;-0.079406
4497.000000;-0.079161
4496.000000;-0.078885
4495.000000;-0.078589
4494.000000;-0.078270
4493.000000;-0.077931
4492.000000;-0.077607
4491.000000;-0.077343
4490.000000;-0.077139
4489.000000;-0.076942
4488.000000;-0.076689
4487.000000;-0.076359
4486.000000;-0.075981
4485.000000;-0.075606
4484.000000;-0.075272
4483.000000;-0.074979
4482.000000;-0.074692
4481.000000;-0.074386
4480.000000;-0.074071
4479.000000;-0.073778
4478.000000;-0.073507
4477.000000;-0.073230
4476.000000;-0.072921
4475.000000;-0.072566
4474.000000;-0.072160
4473.000000;-0.071705
4472.000000;-0.071230
4471.000000;-0.070779
4470.000000;-0.070375
4469.000000;-0.070002
4468.000000;-0.069630
4467.000000;-0.069238
4466.000000;-0.068823
4465.000000;-0.068392
4464.000000;-0.067951
4463.000000;-0.067504
4462.000000;-0.067049
4461.000000;-0.066592
4460.000000;-0.066140
4459.000000;-0.065689
4458.000000;-0.065218
4457.000000;-0.064709
4456.000000;-0.064168
4455.000000;-0.063622
4454.000000;-0.063110
4453.000000;-0.062676
4452.000000;-0.062340
4451.000000;-0.062062
4450.000000;-0.061748
4449.000000;-0.061315
4448.000000;-0.060762
4447.000000;-0.060154
4446.000000;-0.059554
4445.000000;-0.058996
4444.000000;-0.058485
4443.000000;-0.058010
4442.000000;-0.057548
4441.000000;-0.057072
4440.000000;-0.056574
4439.000000;-0.056048
4438.000000;-0.055491
4437.000000;-0.054917
4436.000000;-0.054360
4435.000000;-0.053838
4434.000000;-0.053319
4433.000000;-0.052746
4432.000000;-0.052111
4431.000000;-0.051457
4430.000000;-0.050840
4429.000000;-0.050283
4428.000000;-0.049782
4427.000000;-0.049304
4426.000000;-0.048805
4425.000000;-0.048246
4424.000000;-0.047626
4423.000000;-0.046981
4422.000000;-0.046360
4421.000000;-0.045786
4420.000000;-0.045247
4419.000000;-0.044698
4418.000000;-0.044090
4417.000000;-0.043420
4416.000000;-0.042728
4415.000000;-0.042047
4414.000000;-0.041368
4413.000000;-0.040674
4412.000000;-0.039976
4411.000000;-0.039293
4410.000000;-0.038619
4409.000000;-0.037935
4408.000000;-0.037248
4407.000000;-0.036569
4406.000000;-0.035889
4405.000000;-0.035184
4404.000000;-0.034468
4403.000000;-0.033781
4402.000000;-0.033122
4401.000000;-0.032444
4400.000000;-0.031714
4399.000000;-0.030960
4398.000000;-0.030234
4397.000000;-0.029558
4396.000000;-0.028902
4395.000000;-0.028221
4394.000000;-0.027485
4393.000000;-0.026687
4392.000000;-0.025841
4391.000000;-0.024965
4390.000000;-0.024077
4389.000000;-0.023197
4388.000000;-0.022335
4387.000000;-0.021475
4386.000000;-0.020590
4385.000000;-0.019663
4384.000000;-0.018698
4383.000000;-0.017714
4382.000000;-0.016739
4381.000000;-0.015809
4380.000000;-0.014927
4379.000000;-0.014030
4378.000000;-0.013033
4377.000000;-0.011935
4376.000000;-0.010835
4375.000000;-0.009816
4374.000000;-0.008858
4373.000000;-0.007900
4372.000000;-0.006937
4371.000000;-0.006000
4370.000000;-0.005064
4369.000000;-0.004047
4368.000000;-0.002915
4367.000000;-0.001736
4366.000000;-0.000609
4365.000000;0.000436
4364.000000;0.001442
4363.000000;0.002469
4362.000000;0.003544
4361.000000;0.004652
4360.000000;0.005772
4359.000000;0.006896
4358.000000;0.008029
4357.000000;0.009167
4356.000000;0.010312
4355.000000;0.011498
4354.000000;0.012774
4353.000000;0.014131
4352.000000;0.015487
4351.000000;0.016776
4350.000000;0.018016
4349.000000;0.019265
4348.000000;0.020545
4347.000000;0.021843
4346.000000;0.023169
4345.000000;0.024537
4344.000000;0.025912
4343.000000;0.027224
4342.000000;0.028441
4341.000000;0.029606
4340.000000;0.030798
4339.000000;0.032087
4338.000000;0.033512
4337.000000;0.035051
4336.000000;0.036618
4335.000000;0.038130
4334.000000;0.039574
4333.000000;0.040993
4332.000000;0.042417
4331.000000;0.043843
4330.000000;0.045275
4329.000000;0.046722
4328.000000;0.048164
4327.000000;0.049559
4326.000000;0.050900
4325.000000;0.052235
4324.000000;0.053618
4323.000000;0.055070
4322.000000;0.056600
4321.000000;0.058206
4320.000000;0.059853
4319.000000;0.061471
4318.000000;0.062996
4317.000000;0.064429
4316.000000;0.065838
4315.000000;0.067312
4314.000000;0.068895
4313.000000;0.070549
4312.000000;0.072184
4311.000000;0.073733
4310.000000;0.075206
4309.000000;0.076674
4308.000000;0.078224
4307.000000;0.079924
4306.000000;0.081776
4305.000000;0.083679
4304.000000;0.085462
4303.000000;0.087024
4302.000000;0.088422
4301.000000;0.089824
4300.000000;0.091370
4299.000000;0.093098
4298.000000;0.094949
4297.000000;0.096798
4296.000000;0.098519
4295.000000;0.100091
4294.000000;0.101629
4293.000000;0.103289
4292.000000;0.105130
4291.000000;0.107097
4290.000000;0.109094
4289.000000;0.111045
4288.000000;0.112909
4287.000000;0.114699
4286.000000;0.116481
4285.000000;0.118319
4284.000000;0.120228
4283.000000;0.122188
4282.000000;0.124181
4281.000000;0.126158
4280.000000;0.128034
4279.000000;0.129787
4278.000000;0.131523
4277.000000;0.133374
4276.000000;0.135348
4275.000000;0.137355
4274.000000;0.139356
4273.000000;0.141378
4272.000000;0.143388
4271.000000;0.145285
4270.000000;0.147056
4269.000000;0.148855
4268.000000;0.150844
4267.000000;0.153002
4266.000000;0.155161
4265.000000;0.157200
4264.000000;0.159148
4263.000000;0.161128
4262.000000;0.163218
4261.000000;0.165378
4260.000000;0.167510
4259.000000;0.169580
4258.000000;0.171663
4257.000000;0.173844
4256.000000;0.176102
4255.000000;0.178341
4254.000000;0.180512
4253.000000;0.182656
4252.000000;0.184825
4251.000000;0.187011
4250.000000;0.189183
4249.000000;0.191320
4248.000000;0.193417
4247.000000;0.195497
4246.000000;0.197619
4245.000000;0.199849
4244.000000;0.202205
4243.000000;0.204651
4242.000000;0.207131
4241.000000;0.209564
4240.000000;0.211829
4239.000000;0.213853
4238.000000;0.215731
4237.000000;0.217682
4236.000000;0.219870
4235.000000;0.222289
4234.000000;0.224850
4233.000000;0.227499
4232.000000;0.230213
4231.000000;0.232932
4230.000000;0.235561
4229.000000;0.238055
4228.000000;0.240448
4227.000000;0.242831
4226.000000;0.245286
4225.000000;0.247845
4224.000000;0.250486
4223.000000;0.253165
4222.000000;0.255846
4221.000000;0.258509
4220.000000;0.261138
4219.000000;0.263749
4218.000000;0.266397
4217.000000;0.269134
4216.000000;0.271958
4215.000000;0.274814
4214.000000;0.277670
4213.000000;0.280539
4212.000000;0.283454
4211.000000;0.286432
4210.000000;0.289427
4209.000000;0.292328
4208.000000;0.295052
4207.000000;0.297673
4206.000000;0.300415
4205.000000;0.303435
4204.000000;0.306647
4203.000000;0.309818
4202.000000;0.312820
4201.000000;0.315701
4200.000000;0.318546
4199.000000;0.321384
4198.000000;0.324264
4197.000000;0.327299
4196.000000;0.330555
4195.000000;0.333948
4194.000000;0.337284
4193.000000;0.340434
4192.000000;0.343448
4191.000000;0.346529
4190.000000;0.349875
4189.000000;0.353497
4188.000000;0.357186
4187.000000;0.360689
4186.000000;0.363930
4185.000000;0.367039
4184.000000;0.370182
4183.000000;0.373441
4182.000000;0.376826
4181.000000;0.380313
4180.000000;0.383836
4179.000000;0.387330
4178.000000;0.390816
4177.000000;0.394385
4176.000000;0.398042
4175.000000;0.401635
4174.000000;0.404985
4173.000000;0.408097
4172.000000;0.411162
4171.000000;0.414386
4170.000000;0.417836
4169.000000;0.421464
4168.000000;0.425213
4167.000000;0.429062
4166.000000;0.432991
4165.000000;0.436952
4164.000000;0.440879
4163.000000;0.444714
4162.000000;0.448414
4161.000000;0.451979
4160.000000;0.455483
4159.000000;0.459055
4158.000000;0.462786
4157.000000;0.466665
4156.000000;0.470640
4155.000000;0.474672
4154.000000;0.478671
4153.000000;0.482470
4152.000000;0.485993
4151.000000;0.489432
4150.000000;0.493085
4149.000000;0.497011
4148.000000;0.500982
4147.000000;0.504845
4146.000000;0.508754
4145.000000;0.512938
4144.000000;0.517358
4143.000000;0.521722
4142.000000;0.525781
4141.000000;0.529533
4140.000000;0.533171
4139.000000;0.536929
4138.000000;0.540909
4137.000000;0.545003
4136.000000;0.549033
4135.000000;0.552979
4134.000000;0.556946
4133.000000;0.560895
4132.000000;0.564609
4131.000000;0.568041
4130.000000;0.571492
4129.000000;0.575292
4128.000000;0.579452
4127.000000;0.583782
4126.000000;0.588171
4125.000000;0.592542
4124.000000;0.596673
4123.000000;0.600381
4122.000000;0.603856
4121.000000;0.607516
4120.000000;0.611524
4119.000000;0.615653
4118.000000;0.619617
4117.000000;0.623334
4116.000000;0.626858
4115.000000;0.630283
4114.000000;0.633803
4113.000000;0.637642
4112.000000;0.641816
4111.000000;0.646097
4110.000000;0.650285
4109.000000;0.654410
4108.000000;0.658588
4107.000000;0.662777
4106.000000;0.666790
4105.000000;0.670506
4104.000000;0.673989
4103.000000;0.677441
4102.000000;0.681057
4101.000000;0.684903
4100.000000;0.688888
4099.000000;0.692888
4098.000000;0.696901
4097.000000;0.701064
4096.000000;0.705474
4095.000000;0.709948
4094.000000;0.713988
4093.000000;0.717154
4092.000000;0.719631
4091.000000;0.722325
4090.000000;0.726115
4089.000000;0.730967
4088.000000;0.735978
4087.000000;0.740349
4086.000000;0.744081
4085.000000;0.747601
4084.000000;0.751050
4083.000000;0.754285
4082.000000;0.757336
4081.000000;0.760491
4080.000000;0.763938
4079.000000;0.767640
4078.000000;0.771502
4077.000000;0.775430
4076.000000;0.779193
4075.000000;0.782519
4074.000000;0.785444
4073.000000;0.788400
4072.000000;0.791824
4071.000000;0.795739
4070.000000;0.799782
4069.000000;0.803625
4068.000000;0.807296
4067.000000;0.811036
4066.000000;0.814844
4065.000000;0.818307
4064.000000;0.821080
4063.000000;0.823465
4062.000000;0.826201
4061.000000;0.829660
4060.000000;0.833488
4059.000000;0.837134
4058.000000;0.840444
4057.000000;0.843574
4056.000000;0.846632
4055.000000;0.849709
4054.000000;0.853046
4053.000000;0.856798
4052.000000;0.860691
4051.000000;0.864180
4050.000000;0.866957
4049.000000;0.869144
4048.000000;0.871067
4047.000000;0.873050
4046.000000;0.875331
4045.000000;0.877886
4044.000000;0.880271
4043.000000;0.881935
4042.000000;0.882817
4041.000000;0.883530
4040.000000;0.884855
4039.000000;0.887145
4038.000000;0.890191
4037.000000;0.893485
4036.000000;0.896510
4035.000000;0.898885
4034.000000;0.900426
4033.000000;0.901222
4032.000000;0.901665
4031.000000;0.902261
4030.000000;0.903320
4029.000000;0.904856
4028.000000;0.906737
4027.000000;0.908769
4026.000000;0.910583
4025.000000;0.911620
4024.000000;0.911487
4023.000000;0.910391
4022.000000;0.909127
4021.000000;0.908593
4020.000000;0.909245
4019.000000;0.910825
4018.000000;0.912516
4017.000000;0.913505
4016.000000;0.913535
4015.000000;0.912938
4014.000000;0.912184
4013.000000;0.911592
4012.000000;0.911376
4011.000000;0.911529
4010.000000;0.911541
4009.000000;0.910694
4008.000000;0.908841
4007.000000;0.906596
4006.000000;0.904586
4005.000000;0.902935
4004.000000;0.901651
4003.000000;0.900975
4002.000000;0.900870
4001.000000;0.900543
4000.000000;0.899145
3999.000000;0.896814
3998.000000;0.894520
3997.000000;0.892934
3996.000000;0.891876
3995.000000;0.890759
3994.000000;0.889134
3993.000000;0.886726
3992.000000;0.883439
3991.000000;0.879533
3990.000000;0.875544
3989.000000;0.871926
3988.000000;0.868873
3987.000000;0.866389
3986.000000;0.864332
3985.000000;0.862416
3984.000000;0.860379
3983.000000;0.858095
3982.000000;0.855442
3981.000000;0.852295
3980.000000;0.848828
3979.000000;0.845589
3978.000000;0.842894
3977.000000;0.840310
3976.000000;0.837062
3975.000000;0.832874
3974.000000;0.828091
3973.000000;0.823227
3972.000000;0.818788
3971.000000;0.815341
3970.000000;0.813185
3969.000000;0.811829
3968.000000;0.810235
3967.000000;0.807826
3966.000000;0.804959
3965.000000;0.802198
3964.000000;0.799418
3963.000000;0.795985
3962.000000;0.791675
3961.000000;0.787052
3960.000000;0.782856
3959.000000;0.779202
3958.000000;0.775558
3957.000000;0.771478
3956.000000;0.767169
3955.000000;0.763198
3954.000000;0.759699
3953.000000;0.756081
3952.000000;0.751609
3951.000000;0.746211
3950.000000;0.740663
3949.000000;0.736050
3948.000000;0.733010
3947.000000;0.731160
3946.000000;0.729087
3945.000000;0.725270
3944.000000;0.719544
3943.000000;0.713565
3942.000000;0.709352
3941.000000;0.707282
3940.000000;0.705774
3939.000000;0.702999
3938.000000;0.698574
3937.000000;0.693342
3936.000000;0.687961
3935.000000;0.682386
3934.000000;0.676580
3933.000000;0.671037
3932.000000;0.666345
3931.000000;0.662611
3930.000000;0.659544
3929.000000;0.656786
3928.000000;0.653869
3927.000000;0.650182
3926.000000;0.645470
3925.000000;0.640318
3924.000000;0.635628
3923.000000;0.631579
3922.000000;0.627492
3921.000000;0.622750
3920.000000;0.617474
3919.000000;0.612213
3918.000000;0.607370
3917.000000;0.603114
3916.000000;0.599470
3915.000000;0.596249
3914.000000;0.593138
3913.000000;0.590076
3912.000000;0.587251
3911.000000;0.584547
3910.000000;0.581316
3909.000000;0.577012
3908.000000;0.571803
3907.000000;0.566250
3906.000000;0.560669
3905.000000;0.555188
3904.000000;0.550133
3903.000000;0.545807
3902.000000;0.542004
3901.000000;0.538213
3900.000000;0.534361
3899.000000;0.530953
3898.000000;0.528405
3897.000000;0.526551
3896.000000;0.524839
3895.000000;0.522711
3894.000000;0.519783
3893.000000;0.516068
3892.000000;0.512158
3891.000000;0.508817
3890.000000;0.506158
3889.000000;0.503474
3888.000000;0.500085
3887.000000;0.496203
3886.000000;0.492678
3885.000000;0.490022
3884.000000;0.487950
3883.000000;0.485732
3882.000000;0.482919
3881.000000;0.479770
3880.000000;0.476947
3879.000000;0.474804
3878.000000;0.472996
3877.000000;0.470838
3876.000000;0.468088
3875.000000;0.465144
3874.000000;0.462397
3873.000000;0.459698
3872.000000;0.456652
3871.000000;0.453245
3870.000000;0.449956
3869.000000;0.447160
3868.000000;0.444640
3867.000000;0.441875
3866.000000;0.438749
3865.000000;0.435726
3864.000000;0.433264
3863.000000;0.431364
3862.000000;0.429777
3861.000000;0.428410
3860.000000;0.427331
3859.000000;0.426372
3858.000000;0.424959
3857.000000;0.422490
3856.000000;0.418880
3855.000000;0.414713
3854.000000;0.410843
3853.000000;0.407858
3852.000000;0.405801
3851.000000;0.404183
3850.000000;0.402460
3849.000000;0.400664
3848.000000;0.399054
3847.000000;0.397526
3846.000000;0.395835
3845.000000;0.393907
3844.000000;0.391787
3843.000000;0.389474
3842.000000;0.386934
3841.000000;0.384264
3840.000000;0.381718
3839.000000;0.379484
3838.000000;0.377396
3837.000000;0.374953
3836.000000;0.371876
3835.000000;0.368651
3834.000000;0.366170
3833.000000;0.364727
3832.000000;0.363602
3831.000000;0.361856
3830.000000;0.359331
3829.000000;0.356561
3828.000000;0.353921
3827.000000;0.351326
3826.000000;0.348704
3825.000000;0.346314
3824.000000;0.344352
3823.000000;0.342553
3822.000000;0.340488
3821.000000;0.338050
3820.000000;0.335411
3819.000000;0.332670
3818.000000;0.329832
3817.000000;0.327160
3816.000000;0.324985
3815.000000;0.323142
3814.000000;0.321153
3813.000000;0.318858
3812.000000;0.316574
3811.000000;0.314627
3810.000000;0.312897
3809.000000;0.311066
3808.000000;0.309064
3807.000000;0.307003
3806.000000;0.304897
3805.000000;0.302621
3804.000000;0.300076
3803.000000;0.297351
3802.000000;0.294685
3801.000000;0.292206
3800.000000;0.289813
3799.000000;0.287300
3798.000000;0.284709
3797.000000;0.282543
3796.000000;0.281134
3795.000000;0.280022
3794.000000;0.278428
3793.000000;0.276104
3792.000000;0.273417
3791.000000;0.270731
3790.000000;0.268065
3789.000000;0.265407
3788.000000;0.262934
3787.000000;0.260718
3786.000000;0.258544
3785.000000;0.256236
3784.000000;0.253882
3783.000000;0.251572
3782.000000;0.249187
3781.000000;0.246688
3780.000000;0.244338
3779.000000;0.242323
3778.000000;0.240377
3777.000000;0.238085
3776.000000;0.235391
3775.000000;0.232566
3774.000000;0.229759
3773.000000;0.226951
3772.000000;0.224269
3771.000000;0.221958
3770.000000;0.219956
3769.000000;0.217810
3768.000000;0.215151
3767.000000;0.212052
3766.000000;0.208834
3765.000000;0.205647
3764.000000;0.202439
3763.000000;0.199314
3762.000000;0.196644
3761.000000;0.194713
3760.000000;0.193310
3759.000000;0.191775
3758.000000;0.189504
3757.000000;0.186393
3756.000000;0.182870
3755.000000;0.179511
3754.000000;0.176625
3753.000000;0.174120
3752.000000;0.171636
3751.000000;0.168857
3750.000000;0.165782
3749.000000;0.162675
3748.000000;0.159720
3747.000000;0.156809
3746.000000;0.153814
3745.000000;0.150896
3744.000000;0.148319
3743.000000;0.146024
3742.000000;0.143585
3741.000000;0.140808
3740.000000;0.138191
3739.000000;0.136106
3738.000000;0.134090
3737.000000;0.131569
3736.000000;0.128631
3735.000000;0.125778
3734.000000;0.123221
3733.000000;0.120691
3732.000000;0.117837
3731.000000;0.114576
3730.000000;0.111109
3729.000000;0.107773
3728.000000;0.104800
3727.000000;0.102016
3726.000000;0.099016
3725.000000;0.095768
3724.000000;0.092760
3723.000000;0.090380
3722.000000;0.088406
3721.000000;0.086270
3720.000000;0.083660
3719.000000;0.080662
3718.000000;0.077427
3717.000000;0.074004
3716.000000;0.070485
3715.000000;0.067031
3714.000000;0.063726
3713.000000;0.060565
3712.000000;0.057521
3711.000000;0.054523
3710.000000;0.051455
3709.000000;0.048326
3708.000000;0.045378
3707.000000;0.042810
3706.000000;0.040458
3705.000000;0.037971
3704.000000;0.035251
3703.000000;0.032492
3702.000000;0.029809
3701.000000;0.027063
3700.000000;0.024041
3699.000000;0.020609
3698.000000;0.016722
3697.000000;0.012488
3696.000000;0.008276
3695.000000;0.004579
3694.000000;0.001615
3693.000000;-0.000864
3692.000000;-0.003315
3691.000000;-0.006000
3690.000000;-0.008870
3689.000000;-0.011798
3688.000000;-0.014840
3687.000000;-0.018207
3686.000000;-0.021983
3685.000000;-0.025926
3684.000000;-0.029721
3683.000000;-0.033372
3682.000000;-0.037091
3681.000000;-0.040840
3680.000000;-0.044315
3679.000000;-0.047386
3678.000000;-0.050319
3677.000000;-0.053409
3676.000000;-0.056601
3675.000000;-0.059702
3674.000000;-0.062868
3673.000000;-0.066622
3672.000000;-0.071126
3671.000000;-0.075746
3670.000000;-0.079760
3669.000000;-0.083078
3668.000000;-0.086104
3667.000000;-0.089302
3666.000000;-0.092789
3665.000000;-0.096283
3664.000000;-0.099485
3663.000000;-0.102365
3662.000000;-0.105154
3661.000000;-0.108122
3660.000000;-0.111361
3659.000000;-0.114811
3658.000000;-0.118408
3657.000000;-0.122084
3656.000000;-0.125717
3655.000000;-0.129255
3654.000000;-0.132856
3653.000000;-0.136719
3652.000000;-0.140781
3651.000000;-0.144797
3650.000000;-0.148644
3649.000000;-0.152330
3648.000000;-0.155849
3647.000000;-0.159171
3646.000000;-0.162294
3645.000000;-0.165318
3644.000000;-0.168454
3643.000000;-0.171876
3642.000000;-0.175577
3641.000000;-0.179353
3640.000000;-0.182960
3639.000000;-0.186339
3638.000000;-0.189662
3637.000000;-0.193106
3636.000000;-0.196657
3635.000000;-0.200178
3634.000000;-0.203644
3633.000000;-0.207239
3632.000000;-0.211179
3631.000000;-0.215463
3630.000000;-0.219807
3629.000000;-0.223860
3628.000000;-0.227534
3627.000000;-0.231057
3626.000000;-0.234581
3625.000000;-0.237727
3624.000000;-0.239973
3623.000000;-0.241555
3622.000000;-0.243324
3621.000000;-0.245829
3620.000000;-0.249031
3619.000000;-0.252769
3618.000000;-0.256983
3617.000000;-0.261349
3616.000000;-0.265195
3615.000000;-0.268196
3614.000000;-0.270866
3613.000000;-0.273921
3612.000000;-0.277324
3611.000000;-0.280470
3610.000000;-0.283118
3609.000000;-0.285650
3608.000000;-0.288441
3607.000000;-0.291428
3606.000000;-0.294408
3605.000000;-0.297367
3604.000000;-0.300346
3603.000000;-0.303233
3602.000000;-0.305832
3601.000000;-0.308017
3600.000000;-0.309820
3599.000000;-0.311494
3598.000000;-0.313440
3597.000000;-0.315842
3596.000000;-0.318388
3595.000000;-0.320637
3594.000000;-0.322623
3593.000000;-0.324799
3592.000000;-0.327350
3591.000000;-0.329857
3590.000000;-0.331781
3589.000000;-0.333070
3588.000000;-0.334119
3587.000000;-0.335350
3586.000000;-0.337009
3585.000000;-0.339131
3584.000000;-0.341455
3583.000000;-0.343488
3582.000000;-0.344863
3581.000000;-0.345593
3580.000000;-0.345942
3579.000000;-0.346231
3578.000000;-0.346816
3577.000000;-0.347967
3576.000000;-0.349567
3575.000000;-0.351067
3574.000000;-0.351963
3573.000000;-0.352247
3572.000000;-0.352252
3571.000000;-0.352179
3570.000000;-0.351976
3569.000000;-0.351630
3568.000000;-0.351300
3567.000000;-0.351091
3566.000000;-0.350864
3565.000000;-0.350416
3564.000000;-0.349788
3563.000000;-0.349328
3562.000000;-0.349429
3561.000000;-0.350099
3560.000000;-0.350782
3559.000000;-0.350811
3558.000000;-0.350114
3557.000000;-0.349323
3556.000000;-0.349020
3555.000000;-0.349044
3554.000000;-0.348729
3553.000000;-0.347712
3552.000000;-0.346217
3551.000000;-0.344604
3550.000000;-0.342984
3549.000000;-0.341412
3548.000000;-0.340122
3547.000000;-0.339259
3546.000000;-0.338522
3545.000000;-0.337405
3544.000000;-0.335824
3543.000000;-0.334250
3542.000000;-0.333101
3541.000000;-0.332180
3540.000000;-0.330877
3539.000000;-0.328878
3538.000000;-0.326458
3537.000000;-0.324079
3536.000000;-0.321892
3535.000000;-0.319762
3534.000000;-0.317642
3533.000000;-0.315671
3532.000000;-0.313847
3531.000000;-0.311825
3530.000000;-0.309269
3529.000000;-0.306353
3528.000000;-0.303707
3527.000000;-0.301790
3526.000000;-0.300402
3525.000000;-0.298935
3524.000000;-0.297023
3523.000000;-0.294842
3522.000000;-0.292807
3521.000000;-0.291117
3520.000000;-0.289594
3519.000000;-0.287858
3518.000000;-0.285578
3517.000000;-0.282654
3516.000000;-0.279328
3515.000000;-0.276136
3514.000000;-0.273543
3513.000000;-0.271537
3512.000000;-0.269646
3511.000000;-0.267458
3510.000000;-0.265091
3509.000000;-0.263022
3508.000000;-0.261441
3507.000000;-0.259947
3506.000000;-0.257985
3505.000000;-0.255457
3504.000000;-0.252760
3503.000000;-0.250312
3502.000000;-0.248196
3501.000000;-0.246263
3500.000000;-0.244353
3499.000000;-0.242359
3498.000000;-0.240208
3497.000000;-0.237933
3496.000000;-0.235699
3495.000000;-0.233606
3494.000000;-0.231522
3493.000000;-0.229219
3492.000000;-0.226645
3491.000000;-0.223979
3490.000000;-0.221422
3489.000000;-0.219032
3488.000000;-0.216746
3487.000000;-0.214516
3486.000000;-0.212382
3485.000000;-0.210438
3484.000000;-0.208652
3483.000000;-0.206743
3482.000000;-0.204386
3481.000000;-0.201628
3480.000000;-0.198980
3479.000000;-0.196910
3478.000000;-0.195311
3477.000000;-0.193664
3476.000000;-0.191696
3475.000000;-0.189621
3474.000000;-0.187717
3473.000000;-0.185942
3472.000000;-0.184055
3471.000000;-0.181951
3470.000000;-0.179694
3469.000000;-0.177363
3468.000000;-0.174945
3467.000000;-0.172327
3466.000000;-0.169339
3465.000000;-0.165987
3464.000000;-0.162731
3463.000000;-0.160282
3462.000000;-0.158907
3461.000000;-0.158047
3460.000000;-0.156815
3459.000000;-0.154804
3458.000000;-0.152223
3457.000000;-0.149434
3456.000000;-0.146660
3455.000000;-0.144122
3454.000000;-0.142132
3453.000000;-0.140860
3452.000000;-0.140111
3451.000000;-0.139434
3450.000000;-0.138388
3449.000000;-0.136702
3448.000000;-0.134340
3447.000000;-0.131520
3446.000000;-0.128604
3445.000000;-0.125917
3444.000000;-0.123663
3443.000000;-0.121879
3442.000000;-0.120343
3441.000000;-0.118640
3440.000000;-0.116563
3439.000000;-0.114456
3438.000000;-0.112905
3437.000000;-0.112028
3436.000000;-0.111326
3435.000000;-0.110331
3434.000000;-0.109102
3433.000000;-0.107838
3432.000000;-0.106258
3431.000000;-0.103780
3430.000000;-0.100348
3429.000000;-0.096745
3428.000000;-0.093938
3427.000000;-0.092236
3426.000000;-0.091200
3425.000000;-0.090208
3424.000000;-0.088949
3423.000000;-0.087464
3422.000000;-0.085933
3421.000000;-0.084505
3420.000000;-0.083229
3419.000000;-0.082001
3418.000000;-0.080577
3417.000000;-0.078735
3416.000000;-0.076518
3415.000000;-0.074295
3414.000000;-0.072467
3413.000000;-0.071083
3412.000000;-0.069842
3411.000000;-0.068490
3410.000000;-0.067089
3409.000000;-0.065783
3408.000000;-0.064468
3407.000000;-0.062908
3406.000000;-0.061110
3405.000000;-0.059344
3404.000000;-0.057719
3403.000000;-0.056008
3402.000000;-0.054068
3401.000000;-0.052249
3400.000000;-0.051128
3399.000000;-0.050881
3398.000000;-0.051068
3397.000000;-0.051017
3396.000000;-0.050218
3395.000000;-0.048462
3394.000000;-0.045918
3393.000000;-0.043185
3392.000000;-0.041001
3391.000000;-0.039675
3390.000000;-0.038886
3389.000000;-0.038111
3388.000000;-0.037089
3387.000000;-0.035822
3386.000000;-0.034378
3385.000000;-0.032948
3384.000000;-0.031878
3383.000000;-0.031276
3382.000000;-0.030638
3381.000000;-0.029206
3380.000000;-0.026785
3379.000000;-0.023998
3378.000000;-0.021699
3377.000000;-0.020295
3376.000000;-0.019636
3375.000000;-0.019280
3374.000000;-0.018721
3373.000000;-0.017629
3372.000000;-0.016057
3371.000000;-0.014349
3370.000000;-0.012770
3369.000000;-0.011351
3368.000000;-0.010068
3367.000000;-0.008928
3366.000000;-0.007786
3365.000000;-0.006404
3364.000000;-0.004880
3363.000000;-0.003727
3362.000000;-0.003237
3361.000000;-0.002953
3360.000000;-0.002094
3359.000000;-0.000449
3358.000000;0.001444
3357.000000;0.002956
3356.000000;0.003970
3355.000000;0.004860
3354.000000;0.006091
3353.000000;0.007846
3352.000000;0.009830
3351.000000;0.011427
3350.000000;0.012204
3349.000000;0.012272
3348.000000;0.012071
3347.000000;0.011944
3346.000000;0.012112
3345.000000;0.012859
3344.000000;0.014379
3343.000000;0.016408
3342.000000;0.018315
3341.000000;0.019684
3340.000000;0.020616
3339.000000;0.021435
3338.000000;0.022315
3337.000000;0.023266
3336.000000;0.024244
3335.000000;0.025146
3334.000000;0.025889
3333.000000;0.026614
3332.000000;0.027643
3331.000000;0.029066
3330.000000;0.030511
3329.000000;0.031531
3328.000000;0.032109
3327.000000;0.032612
3326.000000;0.033306
3325.000000;0.034105
3324.000000;0.034832
3323.000000;0.035568
3322.000000;0.036635
3321.000000;0.038257
3320.000000;0.040302
3319.000000;0.042328
3318.000000;0.043833
3317.000000;0.044458
3316.000000;0.044146
3315.000000;0.043277
3314.000000;0.042645
3313.000000;0.043021
3312.000000;0.044548
3311.000000;0.046593
3310.000000;0.048340
3309.000000;0.049494
3308.000000;0.050318
3307.000000;0.051109
3306.000000;0.051870
3305.000000;0.052453
3304.000000;0.052808
3303.000000;0.053047
3302.000000;0.053430
3301.000000;0.054338
3300.000000;0.056053
3299.000000;0.058422
3298.000000;0.060809
3297.000000;0.062530
3296.000000;0.063308
3295.000000;0.063336
3294.000000;0.063026
3293.000000;0.062777
3292.000000;0.062868
3291.000000;0.063421
3290.000000;0.064407
3289.000000;0.065722
3288.000000;0.067241
3287.000000;0.068782
3286.000000;0.070092
3285.000000;0.070947
3284.000000;0.071304
3283.000000;0.071351
3282.000000;0.071390
3281.000000;0.071667
3280.000000;0.072268
3279.000000;0.073160
3278.000000;0.074286
3277.000000;0.075531
3276.000000;0.076647
3275.000000;0.077351
3274.000000;0.077588
3273.000000;0.077609
3272.000000;0.077743
3271.000000;0.078162
3270.000000;0.078954
3269.000000;0.080223
3268.000000;0.081934
3267.000000;0.083718
3266.000000;0.085037
3265.000000;0.085601
3264.000000;0.085580
3263.000000;0.085434
3262.000000;0.085622
3261.000000;0.086367
3260.000000;0.087504
3259.000000;0.088543
3258.000000;0.089090
3257.000000;0.089249
3256.000000;0.089516
3255.000000;0.090258
3254.000000;0.091393
3253.000000;0.092582
3252.000000;0.093599
3251.000000;0.094471
3250.000000;0.095350
3249.000000;0.096261
3248.000000;0.096949
3247.000000;0.097006
3246.000000;0.096286
3245.000000;0.095221
3244.000000;0.094655
3243.000000;0.095272
3242.000000;0.097124
3241.000000;0.099579
3240.000000;0.101667
3239.000000;0.102664
3238.000000;0.102565
3237.000000;0.102035
3236.000000;0.101802
3235.000000;0.102128
3234.000000;0.102847
3233.000000;0.103787
3232.000000;0.104926
3231.000000;0.106188
3230.000000;0.107284
3229.000000;0.107880
3228.000000;0.107910
3227.000000;0.107700
3226.000000;0.107762
3225.000000;0.108376
3224.000000;0.109348
3223.000000;0.110260
3222.000000;0.110947
3221.000000;0.111582
3220.000000;0.112278
3219.000000;0.112922
3218.000000;0.113500
3217.000000;0.114254
3216.000000;0.115244
3215.000000;0.116065
3214.000000;0.116380
3213.000000;0.116487
3212.000000;0.116901
3211.000000;0.117530
3210.000000;0.117801
3209.000000;0.117580
3208.000000;0.117424
3207.000000;0.117777
3206.000000;0.118447
3205.000000;0.119096
3204.000000;0.119817
3203.000000;0.120873
3202.000000;0.122170
3201.000000;0.123392
3200.000000;0.124456
3199.000000;0.125512
3198.000000;0.126539
3197.000000;0.127263
3196.000000;0.127517
3195.000000;0.127491
3194.000000;0.127554
3193.000000;0.127896
3192.000000;0.128314
3191.000000;0.128364
3190.000000;0.127805
3189.000000;0.126951
3188.000000;0.126505
3187.000000;0.126950
3186.000000;0.128148
3185.000000;0.129527
3184.000000;0.130568
3183.000000;0.131148
3182.000000;0.131553
3181.000000;0.132187
3180.000000;0.133128
3179.000000;0.133960
3178.000000;0.134187
3177.000000;0.133860
3176.000000;0.133617
3175.000000;0.134055
3174.000000;0.135210
3173.000000;0.136661
3172.000000;0.137957
3171.000000;0.138896
3170.000000;0.139546
3169.000000;0.140134
3168.000000;0.140781
3167.000000;0.141297
3166.000000;0.141365
3165.000000;0.140983
3164.000000;0.140541
3163.000000;0.140406
3162.000000;0.140581
3161.000000;0.140824
3160.000000;0.140918
3159.000000;0.140791
3158.000000;0.140587
3157.000000;0.140695
3156.000000;0.141467
3155.000000;0.142768
3154.000000;0.144011
3153.000000;0.144814
3152.000000;0.145396
3151.000000;0.146157
3150.000000;0.147079
3149.000000;0.147832
3148.000000;0.148339
3147.000000;0.148930
3146.000000;0.149907
3145.000000;0.151151
3144.000000;0.152213
3143.000000;0.152702
3142.000000;0.152614
3141.000000;0.152321
3140.000000;0.152244
3139.000000;0.152528
3138.000000;0.153072
3137.000000;0.153782
3136.000000;0.154596
3135.000000;0.155279
3134.000000;0.155511
3133.000000;0.155317
3132.000000;0.155126
3131.000000;0.155228
3130.000000;0.155377
3129.000000;0.155205
3128.000000;0.154832
3127.000000;0.154779
3126.000000;0.155355
3125.000000;0.156399
3124.000000;0.157577
3123.000000;0.158651
3122.000000;0.159482
3121.000000;0.159994
3120.000000;0.160261
3119.000000;0.160479
3118.000000;0.160811
3117.000000;0.161317
3116.000000;0.162001
3115.000000;0.162773
3114.000000;0.163409
3113.000000;0.163728
3112.000000;0.163826
3111.000000;0.164001
3110.000000;0.164431
3109.000000;0.165043
3108.000000;0.165675
3107.000000;0.166222
3106.000000;0.166626
3105.000000;0.166898
3104.000000;0.167179
3103.000000;0.167651
3102.000000;0.168305
3101.000000;0.168908
3100.000000;0.169268
3099.000000;0.169477
3098.000000;0.169819
3097.000000;0.170491
3096.000000;0.171422
3095.000000;0.172305
3094.000000;0.172813
3093.000000;0.172857
3092.000000;0.172664
3091.000000;0.172549
3090.000000;0.172587
3089.000000;0.172573
3088.000000;0.172320
3087.000000;0.171927
3086.000000;0.171704
3085.000000;0.171881
3084.000000;0.172454
3083.000000;0.173289
3082.000000;0.174326
3081.000000;0.175565
3080.000000;0.176855
3079.000000;0.177833
3078.000000;0.178232
3077.000000;0.178211
3076.000000;0.178200
3075.000000;0.178416
3074.000000;0.178698
3073.000000;0.178869
3072.000000;0.179039
3071.000000;0.179436
3070.000000;0.180085
3069.000000;0.180841
3068.000000;0.181611
3067.000000;0.182369
3066.000000;0.183033
3065.000000;0.183576
3064.000000;0.184155
3063.000000;0.184902
3062.000000;0.185614
3061.000000;0.185946
3060.000000;0.185919
3059.000000;0.185939
3058.000000;0.186207
3057.000000;0.186451
3056.000000;0.186426
3055.000000;0.186395
3054.000000;0.186766
3053.000000;0.187417
3052.000000;0.187781
3051.000000;0.187625
3050.000000;0.187427
3049.000000;0.187841
3048.000000;0.188962
3047.000000;0.190258
3046.000000;0.191090
3045.000000;0.191252
3044.000000;0.191086
3043.000000;0.191149
3042.000000;0.191675
3041.000000;0.192307
3040.000000;0.192497
3039.000000;0.192227
3038.000000;0.192157
3037.000000;0.192924
3036.000000;0.194422
3035.000000;0.195927
3034.000000;0.196824
3033.000000;0.197018
3032.000000;0.196740
3031.000000;0.196274
3030.000000;0.195929
3029.000000;0.195992
3028.000000;0.196549
3027.000000;0.197426
3026.000000;0.198384
3025.000000;0.199267
3024.000000;0.199973
3023.000000;0.200429
3022.000000;0.200704
3021.000000;0.200990
3020.000000;0.201353
3019.000000;0.201628
3018.000000;0.201695
3017.000000;0.201719
3016.000000;0.201953
3015.000000;0.202396
3014.000000;0.202805
3013.000000;0.203009
3012.000000;0.203077
3011.000000;0.203209
3010.000000;0.203582
3009.000000;0.204298
3008.000000;0.205341
3007.000000;0.206535
3006.000000;0.207591
3005.000000;0.208240
3004.000000;0.208368
3003.000000;0.208114
3002.000000;0.207880
3001.000000;0.208114
3000.000000;0.208962
2999.000000;0.210188
2998.000000;0.211434
2997.000000;0.212453
2996.000000;0.213046
2995.000000;0.213022
2994.000000;0.212437
2993.000000;0.211776
2992.000000;0.211625
2991.000000;0.212154
2990.000000;0.213042
2989.000000;0.213850
2988.000000;0.214321
2987.000000;0.214423
2986.000000;0.214347
2985.000000;0.214469
2984.000000;0.215085
2983.000000;0.216055
2982.000000;0.216847
2981.000000;0.217032
2980.000000;0.216672
2979.000000;0.216209
2978.000000;0.216063
2977.000000;0.216369
2976.000000;0.216996
2975.000000;0.217774
2974.000000;0.218708
2973.000000;0.219915
2972.000000;0.221340
2971.000000;0.222635
2970.000000;0.223456
2969.000000;0.223816
2968.000000;0.223998
2967.000000;0.224196
2966.000000;0.224409
2965.000000;0.224610
2964.000000;0.224819
2963.000000;0.224981
2962.000000;0.224993
2961.000000;0.224896
2960.000000;0.224895
2959.000000;0.225155
2958.000000;0.225703
2957.000000;0.226527
2956.000000;0.227605
2955.000000;0.228766
2954.000000;0.229702
2953.000000;0.230194
2952.000000;0.230259
2951.000000;0.230097
2950.000000;0.230014
2949.000000;0.230351
2948.000000;0.231222
2947.000000;0.232260
2946.000000;0.232828
2945.000000;0.232656
2944.000000;0.232133
2943.000000;0.231875
2942.000000;0.232131
2941.000000;0.232696
2940.000000;0.233294
2939.000000;0.233862
2938.000000;0.234530
2937.000000;0.235440
2936.000000;0.236592
2935.000000;0.237772
2934.000000;0.238626
2933.000000;0.238893
2932.000000;0.238627
2931.000000;0.238186
2930.000000;0.238015
2929.000000;0.238356
2928.000000;0.239074
2927.000000;0.239799
2926.000000;0.240295
2925.000000;0.240653
2924.000000;0.241053
2923.000000;0.241435
2922.000000;0.241605
2921.000000;0.241634
2920.000000;0.241925
2919.000000;0.242769
2918.000000;0.243979
2917.000000;0.245064
2916.000000;0.245659
2915.000000;0.245727
2914.000000;0.245495
2913.000000;0.245316
2912.000000;0.245517
2911.000000;0.246239
2910.000000;0.247350
2909.000000;0.248538
2908.000000;0.249513
2907.000000;0.250146
2906.000000;0.250515
2905.000000;0.250833
2904.000000;0.251235
2903.000000;0.251598
2902.000000;0.251647
2901.000000;0.251322
2900.000000;0.250959
2899.000000;0.250996
2898.000000;0.251541
2897.000000;0.252327
2896.000000;0.253126
2895.000000;0.254030
2894.000000;0.255224
2893.000000;0.256547
2892.000000;0.257504
2891.000000;0.257790
2890.000000;0.257658
2889.000000;0.257583
2888.000000;0.257722
2887.000000;0.257935
2886.000000;0.258216
2885.000000;0.258740
2884.000000;0.259453
2883.000000;0.259992
2882.000000;0.260193
2881.000000;0.260343
2880.000000;0.260686
2879.000000;0.260992
2878.000000;0.261008
2877.000000;0.261076
2876.000000;0.261816
2875.000000;0.263222
2874.000000;0.264526
2873.000000;0.265069
2872.000000;0.264977
2871.000000;0.264849
2870.000000;0.265069
2869.000000;0.265589
2868.000000;0.266175
2867.000000;0.266678
2866.000000;0.267111
2865.000000;0.267553
2864.000000;0.267944
2863.000000;0.268096
2862.000000;0.268046
2861.000000;0.268256
2860.000000;0.269129
2859.000000;0.270362
2858.000000;0.271165
2857.000000;0.271203
2856.000000;0.270999
2855.000000;0.271200
2854.000000;0.271775
2853.000000;0.272198
2852.000000;0.272254
2851.000000;0.272339
2850.000000;0.273017
2849.000000;0.274437
2848.000000;0.276160
2847.000000;0.277410
2846.000000;0.277658
2845.000000;0.277129
2844.000000;0.276662
2843.000000;0.276967
2842.000000;0.278069
2841.000000;0.279459
2840.000000;0.280623
2839.000000;0.281296
2838.000000;0.281430
2837.000000;0.281180
2836.000000;0.280909
2835.000000;0.280965
2834.000000;0.281409
2833.000000;0.282039
2832.000000;0.282685
2831.000000;0.283423
2830.000000;0.284453
2829.000000;0.285814
2828.000000;0.287194
2827.000000;0.288079
2826.000000;0.288193
2825.000000;0.287780
2824.000000;0.287381
2823.000000;0.287333
2822.000000;0.287600
2821.000000;0.288086
2820.000000;0.288847
2819.000000;0.289902
2818.000000;0.290993
2817.000000;0.291726
2816.000000;0.291924
2815.000000;0.291766
2814.000000;0.291637
2813.000000;0.291882
2812.000000;0.292596
2811.000000;0.293554
2810.000000;0.294420
2809.000000;0.295070
2808.000000;0.295628
2807.000000;0.296174
2806.000000;0.296612
2805.000000;0.296939
2804.000000;0.297417
2803.000000;0.298265
2802.000000;0.299267
2801.000000;0.299943
2800.000000;0.300096
2799.000000;0.300033
2798.000000;0.300227
2797.000000;0.300894
2796.000000;0.301881
2795.000000;0.302849
2794.000000;0.303526
2793.000000;0.303909
2792.000000;0.304275
2791.000000;0.304890
2790.000000;0.305687
2789.000000;0.306298
2788.000000;0.306455
2787.000000;0.306289
2786.000000;0.306148
2785.000000;0.306170
2784.000000;0.306170
2783.000000;0.305988
2782.000000;0.305805
2781.000000;0.305994
2780.000000;0.306698
2779.000000;0.307730
2778.000000;0.308867
2777.000000;0.310082
2776.000000;0.311388
2775.000000;0.312655
2774.000000;0.313752
2773.000000;0.314739
2772.000000;0.315707
2771.000000;0.316507
2770.000000;0.316855
2769.000000;0.316724
2768.000000;0.316443
2767.000000;0.316370
2766.000000;0.316627
2765.000000;0.317147
2764.000000;0.317764
2763.000000;0.318238
2762.000000;0.318416
2761.000000;0.318474
2760.000000;0.318774
2759.000000;0.319404
2758.000000;0.320052
2757.000000;0.320488
2756.000000;0.320960
2755.000000;0.321895
2754.000000;0.323300
2753.000000;0.324654
2752.000000;0.325420
2751.000000;0.325550
2750.000000;0.325488
2749.000000;0.325760
2748.000000;0.326528
2747.000000;0.327480
2746.000000;0.328150
2745.000000;0.328360
2744.000000;0.328319
2743.000000;0.328346
2742.000000;0.328647
2741.000000;0.329326
2740.000000;0.330384
2739.000000;0.331600
2738.000000;0.332580
2737.000000;0.333099
2736.000000;0.333315
2735.000000;0.333539
2734.000000;0.333869
2733.000000;0.334157
2732.000000;0.334238
2731.000000;0.334109
2730.000000;0.333959
2729.000000;0.334082
2728.000000;0.334639
2727.000000;0.335397
2726.000000;0.335897
2725.000000;0.336011
2724.000000;0.336182
2723.000000;0.336893
2722.000000;0.338034
2721.000000;0.339036
2720.000000;0.339568
2719.000000;0.339789
2718.000000;0.339963
2717.000000;0.340158
2716.000000;0.340446
2715.000000;0.341102
2714.000000;0.342321
2713.000000;0.343848
2712.000000;0.345114
2711.000000;0.345741
2710.000000;0.345841
2709.000000;0.345828
2708.000000;0.346058
2707.000000;0.346612
2706.000000;0.347340
2705.000000;0.348052
2704.000000;0.348661
2703.000000;0.349166
2702.000000;0.349558
2701.000000;0.349833
2700.000000;0.350073
2699.000000;0.350406
2698.000000;0.350850
2697.000000;0.351370
2696.000000;0.352100
2695.000000;0.353316
2694.000000;0.355001
2693.000000;0.356593
2692.000000;0.357444
2691.000000;0.357539
2690.000000;0.357485
2689.000000;0.357739
2688.000000;0.358128
2687.000000;0.358276
2686.000000;0.358262
2685.000000;0.358549
2684.000000;0.359334
2683.000000;0.360281
2682.000000;0.360897
2681.000000;0.361008
2680.000000;0.360845
2679.000000;0.360865
2678.000000;0.361464
2677.000000;0.362664
2676.000000;0.364006
2675.000000;0.364916
2674.000000;0.365264
2673.000000;0.365421
2672.000000;0.365748
2671.000000;0.366226
2670.000000;0.366653
2669.000000;0.366996
2668.000000;0.367378
2667.000000;0.367863
2666.000000;0.368433
2665.000000;0.369075
2664.000000;0.369771
2663.000000;0.370460
2662.000000;0.371142
2661.000000;0.371890
2660.000000;0.372659
2659.000000;0.373218
2658.000000;0.373429
2657.000000;0.373459
2656.000000;0.373555
2655.000000;0.373735
2654.000000;0.373903
2653.000000;0.374141
2652.000000;0.374647
2651.000000;0.375425
2650.000000;0.376312
2649.000000;0.377281
2648.000000;0.378478
2647.000000;0.379915
2646.000000;0.381307
2645.000000;0.382278
2644.000000;0.382637
2643.000000;0.382482
2642.000000;0.382120
2641.000000;0.381850
2640.000000;0.381712
2639.000000;0.381553
2638.000000;0.381443
2637.000000;0.381850
2636.000000;0.383107
2635.000000;0.384848
2634.000000;0.386272
2633.000000;0.386980
2632.000000;0.387253
2631.000000;0.387526
2630.000000;0.387954
2629.000000;0.388554
2628.000000;0.389361
2627.000000;0.390221
2626.000000;0.390725
2625.000000;0.390651
2624.000000;0.390340
2623.000000;0.390425
2622.000000;0.391253
2621.000000;0.392673
2620.000000;0.394262
2619.000000;0.395597
2618.000000;0.396410
2617.000000;0.396639
2616.000000;0.396380
2615.000000;0.395807
2614.000000;0.395194
2613.000000;0.394922
2612.000000;0.395234
2611.000000;0.395939
2610.000000;0.396565
2609.000000;0.396879
2608.000000;0.397107
2607.000000;0.397574
2606.000000;0.398340
2605.000000;0.399282
2604.000000;0.400318
2603.000000;0.401394
2602.000000;0.402387
2601.000000;0.403211
2600.000000;0.403917
2599.000000;0.404614
2598.000000;0.405369
2597.000000;0.406269
2596.000000;0.407381
2595.000000;0.408533
2594.000000;0.409277
2593.000000;0.409271
2592.000000;0.408664
2591.000000;0.408003
2590.000000;0.407821
2589.000000;0.408329
2588.000000;0.409333
2587.000000;0.410359
2586.000000;0.410999
2585.000000;0.411249
2584.000000;0.411443
2583.000000;0.411823
2582.000000;0.412359
2581.000000;0.412991
2580.000000;0.413787
2579.000000;0.414726
2578.000000;0.415555
2577.000000;0.416089
2576.000000;0.416489
2575.000000;0.417021
2574.000000;0.417713
2573.000000;0.418453
2572.000000;0.419271
2571.000000;0.420277
2570.000000;0.421422
2569.000000;0.422507
2568.000000;0.423370
2567.000000;0.423911
2566.000000;0.424047
2565.000000;0.423862
2564.000000;0.423655
2563.000000;0.423677
2562.000000;0.423927
2561.000000;0.424377
2560.000000;0.425190
2559.000000;0.426424
2558.000000;0.427703
2557.000000;0.428527
2556.000000;0.428846
2555.000000;0.428978
2554.000000;0.429067
2553.000000;0.429015
2552.000000;0.428945
2551.000000;0.429242
2550.000000;0.429997
2549.000000;0.430785
2548.000000;0.431198
2547.000000;0.431330
2546.000000;0.431525
2545.000000;0.431905
2544.000000;0.432363
2543.000000;0.432799
2542.000000;0.433134
2541.000000;0.433265
2540.000000;0.433254
2539.000000;0.433469
2538.000000;0.434270
2537.000000;0.435568
2536.000000;0.436852
2535.000000;0.437653
2534.000000;0.437861
2533.000000;0.437688
2532.000000;0.437475
2531.000000;0.437545
2530.000000;0.438077
2529.000000;0.439008
2528.000000;0.440088
2527.000000;0.441044
2526.000000;0.441718
2525.000000;0.442125
2524.000000;0.442439
2523.000000;0.442882
2522.000000;0.443545
2521.000000;0.444324
2520.000000;0.445057
2519.000000;0.445685
2518.000000;0.446270
2517.000000;0.446897
2516.000000;0.447621
2515.000000;0.448448
2514.000000;0.449347
2513.000000;0.450293
2512.000000;0.451262
2511.000000;0.452133
2510.000000;0.452680
2509.000000;0.452819
2508.000000;0.452829
2507.000000;0.453092
2506.000000;0.453590
2505.000000;0.453912
2504.000000;0.453884
2503.000000;0.453928
2502.000000;0.454564
2501.000000;0.455714
2500.000000;0.456773
2499.000000;0.457285
2498.000000;0.457336
2497.000000;0.457271
2496.000000;0.457314
2495.000000;0.457529
2494.000000;0.457926
2493.000000;0.458464
2492.000000;0.459049
2491.000000;0.459669
2490.000000;0.460446
2489.000000;0.461508
2488.000000;0.462818
2487.000000;0.464168
2486.000000;0.465258
2485.000000;0.465802
2484.000000;0.465691
2483.000000;0.465195
2482.000000;0.464922
2481.000000;0.465436
2480.000000;0.466788
2479.000000;0.468396
2478.000000;0.469463
2477.000000;0.469632
2476.000000;0.469311
2475.000000;0.469274
2474.000000;0.469888
2473.000000;0.470798
2472.000000;0.471450
2471.000000;0.471749
2470.000000;0.472010
2469.000000;0.472342
2468.000000;0.472490
2467.000000;0.472347
2466.000000;0.472311
2465.000000;0.472863
2464.000000;0.473958
2463.000000;0.475084
2462.000000;0.475835
2461.000000;0.476223
2460.000000;0.476506
2459.000000;0.476948
2458.000000;0.477718
2457.000000;0.478802
2456.000000;0.479933
2455.000000;0.480748
2454.000000;0.481097
2453.000000;0.481136
2452.000000;0.481125
2451.000000;0.481225
2450.000000;0.481472
2449.000000;0.481809
2448.000000;0.482134
2447.000000;0.482420
2446.000000;0.482773
2445.000000;0.483290
2444.000000;0.483893
2443.000000;0.484444
2442.000000;0.484994
2441.000000;0.485732
2440.000000;0.486674
2439.000000;0.487598
2438.000000;0.488352
2437.000000;0.489040
2436.000000;0.489791
2435.000000;0.490502
2434.000000;0.490975
2433.000000;0.491228
2432.000000;0.491510
2431.000000;0.492016
2430.000000;0.492682
2429.000000;0.493248
2428.000000;0.493521
2427.000000;0.493585
2426.000000;0.493788
2425.000000;0.494391
2424.000000;0.495200
2423.000000;0.495659
2422.000000;0.495419
2421.000000;0.494765
2420.000000;0.494403
2419.000000;0.494891
2418.000000;0.496288
2417.000000;0.498198
2416.000000;0.500007
2415.000000;0.501189
2414.000000;0.501586
2413.000000;0.501456
2412.000000;0.501175
2411.000000;0.500924
2410.000000;0.500708
2409.000000;0.500606
2408.000000;0.500830
2407.000000;0.501503
2406.000000;0.502488
2405.000000;0.503478
2404.000000;0.504267
2403.000000;0.504882
2402.000000;0.505459
2401.000000;0.505981
2400.000000;0.506245
2399.000000;0.506168
2398.000000;0.506075
2397.000000;0.506482
2396.000000;0.507550
2395.000000;0.508916
2394.000000;0.510147
2393.000000;0.511214
2392.000000;0.512394
2391.000000;0.513833
2390.000000;0.515375
2389.000000;0.516681
2388.000000;0.517374
2387.000000;0.517219
2386.000000;0.516388
2385.000000;0.515492
2384.000000;0.515126
2383.000000;0.515359
2382.000000;0.515804
2381.000000;0.516104
2380.000000;0.516170
2379.000000;0.516025
2378.000000;0.515724
2377.000000;0.515486
2376.000000;0.515639
2375.000000;0.516301
2374.000000;0.517249
2373.000000;0.518196
2372.000000;0.519067
2371.000000;0.519906
2370.000000;0.520641
2369.000000;0.521079
2368.000000;0.521119
2367.000000;0.520911
2366.000000;0.520824
2365.000000;0.521239
2364.000000;0.522244
2363.000000;0.523504
2362.000000;0.524519
2361.000000;0.525045
2360.000000;0.525167
2359.000000;0.525018
2358.000000;0.524657
2357.000000;0.524221
2356.000000;0.524002
2355.000000;0.524245
2354.000000;0.524990
2353.000000;0.526166
2352.000000;0.527653
2351.000000;0.529169
2350.000000;0.530236
2349.000000;0.530538
2348.000000;0.530289
2347.000000;0.529999
2346.000000;0.529949
2345.000000;0.530021
2344.000000;0.530049
2343.000000;0.530070
2342.000000;0.530174
2341.000000;0.530383
2340.000000;0.530727
2339.000000;0.531343
2338.000000;0.532368
2337.000000;0.533759
2336.000000;0.535253
2335.000000;0.536485
2334.000000;0.537222
2333.000000;0.537532
2332.000000;0.537723
2331.000000;0.538109
2330.000000;0.538870
2329.000000;0.540032
2328.000000;0.541455
2327.000000;0.542745
2326.000000;0.543485
2325.000000;0.543646
2324.000000;0.543725
2323.000000;0.544245
2322.000000;0.545194
2321.000000;0.546118
2320.000000;0.546681
2319.000000;0.546970
2318.000000;0.547233
2317.000000;0.547553
2316.000000;0.547902
2315.000000;0.548356
2314.000000;0.549069
2313.000000;0.550016
2312.000000;0.550893
2311.000000;0.551363
2310.000000;0.551462
2309.000000;0.551615
2308.000000;0.552206
2307.000000;0.553135
2306.000000;0.553970
2305.000000;0.554511
2304.000000;0.554998
2303.000000;0.555688
2302.000000;0.556482
2301.000000;0.557163
2300.000000;0.557803
2299.000000;0.558606
2298.000000;0.559456
2297.000000;0.559954
2296.000000;0.559994
2295.000000;0.559960
2294.000000;0.560248
2293.000000;0.560800
2292.000000;0.561303
2291.000000;0.561662
2290.000000;0.562093
2289.000000;0.562822
2288.000000;0.563848
2287.000000;0.564955
2286.000000;0.565886
2285.000000;0.566541
2284.000000;0.567000
2283.000000;0.567290
2282.000000;0.567200
2281.000000;0.566556
2280.000000;0.565723
2279.000000;0.565502
2278.000000;0.566329
2277.000000;0.567735
2276.000000;0.568877
2275.000000;0.569492
2274.000000;0.570046
2273.000000;0.570994
2272.000000;0.572223
2271.000000;0.573269
2270.000000;0.573827
2269.000000;0.573959
2268.000000;0.573960
2267.000000;0.574156
2266.000000;0.574711
2265.000000;0.575538
2264.000000;0.576449
2263.000000;0.577336
2262.000000;0.578134
2261.000000;0.578693
2260.000000;0.578904
2259.000000;0.578928
2258.000000;0.579079
2257.000000;0.579470
2256.000000;0.579984
2255.000000;0.580612
2254.000000;0.581531
2253.000000;0.582726
2252.000000;0.583788
2251.000000;0.584300
2250.000000;0.584244
2249.000000;0.583865
2248.000000;0.583368
2247.000000;0.582994
2246.000000;0.583180
2245.000000;0.584232
2244.000000;0.585854
2243.000000;0.587263
2242.000000;0.587891
2241.000000;0.587811
2240.000000;0.587503
2239.000000;0.587410
2238.000000;0.587783
2237.000000;0.588660
2236.000000;0.589844
2235.000000;0.590977
2234.000000;0.591782
2233.000000;0.592247
2232.000000;0.592560
2231.000000;0.592928
2230.000000;0.593420
2229.000000;0.593915
2228.000000;0.594223
2227.000000;0.594351
2226.000000;0.594603
2225.000000;0.595298
2224.000000;0.596406
2223.000000;0.597611
2222.000000;0.598687
2221.000000;0.599636
2220.000000;0.600460
2219.000000;0.601034
2218.000000;0.601312
2217.000000;0.601501
2216.000000;0.601841
2215.000000;0.602299
2214.000000;0.602614
2213.000000;0.602635
2212.000000;0.602554
2211.000000;0.602792
2210.000000;0.603669
2209.000000;0.605097
2208.000000;0.606532
2207.000000;0.607347
2206.000000;0.607367
2205.000000;0.607031
2204.000000;0.606979
2203.000000;0.607485
2202.000000;0.608280
2201.000000;0.608839
2200.000000;0.608820
2199.000000;0.608298
2198.000000;0.607699
2197.000000;0.607526
2196.000000;0.608072
2195.000000;0.609304
2194.000000;0.610916
2193.000000;0.612481
2192.000000;0.613653
2191.000000;0.614363
2190.000000;0.614833
2189.000000;0.615328
2188.000000;0.615878
2187.000000;0.616318
2186.000000;0.616581
2185.000000;0.616840
2184.000000;0.617315
2183.000000;0.618014
2182.000000;0.618707
2181.000000;0.619151
2180.000000;0.619302
2179.000000;0.619344
2178.000000;0.619524
2177.000000;0.619945
2176.000000;0.620494
2175.000000;0.621012
2174.000000;0.621461
2173.000000;0.621908
2172.000000;0.622413
2171.000000;0.622992
2170.000000;0.623625
2169.000000;0.624197
2168.000000;0.624516
2167.000000;0.624524
2166.000000;0.624445
2165.000000;0.624588
2164.000000;0.625038
2163.000000;0.625714
2162.000000;0.626660
2161.000000;0.628035
2160.000000;0.629728
2159.000000;0.631211
2158.000000;0.631954
2157.000000;0.631916
2156.000000;0.631557
2155.000000;0.631439
2154.000000;0.631881
2153.000000;0.632853
2152.000000;0.634059
2151.000000;0.635139
2150.000000;0.635883
2149.000000;0.636293
2148.000000;0.636498
2147.000000;0.636707
2146.000000;0.637155
2145.000000;0.637925
2144.000000;0.638794
2143.000000;0.639434
2142.000000;0.639789
2141.000000;0.640094
2140.000000;0.640487
2139.000000;0.640861
2138.000000;0.641166
2137.000000;0.641627
2136.000000;0.642451
2135.000000;0.643494
2134.000000;0.644388
2133.000000;0.644917
2132.000000;0.645104
2131.000000;0.645040
2130.000000;0.644865
2129.000000;0.644878
2128.000000;0.645451
2127.000000;0.646688
2126.000000;0.648179
2125.000000;0.649179
2124.000000;0.649180
2123.000000;0.648435
2122.000000;0.647846
2121.000000;0.648124
2120.000000;0.649089
2119.000000;0.649959
2118.000000;0.650309
2117.000000;0.650432
2116.000000;0.650719
2115.000000;0.651121
2114.000000;0.651483
2113.000000;0.652018
2112.000000;0.652992
2111.000000;0.654121
2110.000000;0.654796
2109.000000;0.654895
2108.000000;0.654965
2107.000000;0.655476
2106.000000;0.656254
2105.000000;0.656825
2104.000000;0.657057
2103.000000;0.657229
2102.000000;0.657667
2101.000000;0.658480
2100.000000;0.659548
2099.000000;0.660581
2098.000000;0.661219
2097.000000;0.661289
2096.000000;0.661005
2095.000000;0.660864
2094.000000;0.661263
2093.000000;0.662189
2092.000000;0.663263
2091.000000;0.664093
2090.000000;0.664598
2089.000000;0.665009
2088.000000;0.665587
2087.000000;0.666404
2086.000000;0.667345
2085.000000;0.668217
2084.000000;0.668844
2083.000000;0.669178
2082.000000;0.669407
2081.000000;0.669816
2080.000000;0.670465
2079.000000;0.671133
2078.000000;0.671701
2077.000000;0.672391
2076.000000;0.673417
2075.000000;0.674505
2074.000000;0.675100
2073.000000;0.675061
2072.000000;0.674890
2071.000000;0.675140
2070.000000;0.675786
2069.000000;0.676337
2068.000000;0.676458
2067.000000;0.676329
2066.000000;0.676412
2065.000000;0.677017
2064.000000;0.678120
2063.000000;0.679457
2062.000000;0.680683
2061.000000;0.681499
2060.000000;0.681801
2059.000000;0.681808
2058.000000;0.681956
2057.000000;0.682550
2056.000000;0.683444
2055.000000;0.684168
2054.000000;0.684441
2053.000000;0.684513
2052.000000;0.684925
2051.000000;0.685935
2050.000000;0.687205
2049.000000;0.688060
2048.000000;0.688098
2047.000000;0.687618
2046.000000;0.687419
2045.000000;0.688085
2044.000000;0.689465
2043.000000;0.690916
2042.000000;0.691953
2041.000000;0.692536
2040.000000;0.692776
2039.000000;0.692718
2038.000000;0.692514
2037.000000;0.692512
2036.000000;0.692920
2035.000000;0.693539
2034.000000;0.694035
2033.000000;0.694368
2032.000000;0.694765
2031.000000;0.695359
2030.000000;0.696062
2029.000000;0.696714
2028.000000;0.697202
2027.000000;0.697519
2026.000000;0.697876
2025.000000;0.698590
2024.000000;0.699649
2023.000000;0.700532
2022.000000;0.700771
2021.000000;0.700608
2020.000000;0.700749
2019.000000;0.701503
2018.000000;0.702525
2017.000000;0.703418
2016.000000;0.704169
2015.000000;0.704879
2014.000000;0.705472
2013.000000;0.705947
2012.000000;0.706612
2011.000000;0.707666
2010.000000;0.708746
2009.000000;0.709265
2008.000000;0.709180
2007.000000;0.709078
2006.000000;0.709447
2005.000000;0.710135
2004.000000;0.710645
2003.000000;0.710761
2002.000000;0.710711
2001.000000;0.710817
2000.000000;0.711133
1999.000000;0.711456
1998.000000;0.711648
1997.000000;0.711883
1996.000000;0.712547
1995.000000;0.713818
1994.000000;0.715373
1993.000000;0.716614
1992.000000;0.717245
1991.000000;0.717512
1990.000000;0.717789
1989.000000;0.718060
1988.000000;0.718038
1987.000000;0.717751
1986.000000;0.717700
1985.000000;0.718292
1984.000000;0.719361
1983.000000;0.720453
1982.000000;0.721454
1981.000000;0.722606
1980.000000;0.723935
1979.000000;0.725006
1978.000000;0.725397
1977.000000;0.725186
1976.000000;0.724811
1975.000000;0.724627
1974.000000;0.724757
1973.000000;0.725220
1972.000000;0.725990
1971.000000;0.726932
1970.000000;0.727849
1969.000000;0.728579
1968.000000;0.729038
1967.000000;0.729272
1966.000000;0.729538
1965.000000;0.730191
1964.000000;0.731323
1963.000000;0.732572
1962.000000;0.733437
1961.000000;0.733741
1960.000000;0.733713
1959.000000;0.733651
1958.000000;0.733660
1957.000000;0.733694
1956.000000;0.733740
1955.000000;0.733961
1954.000000;0.734683
1953.000000;0.736096
1952.000000;0.737873
1951.000000;0.739261
1950.000000;0.739761
1949.000000;0.739639
1948.000000;0.739556
1947.000000;0.739797
1946.000000;0.740114
1945.000000;0.740279
1944.000000;0.740494
1943.000000;0.741123
1942.000000;0.742229
1941.000000;0.743513
1940.000000;0.744600
1939.000000;0.745268
1938.000000;0.745477
1937.000000;0.745333
1936.000000;0.745037
1935.000000;0.744828
1934.000000;0.744909
1933.000000;0.745375
1932.000000;0.746137
1931.000000;0.746962
1930.000000;0.747635
1929.000000;0.748091
1928.000000;0.748424
1927.000000;0.748834
1926.000000;0.749577
1925.000000;0.750807
1924.000000;0.752346
1923.000000;0.753736
1922.000000;0.754663
1921.000000;0.755279
1920.000000;0.755960
1919.000000;0.756809
1918.000000;0.757542
1917.000000;0.757827
1916.000000;0.757602
1915.000000;0.757135
1914.000000;0.756909
1913.000000;0.757370
1912.000000;0.758565
1911.000000;0.759983
1910.000000;0.760943
1909.000000;0.761189
1908.000000;0.761025
1907.000000;0.760913
1906.000000;0.761116
1905.000000;0.761689
1904.000000;0.762606
1903.000000;0.763746
1902.000000;0.764801
1901.000000;0.765346
1900.000000;0.765136
1899.000000;0.764415
1898.000000;0.763812
1897.000000;0.763763
1896.000000;0.764081
1895.000000;0.764311
1894.000000;0.764499
1893.000000;0.765213
1892.000000;0.766662
1891.000000;0.768248
1890.000000;0.769336
1889.000000;0.770110
1888.000000;0.771154
1887.000000;0.772476
1886.000000;0.773561
1885.000000;0.774251
1884.000000;0.774901
1883.000000;0.775615
1882.000000;0.776019
1881.000000;0.775970
1880.000000;0.775864
1879.000000;0.775958
1878.000000;0.775961
1877.000000;0.775680
1876.000000;0.775552
1875.000000;0.776062
1874.000000;0.776958
1873.000000;0.777577
1872.000000;0.777771
1871.000000;0.778076
1870.000000;0.779050
1869.000000;0.780824
1868.000000;0.783231
1867.000000;0.785882
1866.000000;0.788061
1865.000000;0.789056
1864.000000;0.788785
1863.000000;0.787854
1862.000000;0.786960
1861.000000;0.786496
1860.000000;0.786597
1859.000000;0.787206
1858.000000;0.788001
1857.000000;0.788598
1856.000000;0.788935
1855.000000;0.789256
1854.000000;0.789684
1853.000000;0.790096
1852.000000;0.790506
1851.000000;0.791270
1850.000000;0.792608
1849.000000;0.794088
1848.000000;0.794896
1847.000000;0.794673
1846.000000;0.793921
1845.000000;0.793572
1844.000000;0.794218
1843.000000;0.795698
1842.000000;0.797264
1841.000000;0.798074
1840.000000;0.797709
1839.000000;0.796499
1838.000000;0.795385
1837.000000;0.795299
1836.000000;0.796428
1835.000000;0.798013
1834.000000;0.799027
1833.000000;0.799157
1832.000000;0.799062
1831.000000;0.799632
1830.000000;0.801205
1829.000000;0.803537
1828.000000;0.806152
1827.000000;0.808401
1826.000000;0.809566
1825.000000;0.809441
1824.000000;0.808772
1823.000000;0.808693
1822.000000;0.809561
1821.000000;0.810588
1820.000000;0.810884
1819.000000;0.810577
1818.000000;0.810486
1817.000000;0.810899
1816.000000;0.811223
1815.000000;0.810938
1814.000000;0.810378
1813.000000;0.810292
1812.000000;0.810903
1811.000000;0.811760
1810.000000;0.812445
1809.000000;0.813014
1808.000000;0.813624
1807.000000;0.814144
1806.000000;0.814446
1805.000000;0.814848
1804.000000;0.815879
1803.000000;0.817570
1802.000000;0.819296
1801.000000;0.820422
1800.000000;0.820904
1799.000000;0.821117
1798.000000;0.821346
1797.000000;0.821690
1796.000000;0.822248
1795.000000;0.823041
1794.000000;0.823782
1793.000000;0.824076
1792.000000;0.823953
1791.000000;0.823950
1790.000000;0.824501
1789.000000;0.825436
1788.000000;0.826293
1787.000000;0.826934
1786.000000;0.827584
1785.000000;0.828357
1784.000000;0.829012
1783.000000;0.829255
1782.000000;0.829120
1781.000000;0.828943
1780.000000;0.829032
1779.000000;0.829434
1778.000000;0.829979
1777.000000;0.830463
1776.000000;0.830816
1775.000000;0.831177
1774.000000;0.831827
1773.000000;0.832969
1772.000000;0.834469
1771.000000;0.835864
1770.000000;0.836730
1769.000000;0.837121
1768.000000;0.837584
1767.000000;0.838578
1766.000000;0.839879
1765.000000;0.840815
1764.000000;0.841056
1763.000000;0.840903
1762.000000;0.840759
1761.000000;0.840688
1760.000000;0.840656
1759.000000;0.840830
1758.000000;0.841349
1757.000000;0.842030
1756.000000;0.842606
1755.000000;0.843100
1754.000000;0.843614
1753.000000;0.843923
1752.000000;0.843797
1751.000000;0.843674
1750.000000;0.844383
1749.000000;0.846021
1748.000000;0.847612
1747.000000;0.848239
1746.000000;0.848167
1745.000000;0.848369
1744.000000;0.849273
1743.000000;0.850510
1742.000000;0.851691
1741.000000;0.852762
1740.000000;0.853539
1739.000000;0.853524
1738.000000;0.852583
1737.000000;0.851456
1736.000000;0.851209
1735.000000;0.852226
1734.000000;0.853889
1733.000000;0.855231
1732.000000;0.855804
1731.000000;0.855875
1730.000000;0.856072
1729.000000;0.856890
1728.000000;0.858323
1727.000000;0.859952
1726.000000;0.861363
1725.000000;0.862401
1724.000000;0.863073
1723.000000;0.863382
1722.000000;0.863354
1721.000000;0.863159
1720.000000;0.863068
1719.000000;0.863296
1718.000000;0.863874
1717.000000;0.864613
1716.000000;0.865219
1715.000000;0.865466
1714.000000;0.865382
1713.000000;0.865236
1712.000000;0.865281
1711.000000;0.865561
1710.000000;0.866034
1709.000000;0.866743
1708.000000;0.867735
1707.000000;0.868924
1706.000000;0.870184
1705.000000;0.871534
1704.000000;0.873086
1703.000000;0.874772
1702.000000;0.876271
1701.000000;0.877290
1700.000000;0.877807
1699.000000;0.878047
1698.000000;0.878187
1697.000000;0.878045
1696.000000;0.877467
1695.000000;0.876851
1694.000000;0.876904
1693.000000;0.877863
1692.000000;0.879130
1691.000000;0.879918
1690.000000;0.880082
1689.000000;0.880078
1688.000000;0.880288
1687.000000;0.880716
1686.000000;0.881275
1685.000000;0.881991
1684.000000;0.882786
1683.000000;0.883467
1682.000000;0.884025
1681.000000;0.884558
1680.000000;0.885086
1679.000000;0.885555
1678.000000;0.885998
1677.000000;0.886644
1676.000000;0.887681
1675.000000;0.888999
1674.000000;0.890320
1673.000000;0.891462
1672.000000;0.892301
1671.000000;0.892712
1670.000000;0.892730
1669.000000;0.892646
1668.000000;0.892809
1667.000000;0.893288
1666.000000;0.893827
1665.000000;0.894142
1664.000000;0.894203
1663.000000;0.894269
1662.000000;0.894725
1661.000000;0.895761
1660.000000;0.897087
1659.000000;0.898159
1658.000000;0.898780
1657.000000;0.899303
1656.000000;0.900165
1655.000000;0.901377
1654.000000;0.902497
1653.000000;0.902980
1652.000000;0.902711
1651.000000;0.902214
1650.000000;0.901998
1649.000000;0.902259
1648.000000;0.902877
1647.000000;0.903467
1646.000000;0.903828
1645.000000;0.904183
1644.000000;0.904808
1643.000000;0.905754
1642.000000;0.906980
1641.000000;0.908333
1640.000000;0.909327
1639.000000;0.909432
1638.000000;0.908797
1637.000000;0.908298
1636.000000;0.908571
1635.000000;0.909337
1634.000000;0.909990
1633.000000;0.910398
1632.000000;0.910818
1631.000000;0.911400
1630.000000;0.912128
1629.000000;0.913106
1628.000000;0.914414
1627.000000;0.915673
1626.000000;0.916252
1625.000000;0.916007
1624.000000;0.915460
1623.000000;0.915200
1622.000000;0.915492
1621.000000;0.916441
1620.000000;0.918015
1619.000000;0.919792
1618.000000;0.921087
1617.000000;0.921580
1616.000000;0.921575
1615.000000;0.921499
1614.000000;0.921387
1613.000000;0.921166
1612.000000;0.921158
1611.000000;0.921828
1610.000000;0.923177
1609.000000;0.924702
1608.000000;0.925883
1607.000000;0.926541
1606.000000;0.926834
1605.000000;0.927087
1604.000000;0.927587
1603.000000;0.928400
1602.000000;0.929348
1601.000000;0.930204
1600.000000;0.930807
1599.000000;0.931018
1598.000000;0.930811
1597.000000;0.930509
1596.000000;0.930668
1595.000000;0.931499
1594.000000;0.932578
1593.000000;0.933369
1592.000000;0.933882
1591.000000;0.934540
1590.000000;0.935525
1589.000000;0.936566
1588.000000;0.937350
1587.000000;0.937831
1586.000000;0.938126
1585.000000;0.938368
1584.000000;0.938754
1583.000000;0.939473
1582.000000;0.940456
1581.000000;0.941344
1580.000000;0.941861
1579.000000;0.942129
1578.000000;0.942467
1577.000000;0.942967
1576.000000;0.943464
1575.000000;0.943917
1574.000000;0.944569
1573.000000;0.945625
1572.000000;0.946965
1571.000000;0.948218
1570.000000;0.949006
1569.000000;0.949203
1568.000000;0.949052
1567.000000;0.948983
1566.000000;0.949311
1565.000000;0.950008
1564.000000;0.950716
1563.000000;0.951073
1562.000000;0.951103
1561.000000;0.951189
1560.000000;0.951612
1559.000000;0.952209
1558.000000;0.952721
1557.000000;0.953321
1556.000000;0.954116
1555.000000;0.954940
1554.000000;0.955703
1553.000000;0.956479
1552.000000;0.957413
1551.000000;0.958479
1550.000000;0.959374
1549.000000;0.959819
1548.000000;0.959910
1547.000000;0.960015
1546.000000;0.960337
1545.000000;0.960740
1544.000000;0.961056
1543.000000;0.961432
1542.000000;0.962188
1541.000000;0.963359
1540.000000;0.964574
1539.000000;0.965490
1538.000000;0.966146
1537.000000;0.966679
1536.000000;0.967060
1535.000000;0.967245
1534.000000;0.967382
1533.000000;0.967744
1532.000000;0.968409
1531.000000;0.969129
1530.000000;0.969667
1529.000000;0.970201
1528.000000;0.971126
1527.000000;0.972549
1526.000000;0.974182
1525.000000;0.975625
1524.000000;0.976579
1523.000000;0.976869
1522.000000;0.976563
1521.000000;0.976078
1520.000000;0.975938
1519.000000;0.976296
1518.000000;0.976831
1517.000000;0.977169
1516.000000;0.977267
1515.000000;0.977362
1514.000000;0.977702
1513.000000;0.978365
1512.000000;0.979222
1511.000000;0.980025
1510.000000;0.980641
1509.000000;0.981209
1508.000000;0.981940
1507.000000;0.982828
1506.000000;0.983737
1505.000000;0.984782
1504.000000;0.986107
1503.000000;0.987455
1502.000000;0.988355
1501.000000;0.988575
1500.000000;0.988320
1499.000000;0.988036
1498.000000;0.988053
1497.000000;0.988420
1496.000000;0.988973
1495.000000;0.989525
1494.000000;0.990023
1493.000000;0.990550
1492.000000;0.991115
1491.000000;0.991539
1490.000000;0.991723
1489.000000;0.991955
1488.000000;0.992656
1487.000000;0.993801
1486.000000;0.994899
1485.000000;0.995615
1484.000000;0.996126
1483.000000;0.996749
1482.000000;0.997470
1481.000000;0.998012
1480.000000;0.998213
1479.000000;0.998170
1478.000000;0.998139
1477.000000;0.998404
1476.000000;0.999115
1475.000000;1.000084
1474.000000;1.000878
1473.000000;1.001264
1472.000000;1.001453
1471.000000;1.001788
1470.000000;1.002294
1469.000000;1.002762
1468.000000;1.003190
1467.000000;1.003803
1466.000000;1.004651
1465.000000;1.005462
1464.000000;1.005972
1463.000000;1.006266
1462.000000;1.006660
1461.000000;1.007344
1460.000000;1.008207
1459.000000;1.008926
1458.000000;1.009252
1457.000000;1.009254
1456.000000;1.009321
1455.000000;1.009796
1454.000000;1.010598
1453.000000;1.011346
1452.000000;1.011778
1451.000000;1.011980
1450.000000;1.012281
1449.000000;1.012974
1448.000000;1.014083
1447.000000;1.015332
1446.000000;1.016360
1445.000000;1.017024
1444.000000;1.017479
1443.000000;1.017966
1442.000000;1.018523
1441.000000;1.019002
1440.000000;1.019341
1439.000000;1.019680
1438.000000;1.020153
1437.000000;1.020681
1436.000000;1.021097
1435.000000;1.021406
1434.000000;1.021769
1433.000000;1.022267
1432.000000;1.022832
1431.000000;1.023402
1430.000000;1.024015
1429.000000;1.024663
1428.000000;1.025167
1427.000000;1.025397
1426.000000;1.025644
1425.000000;1.026485
1424.000000;1.028109
1423.000000;1.029967
1422.000000;1.031280
1421.000000;1.031840
1420.000000;1.032114
1419.000000;1.032583
1418.000000;1.033238
1417.000000;1.033754
1416.000000;1.033914
1415.000000;1.033773
1414.000000;1.033541
1413.000000;1.033449
1412.000000;1.033667
1411.000000;1.034248
1410.000000;1.035140
1409.000000;1.036262
1408.000000;1.037517
1407.000000;1.038699
1406.000000;1.039521
1405.000000;1.039866
1404.000000;1.039961
1403.000000;1.040204
1402.000000;1.040818
1401.000000;1.041700
1400.000000;1.042604
1399.000000;1.043399
1398.000000;1.044152
1397.000000;1.044969
1396.000000;1.045745
1395.000000;1.046147
1394.000000;1.045929
1393.000000;1.045286
1392.000000;1.044796
1391.000000;1.044955
1390.000000;1.045799
1389.000000;1.046972
1388.000000;1.048079
1387.000000;1.048946
1386.000000;1.049572
1385.000000;1.049967
1384.000000;1.050139
1383.000000;1.050229
1382.000000;1.050534
1381.000000;1.051267
1380.000000;1.052278
1379.000000;1.053148
1378.000000;1.053622
1377.000000;1.053869
1376.000000;1.054210
1375.000000;1.054713
1374.000000;1.055198
1373.000000;1.055584
1372.000000;1.056063
1371.000000;1.056886
1370.000000;1.058063
1369.000000;1.059287
1368.000000;1.060138
1367.000000;1.060442
1366.000000;1.060476
1365.000000;1.060714
1364.000000;1.061289
1363.000000;1.061842
1362.000000;1.061995
1361.000000;1.061861
1360.000000;1.061893
1359.000000;1.062345
1358.000000;1.063120
1357.000000;1.064050
1356.000000;1.065017
1355.000000;1.065841
1354.000000;1.066320
1353.000000;1.066468
1352.000000;1.066501
1351.000000;1.066554
1350.000000;1.066651
1349.000000;1.066975
1348.000000;1.067863
1347.000000;1.069421
1346.000000;1.071284
1345.000000;1.072896
1344.000000;1.073892
1343.000000;1.074200
1342.000000;1.073971
1341.000000;1.073505
1340.000000;1.073127
1339.000000;1.073037
1338.000000;1.073323
1337.000000;1.073990
1336.000000;1.074824
1335.000000;1.075367
1334.000000;1.075383
1333.000000;1.075250
1332.000000;1.075553
1331.000000;1.076341
1330.000000;1.077227
1329.000000;1.078200
1328.000000;1.079747
1327.000000;1.081885
1326.000000;1.083615
1325.000000;1.083815
1324.000000;1.082502
1323.000000;1.080889
1322.000000;1.080364
1321.000000;1.081597
1320.000000;1.084193
1319.000000;1.086840
1318.000000;1.088133
1317.000000;1.087790
1316.000000;1.086917
1315.000000;1.086743
1314.000000;1.087325
1313.000000;1.087750
1312.000000;1.087258
1311.000000;1.085797
1310.000000;1.083833
1309.000000;1.082289
1308.000000;1.082411
1307.000000;1.084855
1306.000000;1.088714
1305.000000;1.092018
1304.000000;1.093549
1303.000000;1.093836
1302.000000;1.094148
1301.000000;1.095038
1300.000000;1.096161
1299.000000;1.096993
1298.000000;1.097299
1297.000000;1.097140
1296.000000;1.096866
1295.000000;1.096982
1294.000000;1.097698
1293.000000;1.098659
1292.000000;1.099354
1291.000000;1.099743
1290.000000;1.100263
1289.000000;1.101247
1288.000000;1.102563
1287.000000;1.103783
1286.000000;1.104536
1285.000000;1.104716
1284.000000;1.104512
1283.000000;1.104330
1282.000000;1.104554
1281.000000;1.105324
1280.000000;1.106474
1279.000000;1.107678
1278.000000;1.108644
1277.000000;1.109244
1276.000000;1.109527
1275.000000;1.109623
1274.000000;1.109676
1273.000000;1.109896
1272.000000;1.110522
1271.000000;1.111574
1270.000000;1.112671
1269.000000;1.113335
1268.000000;1.113519
1267.000000;1.113646
1266.000000;1.114048
1265.000000;1.114579
1264.000000;1.114893
1263.000000;1.114936
1262.000000;1.114990
1261.000000;1.115326
1260.000000;1.115976
1259.000000;1.116752
1258.000000;1.117382
1257.000000;1.117710
1256.000000;1.117928
1255.000000;1.118486
1254.000000;1.119595
1253.000000;1.120855
1252.000000;1.121597
1251.000000;1.121613
1250.000000;1.121338
1249.000000;1.121286
1248.000000;1.121530
1247.000000;1.121818
1246.000000;1.122010
1245.000000;1.122221
1244.000000;1.122648
1243.000000;1.123435
1242.000000;1.124619
1241.000000;1.126019
1240.000000;1.127234
1239.000000;1.127958
1238.000000;1.128336
1237.000000;1.128798
1236.000000;1.129544
1235.000000;1.130356
1234.000000;1.130958
1233.000000;1.131363
1232.000000;1.131740
1231.000000;1.132163
1230.000000;1.132689
1229.000000;1.133466
1228.000000;1.134502
1227.000000;1.135383
1226.000000;1.135586
1225.000000;1.135141
1224.000000;1.134712
1223.000000;1.134896
1222.000000;1.135631
1221.000000;1.136429
1220.000000;1.137004
1219.000000;1.137472
1218.000000;1.138052
1217.000000;1.138772
1216.000000;1.139489
1215.000000;1.140057
1214.000000;1.140456
1213.000000;1.140806
1212.000000;1.141249
1211.000000;1.141777
1210.000000;1.142232
1209.000000;1.142526
1208.000000;1.142775
1207.000000;1.143125
1206.000000;1.143524
1205.000000;1.143789
1204.000000;1.143954
1203.000000;1.144375
1202.000000;1.145429
1201.000000;1.147011
1200.000000;1.148529
