Criado como novo conjunto de dados;"0307_DANIEL.spp","52744.6 Secs"
cm-1;Abs
10000.000000;0.444758
9999.000000;0.443567
9998.000000;0.442381
9997.000000;0.441195
9996.000000;0.440038
9995.000000;0.438933
9994.000000;0.437817
9993.000000;0.436677
9992.000000;0.435580
9991.000000;0.434547
9990.000000;0.433453
9989.000000;0.432178
9988.000000;0.430823
9987.000000;0.429634
9986.000000;0.428704
9985.000000;0.427880
9984.000000;0.426987
9983.000000;0.425998
9982.000000;0.424962
9981.000000;0.423883
9980.000000;0.422760
9979.000000;0.421616
9978.000000;0.420438
9977.000000;0.419161
9976.000000;0.417785
9975.000000;0.416407
9974.000000;0.415100
9973.000000;0.413826
9972.000000;0.412555
9971.000000;0.411359
9970.000000;0.410321
9969.000000;0.409390
9968.000000;0.408432
9967.000000;0.407378
9966.000000;0.406241
9965.000000;0.405062
9964.000000;0.403888
9963.000000;0.402765
9962.000000;0.401676
9961.000000;0.400538
9960.000000;0.399326
9959.000000;0.398148
9958.000000;0.397119
9957.000000;0.396195
9956.000000;0.395224
9955.000000;0.394126
9954.000000;0.392935
9953.000000;0.391704
9952.000000;0.390436
9951.000000;0.389138
9950.000000;0.387857
9949.000000;0.386645
9948.000000;0.385502
9947.000000;0.384362
9946.000000;0.383145
9945.000000;0.381843
9944.000000;0.380569
9943.000000;0.379454
9942.000000;0.378485
9941.000000;0.377502
9940.000000;0.376380
9939.000000;0.375145
9938.000000;0.373868
9937.000000;0.372542
9936.000000;0.371152
9935.000000;0.369789
9934.000000;0.368553
9933.000000;0.367401
9932.000000;0.366183
9931.000000;0.364838
9930.000000;0.363444
9929.000000;0.362093
9928.000000;0.360821
9927.000000;0.359662
9926.000000;0.358649
9925.000000;0.357718
9924.000000;0.356699
9923.000000;0.355470
9922.000000;0.354076
9921.000000;0.352686
9920.000000;0.351440
9919.000000;0.350351
9918.000000;0.349320
9917.000000;0.348213
9916.000000;0.346964
9915.000000;0.345608
9914.000000;0.344200
9913.000000;0.342738
9912.000000;0.341211
9911.000000;0.339714
9910.000000;0.338412
9909.000000;0.337375
9908.000000;0.336482
9907.000000;0.335510
9906.000000;0.334316
9905.000000;0.332924
9904.000000;0.331492
9903.000000;0.330182
9902.000000;0.329020
9901.000000;0.327867
9900.000000;0.326573
9899.000000;0.325162
9898.000000;0.323811
9897.000000;0.322638
9896.000000;0.321563
9895.000000;0.320400
9894.000000;0.319056
9893.000000;0.317584
9892.000000;0.316089
9891.000000;0.314634
9890.000000;0.313248
9889.000000;0.311964
9888.000000;0.310821
9887.000000;0.309813
9886.000000;0.308840
9885.000000;0.307748
9884.000000;0.306463
9883.000000;0.305065
9882.000000;0.303709
9881.000000;0.302454
9880.000000;0.301214
9879.000000;0.299880
9878.000000;0.298438
9877.000000;0.296961
9876.000000;0.295525
9875.000000;0.294174
9874.000000;0.292916
9873.000000;0.291708
9872.000000;0.290452
9871.000000;0.289067
9870.000000;0.287587
9869.000000;0.286148
9868.000000;0.284852
9867.000000;0.283666
9866.000000;0.282450
9865.000000;0.281092
9864.000000;0.279598
9863.000000;0.278063
9862.000000;0.276576
9861.000000;0.275160
9860.000000;0.273787
9859.000000;0.272426
9858.000000;0.271071
9857.000000;0.269736
9856.000000;0.268451
9855.000000;0.267244
9854.000000;0.266087
9853.000000;0.264878
9852.000000;0.263505
9851.000000;0.261966
9850.000000;0.260383
9849.000000;0.258889
9848.000000;0.257498
9847.000000;0.256138
9846.000000;0.254767
9845.000000;0.253421
9844.000000;0.252126
9843.000000;0.250828
9842.000000;0.249456
9841.000000;0.248022
9840.000000;0.246605
9839.000000;0.245243
9838.000000;0.243886
9837.000000;0.242494
9836.000000;0.241101
9835.000000;0.239738
9834.000000;0.238346
9833.000000;0.236845
9832.000000;0.235272
9831.000000;0.233760
9830.000000;0.232362
9829.000000;0.230964
9828.000000;0.229440
9827.000000;0.227823
9826.000000;0.226254
9825.000000;0.224789
9824.000000;0.223341
9823.000000;0.221806
9822.000000;0.220198
9821.000000;0.218612
9820.000000;0.217114
9819.000000;0.215704
9818.000000;0.214350
9817.000000;0.213025
9816.000000;0.211693
9815.000000;0.210320
9814.000000;0.208887
9813.000000;0.207388
9812.000000;0.205804
9811.000000;0.204117
9810.000000;0.202367
9809.000000;0.200678
9808.000000;0.199177
9807.000000;0.197874
9806.000000;0.196655
9805.000000;0.195381
9804.000000;0.193979
9803.000000;0.192443
9802.000000;0.190792
9801.000000;0.189076
9800.000000;0.187402
9799.000000;0.185889
9798.000000;0.184578
9797.000000;0.183364
9796.000000;0.182054
9795.000000;0.180489
9794.000000;0.178667
9793.000000;0.176765
9792.000000;0.175030
9791.000000;0.173581
9790.000000;0.172300
9789.000000;0.170963
9788.000000;0.169462
9787.000000;0.167887
9786.000000;0.166370
9785.000000;0.164910
9784.000000;0.163401
9783.000000;0.161781
9782.000000;0.160106
9781.000000;0.158465
9780.000000;0.156861
9779.000000;0.155206
9778.000000;0.153439
9777.000000;0.151614
9776.000000;0.149872
9775.000000;0.148303
9774.000000;0.146861
9773.000000;0.145424
9772.000000;0.143929
9771.000000;0.142413
9770.000000;0.140924
9769.000000;0.139453
9768.000000;0.137961
9767.000000;0.136440
9766.000000;0.134894
9765.000000;0.133308
9764.000000;0.131658
9763.000000;0.129953
9762.000000;0.128228
9761.000000;0.126497
9760.000000;0.124743
9759.000000;0.122942
9758.000000;0.121099
9757.000000;0.119261
9756.000000;0.117508
9755.000000;0.115906
9754.000000;0.114417
9753.000000;0.112888
9752.000000;0.111164
9751.000000;0.109249
9750.000000;0.107311
9749.000000;0.105519
9748.000000;0.103901
9747.000000;0.102351
9746.000000;0.100757
9745.000000;0.099089
9744.000000;0.097384
9743.000000;0.095680
9742.000000;0.093985
9741.000000;0.092289
9740.000000;0.090601
9739.000000;0.088936
9738.000000;0.087300
9737.000000;0.085680
9736.000000;0.084068
9735.000000;0.082469
9734.000000;0.080870
9733.000000;0.079214
9732.000000;0.077434
9731.000000;0.075533
9730.000000;0.073618
9729.000000;0.071828
9728.000000;0.070204
9727.000000;0.068630
9726.000000;0.066933
9725.000000;0.065048
9724.000000;0.063084
9723.000000;0.061205
9722.000000;0.059467
9721.000000;0.057787
9720.000000;0.056066
9719.000000;0.054300
9718.000000;0.052556
9717.000000;0.050872
9716.000000;0.049201
9715.000000;0.047470
9714.000000;0.045661
9713.000000;0.043819
9712.000000;0.041994
9711.000000;0.040183
9710.000000;0.038360
9709.000000;0.036532
9708.000000;0.034745
9707.000000;0.033000
9706.000000;0.031208
9705.000000;0.029269
9704.000000;0.027190
9703.000000;0.025088
9702.000000;0.023085
9701.000000;0.021221
9700.000000;0.019466
9699.000000;0.017779
9698.000000;0.016110
9697.000000;0.014392
9696.000000;0.012571
9695.000000;0.010645
9694.000000;0.008670
9693.000000;0.006705
9692.000000;0.004780
9691.000000;0.002881
9690.000000;0.000965
9689.000000;-0.001010
9688.000000;-0.003055
9687.000000;-0.005134
9686.000000;-0.007206
9685.000000;-0.009255
9684.000000;-0.011287
9683.000000;-0.013285
9682.000000;-0.015187
9681.000000;-0.016921
9680.000000;-0.018487
9679.000000;-0.019995
9678.000000;-0.021622
9677.000000;-0.023482
9676.000000;-0.025552
9675.000000;-0.027719
9674.000000;-0.029881
9673.000000;-0.031996
9672.000000;-0.034045
9671.000000;-0.035998
9670.000000;-0.037848
9669.000000;-0.039658
9668.000000;-0.041546
9667.000000;-0.043604
9666.000000;-0.045815
9665.000000;-0.048060
9664.000000;-0.050219
9663.000000;-0.052275
9662.000000;-0.054300
9661.000000;-0.056342
9660.000000;-0.058362
9659.000000;-0.060319
9658.000000;-0.062247
9657.000000;-0.064204
9656.000000;-0.066190
9655.000000;-0.068179
9654.000000;-0.070208
9653.000000;-0.072336
9652.000000;-0.074518
9651.000000;-0.076628
9650.000000;-0.078627
9649.000000;-0.080618
9648.000000;-0.082686
9647.000000;-0.084784
9646.000000;-0.086833
9645.000000;-0.088842
9644.000000;-0.090860
9643.000000;-0.092861
9642.000000;-0.094803
9641.000000;-0.096732
9640.000000;-0.098741
9639.000000;-0.100837
9638.000000;-0.102966
9637.000000;-0.105149
9636.000000;-0.107495
9635.000000;-0.110030
9634.000000;-0.112608
9633.000000;-0.115026
9632.000000;-0.117206
9631.000000;-0.119212
9630.000000;-0.121158
9629.000000;-0.123123
9628.000000;-0.125121
9627.000000;-0.127122
9626.000000;-0.129102
9625.000000;-0.131082
9624.000000;-0.133105
9623.000000;-0.135180
9622.000000;-0.137300
9621.000000;-0.139479
9620.000000;-0.141727
9619.000000;-0.143989
9618.000000;-0.146171
9617.000000;-0.148272
9616.000000;-0.150404
9615.000000;-0.152633
9614.000000;-0.154872
9613.000000;-0.157002
9612.000000;-0.159067
9611.000000;-0.161251
9610.000000;-0.163658
9609.000000;-0.166172
9608.000000;-0.168559
9607.000000;-0.170683
9606.000000;-0.172616
9605.000000;-0.174564
9604.000000;-0.176710
9603.000000;-0.179103
9602.000000;-0.181648
9601.000000;-0.184192
9600.000000;-0.186604
9599.000000;-0.188849
9598.000000;-0.191008
9597.000000;-0.193217
9596.000000;-0.195523
9595.000000;-0.197806
9594.000000;-0.199902
9593.000000;-0.201820
9592.000000;-0.203762
9591.000000;-0.205902
9590.000000;-0.208209
9589.000000;-0.210543
9588.000000;-0.212840
9587.000000;-0.215119
9586.000000;-0.217383
9585.000000;-0.219622
9584.000000;-0.221901
9583.000000;-0.224309
9582.000000;-0.226812
9581.000000;-0.229259
9580.000000;-0.231550
9579.000000;-0.233721
9578.000000;-0.235845
9577.000000;-0.237959
9576.000000;-0.240120
9575.000000;-0.242426
9574.000000;-0.244892
9573.000000;-0.247373
9572.000000;-0.249698
9571.000000;-0.251850
9570.000000;-0.253935
9569.000000;-0.256040
9568.000000;-0.258174
9567.000000;-0.260332
9566.000000;-0.262510
9565.000000;-0.264676
9564.000000;-0.266814
9563.000000;-0.268968
9562.000000;-0.271210
9561.000000;-0.273548
9560.000000;-0.275926
9559.000000;-0.278296
9558.000000;-0.280628
9557.000000;-0.282872
9556.000000;-0.284991
9555.000000;-0.287031
9554.000000;-0.289096
9553.000000;-0.291247
9552.000000;-0.293494
9551.000000;-0.295850
9550.000000;-0.298311
9549.000000;-0.300768
9548.000000;-0.303063
9547.000000;-0.305173
9546.000000;-0.307233
9545.000000;-0.309334
9544.000000;-0.311400
9543.000000;-0.313329
9542.000000;-0.315181
9541.000000;-0.317128
9540.000000;-0.319270
9539.000000;-0.321568
9538.000000;-0.323932
9537.000000;-0.326291
9536.000000;-0.328585
9535.000000;-0.330763
9534.000000;-0.332812
9533.000000;-0.334763
9532.000000;-0.336703
9531.000000;-0.338756
9530.000000;-0.340989
9529.000000;-0.343276
9528.000000;-0.345350
9527.000000;-0.347077
9526.000000;-0.348644
9525.000000;-0.350385
9524.000000;-0.352440
9523.000000;-0.354657
9522.000000;-0.356794
9521.000000;-0.358731
9520.000000;-0.360501
9519.000000;-0.362224
9518.000000;-0.364034
9517.000000;-0.365966
9516.000000;-0.367906
9515.000000;-0.369713
9514.000000;-0.371402
9513.000000;-0.373120
9512.000000;-0.374932
9511.000000;-0.376742
9510.000000;-0.378469
9509.000000;-0.380199
9508.000000;-0.382058
9507.000000;-0.384011
9506.000000;-0.385878
9505.000000;-0.387545
9504.000000;-0.389091
9503.000000;-0.390688
9502.000000;-0.392410
9501.000000;-0.394174
9500.000000;-0.395853
9499.000000;-0.397443
9498.000000;-0.399075
9497.000000;-0.400817
9496.000000;-0.402513
9495.000000;-0.403918
9494.000000;-0.404994
9493.000000;-0.405968
9492.000000;-0.407080
9491.000000;-0.408366
9490.000000;-0.409745
9489.000000;-0.411163
9488.000000;-0.412568
9487.000000;-0.413840
9486.000000;-0.414916
9485.000000;-0.415937
9484.000000;-0.417121
9483.000000;-0.418501
9482.000000;-0.419888
9481.000000;-0.421105
9480.000000;-0.422123
9479.000000;-0.422974
9478.000000;-0.423667
9477.000000;-0.424265
9476.000000;-0.424940
9475.000000;-0.425854
9474.000000;-0.427022
9473.000000;-0.428323
9472.000000;-0.429604
9471.000000;-0.430748
9470.000000;-0.431712
9469.000000;-0.432562
9468.000000;-0.433424
9467.000000;-0.434350
9466.000000;-0.435241
9465.000000;-0.435944
9464.000000;-0.436413
9463.000000;-0.436747
9462.000000;-0.437103
9461.000000;-0.437586
9460.000000;-0.438188
9459.000000;-0.438812
9458.000000;-0.439360
9457.000000;-0.439820
9456.000000;-0.440246
9455.000000;-0.440668
9454.000000;-0.441057
9453.000000;-0.441374
9452.000000;-0.441608
9451.000000;-0.441766
9450.000000;-0.441867
9449.000000;-0.441973
9448.000000;-0.442139
9447.000000;-0.442313
9446.000000;-0.442355
9445.000000;-0.442204
9444.000000;-0.441986
9443.000000;-0.441897
9442.000000;-0.442018
9441.000000;-0.442258
9440.000000;-0.442444
9439.000000;-0.442431
9438.000000;-0.442186
9437.000000;-0.441815
9436.000000;-0.441472
9435.000000;-0.441222
9434.000000;-0.441013
9433.000000;-0.440804
9432.000000;-0.440629
9431.000000;-0.440518
9430.000000;-0.440418
9429.000000;-0.440270
9428.000000;-0.440063
9427.000000;-0.439772
9426.000000;-0.439309
9425.000000;-0.438642
9424.000000;-0.437899
9423.000000;-0.437248
9422.000000;-0.436714
9421.000000;-0.436204
9420.000000;-0.435671
9419.000000;-0.435139
9418.000000;-0.434607
9417.000000;-0.434057
9416.000000;-0.433536
9415.000000;-0.433100
9414.000000;-0.432670
9413.000000;-0.432081
9412.000000;-0.431309
9411.000000;-0.430527
9410.000000;-0.429874
9409.000000;-0.429290
9408.000000;-0.428641
9407.000000;-0.427891
9406.000000;-0.427069
9405.000000;-0.426156
9404.000000;-0.425135
9403.000000;-0.424097
9402.000000;-0.423154
9401.000000;-0.422275
9400.000000;-0.421306
9399.000000;-0.420185
9398.000000;-0.419044
9397.000000;-0.418048
9396.000000;-0.417204
9395.000000;-0.416374
9394.000000;-0.415449
9393.000000;-0.414455
9392.000000;-0.413482
9391.000000;-0.412569
9390.000000;-0.411691
9389.000000;-0.410824
9388.000000;-0.409968
9387.000000;-0.409099
9386.000000;-0.408125
9385.000000;-0.406955
9384.000000;-0.405604
9383.000000;-0.404215
9382.000000;-0.402958
9381.000000;-0.401898
9380.000000;-0.400961
9379.000000;-0.400005
9378.000000;-0.398941
9377.000000;-0.397791
9376.000000;-0.396629
9375.000000;-0.395476
9374.000000;-0.394270
9373.000000;-0.392969
9372.000000;-0.391619
9371.000000;-0.390291
9370.000000;-0.388985
9369.000000;-0.387654
9368.000000;-0.386310
9367.000000;-0.385032
9366.000000;-0.383863
9365.000000;-0.382752
9364.000000;-0.381633
9363.000000;-0.380499
9362.000000;-0.379367
9361.000000;-0.378227
9360.000000;-0.377062
9359.000000;-0.375896
9358.000000;-0.374766
9357.000000;-0.373658
9356.000000;-0.372511
9355.000000;-0.371271
9354.000000;-0.369931
9353.000000;-0.368522
9352.000000;-0.367116
9351.000000;-0.365819
9350.000000;-0.364705
9349.000000;-0.363730
9348.000000;-0.362742
9347.000000;-0.361599
9346.000000;-0.360267
9345.000000;-0.358821
9344.000000;-0.357372
9343.000000;-0.355998
9342.000000;-0.354714
9341.000000;-0.353475
9340.000000;-0.352214
9339.000000;-0.350896
9338.000000;-0.349551
9337.000000;-0.348261
9336.000000;-0.347097
9335.000000;-0.346048
9334.000000;-0.345013
9333.000000;-0.343867
9332.000000;-0.342562
9331.000000;-0.341174
9330.000000;-0.339844
9329.000000;-0.338661
9328.000000;-0.337582
9327.000000;-0.336483
9326.000000;-0.335257
9325.000000;-0.333887
9324.000000;-0.332445
9323.000000;-0.331042
9322.000000;-0.329771
9321.000000;-0.328651
9320.000000;-0.327603
9319.000000;-0.326502
9318.000000;-0.325274
9317.000000;-0.323963
9316.000000;-0.322676
9315.000000;-0.321472
9314.000000;-0.320316
9313.000000;-0.319136
9312.000000;-0.317915
9311.000000;-0.316694
9310.000000;-0.315496
9309.000000;-0.314284
9308.000000;-0.312998
9307.000000;-0.311644
9306.000000;-0.310308
9305.000000;-0.309071
9304.000000;-0.307937
9303.000000;-0.306836
9302.000000;-0.305715
9301.000000;-0.304585
9300.000000;-0.303495
9299.000000;-0.302452
9298.000000;-0.301397
9297.000000;-0.300246
9296.000000;-0.298970
9295.000000;-0.297625
9294.000000;-0.296322
9293.000000;-0.295136
9292.000000;-0.294056
9291.000000;-0.293012
9290.000000;-0.291944
9289.000000;-0.290838
9288.000000;-0.289711
9287.000000;-0.288595
9286.000000;-0.287530
9285.000000;-0.286521
9284.000000;-0.285490
9283.000000;-0.284338
9282.000000;-0.283064
9281.000000;-0.281800
9280.000000;-0.280673
9279.000000;-0.279665
9278.000000;-0.278663
9277.000000;-0.277609
9276.000000;-0.276540
9275.000000;-0.275488
9274.000000;-0.274424
9273.000000;-0.273295
9272.000000;-0.272077
9271.000000;-0.270780
9270.000000;-0.269461
9269.000000;-0.268241
9268.000000;-0.267244
9267.000000;-0.266465
9266.000000;-0.265751
9265.000000;-0.264934
9264.000000;-0.263962
9263.000000;-0.262881
9262.000000;-0.261754
9261.000000;-0.260643
9260.000000;-0.259609
9259.000000;-0.258678
9258.000000;-0.257802
9257.000000;-0.256910
9256.000000;-0.255990
9255.000000;-0.255079
9254.000000;-0.254186
9253.000000;-0.253267
9252.000000;-0.252278
9251.000000;-0.251213
9250.000000;-0.250100
9249.000000;-0.248984
9248.000000;-0.247913
9247.000000;-0.246903
9246.000000;-0.245923
9245.000000;-0.244934
9244.000000;-0.243954
9243.000000;-0.243035
9242.000000;-0.242191
9241.000000;-0.241377
9240.000000;-0.240557
9239.000000;-0.239724
9238.000000;-0.238856
9237.000000;-0.237891
9236.000000;-0.236801
9235.000000;-0.235664
9234.000000;-0.234614
9233.000000;-0.233721
9232.000000;-0.232938
9231.000000;-0.232158
9230.000000;-0.231297
9229.000000;-0.230340
9228.000000;-0.229331
9227.000000;-0.228347
9226.000000;-0.227443
9225.000000;-0.226617
9224.000000;-0.225823
9223.000000;-0.225018
9222.000000;-0.224185
9221.000000;-0.223310
9220.000000;-0.222376
9219.000000;-0.221416
9218.000000;-0.220520
9217.000000;-0.219776
9216.000000;-0.219161
9215.000000;-0.218551
9214.000000;-0.217837
9213.000000;-0.217021
9212.000000;-0.216180
9211.000000;-0.215357
9210.000000;-0.214525
9209.000000;-0.213639
9208.000000;-0.212698
9207.000000;-0.211747
9206.000000;-0.210850
9205.000000;-0.210052
9204.000000;-0.209354
9203.000000;-0.208696
9202.000000;-0.207989
9201.000000;-0.207177
9200.000000;-0.206263
9199.000000;-0.205293
9198.000000;-0.204331
9197.000000;-0.203455
9196.000000;-0.202711
9195.000000;-0.202057
9194.000000;-0.201391
9193.000000;-0.200676
9192.000000;-0.199991
9191.000000;-0.199419
9190.000000;-0.198897
9189.000000;-0.198276
9188.000000;-0.197511
9187.000000;-0.196710
9186.000000;-0.195976
9185.000000;-0.195259
9184.000000;-0.194443
9183.000000;-0.193531
9182.000000;-0.192659
9181.000000;-0.191925
9180.000000;-0.191274
9179.000000;-0.190581
9178.000000;-0.189805
9177.000000;-0.189024
9176.000000;-0.188339
9175.000000;-0.187769
9174.000000;-0.187242
9173.000000;-0.186650
9172.000000;-0.185921
9171.000000;-0.185065
9170.000000;-0.184172
9169.000000;-0.183355
9168.000000;-0.182672
9167.000000;-0.182086
9166.000000;-0.181522
9165.000000;-0.180932
9164.000000;-0.180329
9163.000000;-0.179734
9162.000000;-0.179131
9161.000000;-0.178492
9160.000000;-0.177820
9159.000000;-0.177147
9158.000000;-0.176488
9157.000000;-0.175837
9156.000000;-0.175204
9155.000000;-0.174628
9154.000000;-0.174119
9153.000000;-0.173631
9152.000000;-0.173107
9151.000000;-0.172544
9150.000000;-0.171965
9149.000000;-0.171358
9148.000000;-0.170668
9147.000000;-0.169898
9146.000000;-0.169147
9145.000000;-0.168520
9144.000000;-0.168008
9143.000000;-0.167495
9142.000000;-0.166888
9141.000000;-0.166215
9140.000000;-0.165576
9139.000000;-0.165020
9138.000000;-0.164504
9137.000000;-0.163960
9136.000000;-0.163375
9135.000000;-0.162798
9134.000000;-0.162277
9133.000000;-0.161819
9132.000000;-0.161411
9131.000000;-0.161040
9130.000000;-0.160674
9129.000000;-0.160240
9128.000000;-0.159652
9127.000000;-0.158896
9126.000000;-0.158082
9125.000000;-0.157375
9124.000000;-0.156874
9123.000000;-0.156535
9122.000000;-0.156221
9121.000000;-0.155826
9120.000000;-0.155352
9119.000000;-0.154864
9118.000000;-0.154395
9117.000000;-0.153911
9116.000000;-0.153371
9115.000000;-0.152803
9114.000000;-0.152269
9113.000000;-0.151781
9112.000000;-0.151290
9111.000000;-0.150764
9110.000000;-0.150248
9109.000000;-0.149792
9108.000000;-0.149374
9107.000000;-0.148928
9106.000000;-0.148435
9105.000000;-0.147942
9104.000000;-0.147478
9103.000000;-0.147014
9102.000000;-0.146524
9101.000000;-0.146038
9100.000000;-0.145606
9099.000000;-0.145212
9098.000000;-0.144785
9097.000000;-0.144283
9096.000000;-0.143752
9095.000000;-0.143274
9094.000000;-0.142880
9093.000000;-0.142514
9092.000000;-0.142088
9091.000000;-0.141569
9090.000000;-0.141018
9089.000000;-0.140538
9088.000000;-0.140189
9087.000000;-0.139952
9086.000000;-0.139750
9085.000000;-0.139491
9084.000000;-0.139093
9083.000000;-0.138519
9082.000000;-0.137832
9081.000000;-0.137184
9080.000000;-0.136704
9079.000000;-0.136382
9078.000000;-0.136097
9077.000000;-0.135740
9076.000000;-0.135297
9075.000000;-0.134819
9074.000000;-0.134345
9073.000000;-0.133903
9072.000000;-0.133535
9071.000000;-0.133274
9070.000000;-0.133092
9069.000000;-0.132888
9068.000000;-0.132565
9067.000000;-0.132108
9066.000000;-0.131609
9065.000000;-0.131187
9064.000000;-0.130896
9063.000000;-0.130679
9062.000000;-0.130415
9061.000000;-0.130025
9060.000000;-0.129539
9059.000000;-0.129059
9058.000000;-0.128665
9057.000000;-0.128361
9056.000000;-0.128095
9055.000000;-0.127825
9054.000000;-0.127542
9053.000000;-0.127244
9052.000000;-0.126917
9051.000000;-0.126555
9050.000000;-0.126180
9049.000000;-0.125818
9048.000000;-0.125463
9047.000000;-0.125083
9046.000000;-0.124693
9045.000000;-0.124371
9044.000000;-0.124178
9043.000000;-0.124065
9042.000000;-0.123904
9041.000000;-0.123622
9040.000000;-0.123259
9039.000000;-0.122894
9038.000000;-0.122553
9037.000000;-0.122224
9036.000000;-0.121937
9035.000000;-0.121761
9034.000000;-0.121699
9033.000000;-0.121640
9032.000000;-0.121438
9031.000000;-0.121045
9030.000000;-0.120545
9029.000000;-0.120078
9028.000000;-0.119724
9027.000000;-0.119487
9026.000000;-0.119334
9025.000000;-0.119235
9024.000000;-0.119153
9023.000000;-0.119017
9022.000000;-0.118750
9021.000000;-0.118346
9020.000000;-0.117902
9019.000000;-0.117542
9018.000000;-0.117305
9017.000000;-0.117121
9016.000000;-0.116894
9015.000000;-0.116589
9014.000000;-0.116228
9013.000000;-0.115853
9012.000000;-0.115510
9011.000000;-0.115251
9010.000000;-0.115095
9009.000000;-0.114989
9008.000000;-0.114837
9007.000000;-0.114589
9006.000000;-0.114287
9005.000000;-0.114005
9004.000000;-0.113777
9003.000000;-0.113574
9002.000000;-0.113351
9001.000000;-0.113101
9000.000000;-0.112870
8999.000000;-0.112704
8998.000000;-0.112586
8997.000000;-0.112446
8996.000000;-0.112242
8995.000000;-0.112009
8994.000000;-0.111797
8993.000000;-0.111603
8992.000000;-0.111404
8991.000000;-0.111232
8990.000000;-0.111150
8989.000000;-0.111130
8988.000000;-0.111052
8987.000000;-0.110847
8986.000000;-0.110581
8985.000000;-0.110351
8984.000000;-0.110163
8983.000000;-0.109966
8982.000000;-0.109750
8981.000000;-0.109555
8980.000000;-0.109390
8979.000000;-0.109229
8978.000000;-0.109078
8977.000000;-0.108970
8976.000000;-0.108892
8975.000000;-0.108774
8974.000000;-0.108571
8973.000000;-0.108296
8972.000000;-0.107978
8971.000000;-0.107627
8970.000000;-0.107272
8969.000000;-0.106980
8968.000000;-0.106792
8967.000000;-0.106688
8966.000000;-0.106634
8965.000000;-0.106626
8964.000000;-0.106673
8963.000000;-0.106747
8962.000000;-0.106800
8961.000000;-0.106796
8960.000000;-0.106713
8959.000000;-0.106519
8958.000000;-0.106212
8957.000000;-0.105850
8956.000000;-0.105526
8955.000000;-0.105294
8954.000000;-0.105141
8953.000000;-0.105018
8952.000000;-0.104895
8951.000000;-0.104764
8950.000000;-0.104631
8949.000000;-0.104514
8948.000000;-0.104447
8947.000000;-0.104458
8946.000000;-0.104525
8945.000000;-0.104569
8944.000000;-0.104507
8943.000000;-0.104331
8942.000000;-0.104113
8941.000000;-0.103919
8940.000000;-0.103745
8939.000000;-0.103558
8938.000000;-0.103371
8937.000000;-0.103224
8936.000000;-0.103115
8935.000000;-0.102998
8934.000000;-0.102866
8933.000000;-0.102779
8932.000000;-0.102785
8931.000000;-0.102835
8930.000000;-0.102828
8929.000000;-0.102703
8928.000000;-0.102488
8927.000000;-0.102263
8926.000000;-0.102098
8925.000000;-0.102013
8924.000000;-0.101975
8923.000000;-0.101945
8922.000000;-0.101925
8921.000000;-0.101923
8920.000000;-0.101904
8919.000000;-0.101807
8918.000000;-0.101639
8917.000000;-0.101481
8916.000000;-0.101372
8915.000000;-0.101249
8914.000000;-0.101038
8913.000000;-0.100781
8912.000000;-0.100600
8911.000000;-0.100559
8910.000000;-0.100595
8909.000000;-0.100600
8908.000000;-0.100523
8907.000000;-0.100414
8906.000000;-0.100393
8905.000000;-0.100557
8904.000000;-0.100855
8903.000000;-0.101081
8902.000000;-0.101031
8901.000000;-0.100697
8900.000000;-0.100271
8899.000000;-0.099961
8898.000000;-0.099842
8897.000000;-0.099867
8896.000000;-0.099970
8895.000000;-0.100109
8894.000000;-0.100250
8893.000000;-0.100346
8892.000000;-0.100347
8891.000000;-0.100239
8890.000000;-0.100062
8889.000000;-0.099880
8888.000000;-0.099719
8887.000000;-0.099539
8886.000000;-0.099319
8885.000000;-0.099128
8884.000000;-0.099073
8883.000000;-0.099169
8882.000000;-0.099301
8881.000000;-0.099338
8880.000000;-0.099254
8879.000000;-0.099133
8878.000000;-0.099084
8877.000000;-0.099158
8876.000000;-0.099323
8875.000000;-0.099470
8874.000000;-0.099499
8873.000000;-0.099402
8872.000000;-0.099262
8871.000000;-0.099158
8870.000000;-0.099085
8869.000000;-0.098988
8868.000000;-0.098859
8867.000000;-0.098758
8866.000000;-0.098755
8865.000000;-0.098847
8864.000000;-0.098960
8863.000000;-0.099002
8862.000000;-0.098932
8861.000000;-0.098789
8860.000000;-0.098637
8859.000000;-0.098508
8858.000000;-0.098396
8857.000000;-0.098316
8856.000000;-0.098323
8855.000000;-0.098424
8854.000000;-0.098529
8853.000000;-0.098515
8852.000000;-0.098370
8851.000000;-0.098209
8850.000000;-0.098148
8849.000000;-0.098195
8848.000000;-0.098272
8847.000000;-0.098319
8846.000000;-0.098328
8845.000000;-0.098315
8844.000000;-0.098292
8843.000000;-0.098284
8842.000000;-0.098316
8841.000000;-0.098372
8840.000000;-0.098394
8839.000000;-0.098330
8838.000000;-0.098194
8837.000000;-0.098042
8836.000000;-0.097928
8835.000000;-0.097877
8834.000000;-0.097885
8833.000000;-0.097916
8832.000000;-0.097909
8831.000000;-0.097829
8830.000000;-0.097714
8829.000000;-0.097641
8828.000000;-0.097639
8827.000000;-0.097662
8826.000000;-0.097646
8825.000000;-0.097572
8824.000000;-0.097461
8823.000000;-0.097336
8822.000000;-0.097210
8821.000000;-0.097098
8820.000000;-0.097015
8819.000000;-0.096962
8818.000000;-0.096923
8817.000000;-0.096866
8816.000000;-0.096749
8815.000000;-0.096542
8814.000000;-0.096273
8813.000000;-0.096029
8812.000000;-0.095910
8811.000000;-0.095954
8810.000000;-0.096121
8809.000000;-0.096322
8808.000000;-0.096471
8807.000000;-0.096511
8806.000000;-0.096437
8805.000000;-0.096282
8804.000000;-0.096086
8803.000000;-0.095894
8802.000000;-0.095785
8801.000000;-0.095834
8800.000000;-0.096024
8799.000000;-0.096220
8798.000000;-0.096287
8797.000000;-0.096232
8796.000000;-0.096166
8795.000000;-0.096153
8794.000000;-0.096134
8793.000000;-0.096026
8792.000000;-0.095845
8791.000000;-0.095679
8790.000000;-0.095594
8789.000000;-0.095573
8788.000000;-0.095547
8787.000000;-0.095459
8786.000000;-0.095299
8785.000000;-0.095115
8784.000000;-0.094984
8783.000000;-0.094951
8782.000000;-0.094979
8781.000000;-0.094976
8780.000000;-0.094877
8779.000000;-0.094711
8778.000000;-0.094568
8777.000000;-0.094515
8776.000000;-0.094533
8775.000000;-0.094548
8774.000000;-0.094517
8773.000000;-0.094444
8772.000000;-0.094341
8771.000000;-0.094200
8770.000000;-0.094030
8769.000000;-0.093875
8768.000000;-0.093759
8767.000000;-0.093638
8766.000000;-0.093454
8765.000000;-0.093239
8764.000000;-0.093091
8763.000000;-0.093066
8762.000000;-0.093129
8761.000000;-0.093219
8760.000000;-0.093307
8759.000000;-0.093354
8758.000000;-0.093291
8757.000000;-0.093097
8756.000000;-0.092861
8755.000000;-0.092699
8754.000000;-0.092619
8753.000000;-0.092536
8752.000000;-0.092401
8751.000000;-0.092269
8750.000000;-0.092216
8749.000000;-0.092237
8748.000000;-0.092262
8747.000000;-0.092232
8746.000000;-0.092131
8745.000000;-0.091983
8744.000000;-0.091844
8743.000000;-0.091768
8742.000000;-0.091748
8741.000000;-0.091707
8740.000000;-0.091578
8739.000000;-0.091396
8738.000000;-0.091255
8737.000000;-0.091187
8736.000000;-0.091129
8735.000000;-0.091033
8734.000000;-0.090943
8733.000000;-0.090935
8732.000000;-0.090999
8731.000000;-0.091058
8730.000000;-0.091064
8729.000000;-0.091033
8728.000000;-0.090985
8727.000000;-0.090917
8726.000000;-0.090840
8725.000000;-0.090790
8724.000000;-0.090772
8723.000000;-0.090730
8722.000000;-0.090616
8721.000000;-0.090462
8720.000000;-0.090341
8719.000000;-0.090273
8718.000000;-0.090216
8717.000000;-0.090133
8716.000000;-0.090051
8715.000000;-0.090026
8714.000000;-0.090088
8713.000000;-0.090227
8712.000000;-0.090395
8711.000000;-0.090531
8710.000000;-0.090592
8709.000000;-0.090594
8708.000000;-0.090598
8707.000000;-0.090636
8706.000000;-0.090669
8705.000000;-0.090631
8704.000000;-0.090514
8703.000000;-0.090399
8702.000000;-0.090381
8701.000000;-0.090474
8700.000000;-0.090580
8699.000000;-0.090580
8698.000000;-0.090452
8697.000000;-0.090303
8696.000000;-0.090276
8695.000000;-0.090403
8694.000000;-0.090589
8693.000000;-0.090717
8692.000000;-0.090760
8691.000000;-0.090778
8690.000000;-0.090815
8689.000000;-0.090833
8688.000000;-0.090769
8687.000000;-0.090636
8686.000000;-0.090547
8685.000000;-0.090609
8684.000000;-0.090816
8683.000000;-0.091047
8682.000000;-0.091195
8681.000000;-0.091262
8680.000000;-0.091328
8679.000000;-0.091441
8678.000000;-0.091553
8677.000000;-0.091597
8676.000000;-0.091583
8675.000000;-0.091600
8674.000000;-0.091729
8673.000000;-0.091946
8672.000000;-0.092152
8671.000000;-0.092277
8670.000000;-0.092336
8669.000000;-0.092375
8668.000000;-0.092408
8667.000000;-0.092423
8666.000000;-0.092445
8665.000000;-0.092532
8664.000000;-0.092685
8663.000000;-0.092826
8662.000000;-0.092882
8661.000000;-0.092892
8660.000000;-0.092975
8659.000000;-0.093215
8658.000000;-0.093588
8657.000000;-0.093997
8656.000000;-0.094333
8655.000000;-0.094530
8654.000000;-0.094584
8653.000000;-0.094566
8652.000000;-0.094578
8651.000000;-0.094690
8650.000000;-0.094895
8649.000000;-0.095137
8648.000000;-0.095355
8647.000000;-0.095515
8646.000000;-0.095624
8645.000000;-0.095721
8644.000000;-0.095851
8643.000000;-0.096036
8642.000000;-0.096256
8641.000000;-0.096477
8640.000000;-0.096678
8639.000000;-0.096884
8638.000000;-0.097136
8637.000000;-0.097441
8636.000000;-0.097756
8635.000000;-0.098031
8634.000000;-0.098260
8633.000000;-0.098460
8632.000000;-0.098625
8631.000000;-0.098733
8630.000000;-0.098817
8629.000000;-0.098961
8628.000000;-0.099213
8627.000000;-0.099513
8626.000000;-0.099768
8625.000000;-0.099943
8624.000000;-0.100075
8623.000000;-0.100204
8622.000000;-0.100347
8621.000000;-0.100527
8620.000000;-0.100761
8619.000000;-0.101047
8618.000000;-0.101366
8617.000000;-0.101716
8616.000000;-0.102086
8615.000000;-0.102435
8614.000000;-0.102717
8613.000000;-0.102943
8612.000000;-0.103160
8611.000000;-0.103373
8610.000000;-0.103543
8609.000000;-0.103662
8608.000000;-0.103791
8607.000000;-0.103983
8606.000000;-0.104218
8605.000000;-0.104448
8604.000000;-0.104670
8603.000000;-0.104929
8602.000000;-0.105237
8601.000000;-0.105541
8600.000000;-0.105779
8599.000000;-0.105953
8598.000000;-0.106124
8597.000000;-0.106347
8596.000000;-0.106609
8595.000000;-0.106862
8594.000000;-0.107094
8593.000000;-0.107346
8592.000000;-0.107647
8591.000000;-0.107955
8590.000000;-0.108218
8589.000000;-0.108431
8588.000000;-0.108622
8587.000000;-0.108784
8586.000000;-0.108906
8585.000000;-0.109051
8584.000000;-0.109318
8583.000000;-0.109723
8582.000000;-0.110171
8581.000000;-0.110570
8580.000000;-0.110921
8579.000000;-0.111255
8578.000000;-0.111548
8577.000000;-0.111752
8576.000000;-0.111885
8575.000000;-0.112024
8574.000000;-0.112225
8573.000000;-0.112490
8572.000000;-0.112784
8571.000000;-0.113069
8570.000000;-0.113333
8569.000000;-0.113607
8568.000000;-0.113941
8567.000000;-0.114343
8566.000000;-0.114744
8565.000000;-0.115063
8564.000000;-0.115295
8563.000000;-0.115490
8562.000000;-0.115685
8561.000000;-0.115893
8560.000000;-0.116142
8559.000000;-0.116467
8558.000000;-0.116845
8557.000000;-0.117193
8556.000000;-0.117447
8555.000000;-0.117633
8554.000000;-0.117835
8553.000000;-0.118115
8552.000000;-0.118468
8551.000000;-0.118826
8550.000000;-0.119108
8549.000000;-0.119284
8548.000000;-0.119403
8547.000000;-0.119543
8546.000000;-0.119733
8545.000000;-0.119947
8544.000000;-0.120161
8543.000000;-0.120398
8542.000000;-0.120706
8541.000000;-0.121090
8540.000000;-0.121501
8539.000000;-0.121873
8538.000000;-0.122178
8537.000000;-0.122451
8536.000000;-0.122746
8535.000000;-0.123083
8534.000000;-0.123420
8533.000000;-0.123707
8532.000000;-0.123937
8531.000000;-0.124142
8530.000000;-0.124358
8529.000000;-0.124603
8528.000000;-0.124875
8527.000000;-0.125155
8526.000000;-0.125409
8525.000000;-0.125620
8524.000000;-0.125829
8523.000000;-0.126096
8522.000000;-0.126437
8521.000000;-0.126810
8520.000000;-0.127164
8519.000000;-0.127482
8518.000000;-0.127770
8517.000000;-0.128029
8516.000000;-0.128274
8515.000000;-0.128539
8514.000000;-0.128846
8513.000000;-0.129175
8512.000000;-0.129479
8511.000000;-0.129719
8510.000000;-0.129882
8509.000000;-0.129985
8508.000000;-0.130069
8507.000000;-0.130188
8506.000000;-0.130373
8505.000000;-0.130630
8504.000000;-0.130964
8503.000000;-0.131378
8502.000000;-0.131838
8501.000000;-0.132272
8500.000000;-0.132612
8499.000000;-0.132850
8498.000000;-0.133019
8497.000000;-0.133154
8496.000000;-0.133289
8495.000000;-0.133475
8494.000000;-0.133749
8493.000000;-0.134071
8492.000000;-0.134356
8491.000000;-0.134565
8490.000000;-0.134761
8489.000000;-0.135041
8488.000000;-0.135430
8487.000000;-0.135862
8486.000000;-0.136242
8485.000000;-0.136509
8484.000000;-0.136665
8483.000000;-0.136777
8482.000000;-0.136950
8481.000000;-0.137246
8480.000000;-0.137629
8479.000000;-0.137986
8478.000000;-0.138231
8477.000000;-0.138379
8476.000000;-0.138513
8475.000000;-0.138705
8474.000000;-0.138974
8473.000000;-0.139291
8472.000000;-0.139600
8471.000000;-0.139835
8470.000000;-0.139967
8469.000000;-0.140051
8468.000000;-0.140187
8467.000000;-0.140427
8466.000000;-0.140733
8465.000000;-0.141026
8464.000000;-0.141278
8463.000000;-0.141516
8462.000000;-0.141769
8461.000000;-0.142048
8460.000000;-0.142368
8459.000000;-0.142745
8458.000000;-0.143147
8457.000000;-0.143492
8456.000000;-0.143711
8455.000000;-0.143821
8454.000000;-0.143904
8453.000000;-0.144025
8452.000000;-0.144198
8451.000000;-0.144413
8450.000000;-0.144665
8449.000000;-0.144952
8448.000000;-0.145256
8447.000000;-0.145548
8446.000000;-0.145801
8445.000000;-0.146002
8444.000000;-0.146155
8443.000000;-0.146293
8442.000000;-0.146461
8441.000000;-0.146683
8440.000000;-0.146952
8439.000000;-0.147239
8438.000000;-0.147515
8437.000000;-0.147765
8436.000000;-0.147996
8435.000000;-0.148231
8434.000000;-0.148488
8433.000000;-0.148754
8432.000000;-0.148995
8431.000000;-0.149208
8430.000000;-0.149427
8429.000000;-0.149667
8428.000000;-0.149902
8427.000000;-0.150099
8426.000000;-0.150277
8425.000000;-0.150480
8424.000000;-0.150716
8423.000000;-0.150957
8422.000000;-0.151182
8421.000000;-0.151395
8420.000000;-0.151590
8419.000000;-0.151742
8418.000000;-0.151859
8417.000000;-0.151996
8416.000000;-0.152204
8415.000000;-0.152475
8414.000000;-0.152761
8413.000000;-0.153026
8412.000000;-0.153257
8411.000000;-0.153439
8410.000000;-0.153575
8409.000000;-0.153710
8408.000000;-0.153905
8407.000000;-0.154169
8406.000000;-0.154443
8405.000000;-0.154669
8404.000000;-0.154845
8403.000000;-0.155008
8402.000000;-0.155194
8401.000000;-0.155422
8400.000000;-0.155702
8399.000000;-0.156033
8398.000000;-0.156367
8397.000000;-0.156618
8396.000000;-0.156725
8395.000000;-0.156722
8394.000000;-0.156726
8393.000000;-0.156849
8392.000000;-0.157109
8391.000000;-0.157437
8390.000000;-0.157764
8389.000000;-0.158064
8388.000000;-0.158340
8387.000000;-0.158590
8386.000000;-0.158812
8385.000000;-0.159019
8384.000000;-0.159211
8383.000000;-0.159362
8382.000000;-0.159470
8381.000000;-0.159586
8380.000000;-0.159780
8379.000000;-0.160049
8378.000000;-0.160328
8377.000000;-0.160563
8376.000000;-0.160758
8375.000000;-0.160929
8374.000000;-0.161076
8373.000000;-0.161212
8372.000000;-0.161377
8371.000000;-0.161584
8370.000000;-0.161788
8369.000000;-0.161935
8368.000000;-0.162039
8367.000000;-0.162159
8366.000000;-0.162306
8365.000000;-0.162448
8364.000000;-0.162582
8363.000000;-0.162761
8362.000000;-0.163028
8361.000000;-0.163355
8360.000000;-0.163673
8359.000000;-0.163949
8358.000000;-0.164181
8357.000000;-0.164368
8356.000000;-0.164500
8355.000000;-0.164591
8354.000000;-0.164679
8353.000000;-0.164794
8352.000000;-0.164953
8351.000000;-0.165182
8350.000000;-0.165498
8349.000000;-0.165863
8348.000000;-0.166188
8347.000000;-0.166404
8346.000000;-0.166524
8345.000000;-0.166614
8344.000000;-0.166723
8343.000000;-0.166866
8342.000000;-0.167042
8341.000000;-0.167234
8340.000000;-0.167415
8339.000000;-0.167580
8338.000000;-0.167768
8337.000000;-0.168010
8336.000000;-0.168257
8335.000000;-0.168427
8334.000000;-0.168519
8333.000000;-0.168630
8332.000000;-0.168831
8331.000000;-0.169063
8330.000000;-0.169218
8329.000000;-0.169282
8328.000000;-0.169352
8327.000000;-0.169518
8326.000000;-0.169780
8325.000000;-0.170084
8324.000000;-0.170381
8323.000000;-0.170636
8322.000000;-0.170829
8321.000000;-0.170975
8320.000000;-0.171121
8319.000000;-0.171297
8318.000000;-0.171490
8317.000000;-0.171668
8316.000000;-0.171816
8315.000000;-0.171935
8314.000000;-0.172035
8313.000000;-0.172135
8312.000000;-0.172258
8311.000000;-0.172412
8310.000000;-0.172591
8309.000000;-0.172796
8308.000000;-0.173036
8307.000000;-0.173289
8306.000000;-0.173497
8305.000000;-0.173621
8304.000000;-0.173693
8303.000000;-0.173780
8302.000000;-0.173912
8301.000000;-0.174077
8300.000000;-0.174256
8299.000000;-0.174438
8298.000000;-0.174598
8297.000000;-0.174719
8296.000000;-0.174846
8295.000000;-0.175072
8294.000000;-0.175430
8293.000000;-0.175820
8292.000000;-0.176086
8291.000000;-0.176151
8290.000000;-0.176082
8289.000000;-0.176008
8288.000000;-0.176021
8287.000000;-0.176145
8286.000000;-0.176360
8285.000000;-0.176628
8284.000000;-0.176889
8283.000000;-0.177088
8282.000000;-0.177207
8281.000000;-0.177277
8280.000000;-0.177348
8279.000000;-0.177450
8278.000000;-0.177578
8277.000000;-0.177707
8276.000000;-0.177811
8275.000000;-0.177891
8274.000000;-0.177978
8273.000000;-0.178120
8272.000000;-0.178333
8271.000000;-0.178582
8270.000000;-0.178809
8269.000000;-0.178973
8268.000000;-0.179072
8267.000000;-0.179133
8266.000000;-0.179201
8265.000000;-0.179299
8264.000000;-0.179408
8263.000000;-0.179480
8262.000000;-0.179511
8261.000000;-0.179571
8260.000000;-0.179729
8259.000000;-0.179969
8258.000000;-0.180210
8257.000000;-0.180400
8256.000000;-0.180548
8255.000000;-0.180671
8254.000000;-0.180769
8253.000000;-0.180867
8252.000000;-0.181016
8251.000000;-0.181220
8250.000000;-0.181386
8249.000000;-0.181417
8248.000000;-0.181333
8247.000000;-0.181261
8246.000000;-0.181295
8245.000000;-0.181429
8244.000000;-0.181595
8243.000000;-0.181747
8242.000000;-0.181876
8241.000000;-0.181988
8240.000000;-0.182076
8239.000000;-0.182125
8238.000000;-0.182129
8237.000000;-0.182121
8236.000000;-0.182169
8235.000000;-0.182322
8234.000000;-0.182559
8233.000000;-0.182797
8232.000000;-0.182977
8231.000000;-0.183105
8230.000000;-0.183223
8229.000000;-0.183337
8228.000000;-0.183408
8227.000000;-0.183409
8226.000000;-0.183369
8225.000000;-0.183355
8224.000000;-0.183396
8223.000000;-0.183463
8222.000000;-0.183518
8221.000000;-0.183572
8220.000000;-0.183665
8219.000000;-0.183790
8218.000000;-0.183880
8217.000000;-0.183884
8216.000000;-0.183841
8215.000000;-0.183848
8214.000000;-0.183959
8213.000000;-0.184146
8212.000000;-0.184336
8211.000000;-0.184482
8210.000000;-0.184584
8209.000000;-0.184674
8208.000000;-0.184782
8207.000000;-0.184906
8206.000000;-0.185017
8205.000000;-0.185090
8204.000000;-0.185134
8203.000000;-0.185177
8202.000000;-0.185233
8201.000000;-0.185295
8200.000000;-0.185350
8199.000000;-0.185391
8198.000000;-0.185422
8197.000000;-0.185462
8196.000000;-0.185541
8195.000000;-0.185665
8194.000000;-0.185793
8193.000000;-0.185872
8192.000000;-0.185896
8191.000000;-0.185904
8190.000000;-0.185928
8189.000000;-0.185960
8188.000000;-0.185978
8187.000000;-0.185986
8186.000000;-0.186010
8185.000000;-0.186068
8184.000000;-0.186150
8183.000000;-0.186219
8182.000000;-0.186247
8181.000000;-0.186253
8180.000000;-0.186302
8179.000000;-0.186436
8178.000000;-0.186613
8177.000000;-0.186734
8176.000000;-0.186754
8175.000000;-0.186729
8174.000000;-0.186756
8173.000000;-0.186868
8172.000000;-0.187023
8171.000000;-0.187146
8170.000000;-0.187190
8169.000000;-0.187147
8168.000000;-0.187058
8167.000000;-0.186990
8166.000000;-0.186989
8165.000000;-0.187055
8164.000000;-0.187154
8163.000000;-0.187254
8162.000000;-0.187344
8161.000000;-0.187417
8160.000000;-0.187463
8159.000000;-0.187479
8158.000000;-0.187468
8157.000000;-0.187454
8156.000000;-0.187467
8155.000000;-0.187523
8154.000000;-0.187588
8153.000000;-0.187593
8152.000000;-0.187511
8151.000000;-0.187414
8150.000000;-0.187415
8149.000000;-0.187555
8148.000000;-0.187755
8147.000000;-0.187899
8146.000000;-0.187944
8145.000000;-0.187938
8144.000000;-0.187933
8143.000000;-0.187928
8142.000000;-0.187895
8141.000000;-0.187841
8140.000000;-0.187816
8139.000000;-0.187849
8138.000000;-0.187910
8137.000000;-0.187936
8136.000000;-0.187907
8135.000000;-0.187867
8134.000000;-0.187868
8133.000000;-0.187921
8132.000000;-0.187985
8131.000000;-0.188017
8130.000000;-0.188003
8129.000000;-0.187954
8128.000000;-0.187893
8127.000000;-0.187850
8126.000000;-0.187848
8125.000000;-0.187887
8124.000000;-0.187939
8123.000000;-0.187973
8122.000000;-0.187983
8121.000000;-0.187986
8120.000000;-0.188000
8119.000000;-0.188020
8118.000000;-0.188022
8117.000000;-0.187997
8116.000000;-0.187968
8115.000000;-0.187959
8114.000000;-0.187973
8113.000000;-0.187996
8112.000000;-0.188028
8111.000000;-0.188076
8110.000000;-0.188133
8109.000000;-0.188179
8108.000000;-0.188215
8107.000000;-0.188259
8106.000000;-0.188304
8105.000000;-0.188303
8104.000000;-0.188220
8103.000000;-0.188088
8102.000000;-0.187986
8101.000000;-0.187969
8100.000000;-0.188028
8099.000000;-0.188107
8098.000000;-0.188140
8097.000000;-0.188077
8096.000000;-0.187924
8095.000000;-0.187761
8094.000000;-0.187686
8093.000000;-0.187732
8092.000000;-0.187835
8091.000000;-0.187909
8090.000000;-0.187927
8089.000000;-0.187925
8088.000000;-0.187934
8087.000000;-0.187933
8086.000000;-0.187891
8085.000000;-0.187826
8084.000000;-0.187811
8083.000000;-0.187893
8082.000000;-0.188027
8081.000000;-0.188103
8080.000000;-0.188041
8079.000000;-0.187871
8078.000000;-0.187696
8077.000000;-0.187600
8076.000000;-0.187594
8075.000000;-0.187638
8074.000000;-0.187685
8073.000000;-0.187698
8072.000000;-0.187658
8071.000000;-0.187584
8070.000000;-0.187524
8069.000000;-0.187507
8068.000000;-0.187524
8067.000000;-0.187547
8066.000000;-0.187571
8065.000000;-0.187593
8064.000000;-0.187594
8063.000000;-0.187553
8062.000000;-0.187483
8061.000000;-0.187430
8060.000000;-0.187415
8059.000000;-0.187413
8058.000000;-0.187377
8057.000000;-0.187293
8056.000000;-0.187191
8055.000000;-0.187116
8054.000000;-0.187086
8053.000000;-0.187078
8052.000000;-0.187060
8051.000000;-0.187028
8050.000000;-0.187001
8049.000000;-0.186985
8048.000000;-0.186953
8047.000000;-0.186887
8046.000000;-0.186816
8045.000000;-0.186794
8044.000000;-0.186819
8043.000000;-0.186838
8042.000000;-0.186808
8041.000000;-0.186741
8040.000000;-0.186669
8039.000000;-0.186598
8038.000000;-0.186532
8037.000000;-0.186495
8036.000000;-0.186508
8035.000000;-0.186551
8034.000000;-0.186583
8033.000000;-0.186590
8032.000000;-0.186594
8031.000000;-0.186612
8030.000000;-0.186633
8029.000000;-0.186631
8028.000000;-0.186588
8027.000000;-0.186495
8026.000000;-0.186350
8025.000000;-0.186173
8024.000000;-0.186006
8023.000000;-0.185886
8022.000000;-0.185826
8021.000000;-0.185816
8020.000000;-0.185836
8019.000000;-0.185859
8018.000000;-0.185864
8017.000000;-0.185852
8016.000000;-0.185825
8015.000000;-0.185766
8014.000000;-0.185652
8013.000000;-0.185490
8012.000000;-0.185339
8011.000000;-0.185250
8010.000000;-0.185216
8009.000000;-0.185190
8008.000000;-0.185148
8007.000000;-0.185108
8006.000000;-0.185100
8005.000000;-0.185120
8004.000000;-0.185140
8003.000000;-0.185137
8002.000000;-0.185109
8001.000000;-0.185066
8000.000000;-0.185019
7999.000000;-0.184976
7998.000000;-0.184929
7997.000000;-0.184859
7996.000000;-0.184753
7995.000000;-0.184627
7994.000000;-0.184517
7993.000000;-0.184454
7992.000000;-0.184443
7991.000000;-0.184470
7990.000000;-0.184510
7989.000000;-0.184525
7988.000000;-0.184480
7987.000000;-0.184382
7986.000000;-0.184273
7985.000000;-0.184194
7984.000000;-0.184138
7983.000000;-0.184074
7982.000000;-0.183997
7981.000000;-0.183932
7980.000000;-0.183886
7979.000000;-0.183834
7978.000000;-0.183758
7977.000000;-0.183677
7976.000000;-0.183628
7975.000000;-0.183612
7974.000000;-0.183607
7973.000000;-0.183592
7972.000000;-0.183568
7971.000000;-0.183538
7970.000000;-0.183497
7969.000000;-0.183435
7968.000000;-0.183350
7967.000000;-0.183250
7966.000000;-0.183152
7965.000000;-0.183077
7964.000000;-0.183025
7963.000000;-0.182968
7962.000000;-0.182874
7961.000000;-0.182735
7960.000000;-0.182569
7959.000000;-0.182410
7958.000000;-0.182293
7957.000000;-0.182246
7956.000000;-0.182261
7955.000000;-0.182288
7954.000000;-0.182279
7953.000000;-0.182235
7952.000000;-0.182195
7951.000000;-0.182170
7950.000000;-0.182125
7949.000000;-0.182028
7948.000000;-0.181896
7947.000000;-0.181791
7946.000000;-0.181758
7945.000000;-0.181784
7944.000000;-0.181810
7943.000000;-0.181770
7942.000000;-0.181638
7941.000000;-0.181440
7940.000000;-0.181237
7939.000000;-0.181075
7938.000000;-0.180977
7937.000000;-0.180942
7936.000000;-0.180959
7935.000000;-0.180990
7934.000000;-0.180986
7933.000000;-0.180912
7932.000000;-0.180788
7931.000000;-0.180675
7930.000000;-0.180619
7929.000000;-0.180612
7928.000000;-0.180597
7927.000000;-0.180528
7926.000000;-0.180408
7925.000000;-0.180276
7924.000000;-0.180152
7923.000000;-0.180019
7922.000000;-0.179858
7921.000000;-0.179682
7920.000000;-0.179532
7919.000000;-0.179434
7918.000000;-0.179392
7917.000000;-0.179400
7916.000000;-0.179446
7915.000000;-0.179498
7914.000000;-0.179513
7913.000000;-0.179471
7912.000000;-0.179384
7911.000000;-0.179278
7910.000000;-0.179173
7909.000000;-0.179078
7908.000000;-0.178990
7907.000000;-0.178889
7906.000000;-0.178753
7905.000000;-0.178585
7904.000000;-0.178422
7903.000000;-0.178307
7902.000000;-0.178263
7901.000000;-0.178280
7900.000000;-0.178322
7899.000000;-0.178334
7898.000000;-0.178281
7897.000000;-0.178179
7896.000000;-0.178069
7895.000000;-0.177969
7894.000000;-0.177864
7893.000000;-0.177746
7892.000000;-0.177624
7891.000000;-0.177495
7890.000000;-0.177344
7889.000000;-0.177184
7888.000000;-0.177077
7887.000000;-0.177063
7886.000000;-0.177105
7885.000000;-0.177123
7884.000000;-0.177074
7883.000000;-0.176967
7882.000000;-0.176818
7881.000000;-0.176636
7880.000000;-0.176456
7879.000000;-0.176335
7878.000000;-0.176300
7877.000000;-0.176316
7876.000000;-0.176315
7875.000000;-0.176256
7874.000000;-0.176145
7873.000000;-0.176017
7872.000000;-0.175910
7871.000000;-0.175832
7870.000000;-0.175754
7869.000000;-0.175631
7868.000000;-0.175449
7867.000000;-0.175251
7866.000000;-0.175095
7865.000000;-0.174996
7864.000000;-0.174918
7863.000000;-0.174811
7862.000000;-0.174666
7861.000000;-0.174517
7860.000000;-0.174405
7859.000000;-0.174325
7858.000000;-0.174235
7857.000000;-0.174100
7856.000000;-0.173931
7855.000000;-0.173775
7854.000000;-0.173659
7853.000000;-0.173575
7852.000000;-0.173512
7851.000000;-0.173472
7850.000000;-0.173453
7849.000000;-0.173418
7848.000000;-0.173317
7847.000000;-0.173139
7846.000000;-0.172928
7845.000000;-0.172748
7844.000000;-0.172636
7843.000000;-0.172577
7842.000000;-0.172526
7841.000000;-0.172445
7840.000000;-0.172335
7839.000000;-0.172227
7838.000000;-0.172143
7837.000000;-0.172061
7836.000000;-0.171943
7835.000000;-0.171783
7834.000000;-0.171622
7833.000000;-0.171489
7832.000000;-0.171365
7831.000000;-0.171217
7830.000000;-0.171061
7829.000000;-0.170955
7828.000000;-0.170923
7827.000000;-0.170912
7826.000000;-0.170840
7825.000000;-0.170678
7824.000000;-0.170468
7823.000000;-0.170262
7822.000000;-0.170085
7821.000000;-0.169941
7820.000000;-0.169838
7819.000000;-0.169768
7818.000000;-0.169694
7817.000000;-0.169578
7816.000000;-0.169426
7815.000000;-0.169288
7814.000000;-0.169200
7813.000000;-0.169138
7812.000000;-0.169046
7811.000000;-0.168911
7810.000000;-0.168771
7809.000000;-0.168660
7808.000000;-0.168564
7807.000000;-0.168449
7806.000000;-0.168307
7805.000000;-0.168156
7804.000000;-0.168004
7803.000000;-0.167857
7802.000000;-0.167734
7801.000000;-0.167655
7800.000000;-0.167599
7799.000000;-0.167503
7798.000000;-0.167329
7797.000000;-0.167110
7796.000000;-0.166909
7795.000000;-0.166756
7794.000000;-0.166627
7793.000000;-0.166489
7792.000000;-0.166330
7791.000000;-0.166165
7790.000000;-0.166021
7789.000000;-0.165915
7788.000000;-0.165829
7787.000000;-0.165725
7786.000000;-0.165578
7785.000000;-0.165411
7784.000000;-0.165260
7783.000000;-0.165131
7782.000000;-0.164999
7781.000000;-0.164848
7780.000000;-0.164689
7779.000000;-0.164540
7778.000000;-0.164398
7777.000000;-0.164251
7776.000000;-0.164103
7775.000000;-0.163975
7774.000000;-0.163878
7773.000000;-0.163791
7772.000000;-0.163677
7771.000000;-0.163521
7770.000000;-0.163355
7769.000000;-0.163221
7768.000000;-0.163112
7767.000000;-0.162971
7766.000000;-0.162766
7765.000000;-0.162543
7764.000000;-0.162383
7763.000000;-0.162298
7762.000000;-0.162213
7761.000000;-0.162042
7760.000000;-0.161782
7759.000000;-0.161505
7758.000000;-0.161290
7757.000000;-0.161149
7756.000000;-0.161023
7755.000000;-0.160839
7754.000000;-0.160590
7753.000000;-0.160352
7752.000000;-0.160197
7751.000000;-0.160116
7750.000000;-0.160028
7749.000000;-0.159866
7748.000000;-0.159635
7747.000000;-0.159379
7746.000000;-0.159138
7745.000000;-0.158950
7744.000000;-0.158846
7743.000000;-0.158818
7742.000000;-0.158804
7741.000000;-0.158734
7740.000000;-0.158599
7739.000000;-0.158445
7738.000000;-0.158315
7737.000000;-0.158203
7736.000000;-0.158080
7735.000000;-0.157927
7734.000000;-0.157738
7733.000000;-0.157512
7732.000000;-0.157253
7731.000000;-0.156984
7730.000000;-0.156746
7729.000000;-0.156566
7728.000000;-0.156434
7727.000000;-0.156306
7726.000000;-0.156133
7725.000000;-0.155906
7724.000000;-0.155664
7723.000000;-0.155465
7722.000000;-0.155331
7721.000000;-0.155230
7720.000000;-0.155100
7719.000000;-0.154916
7718.000000;-0.154697
7717.000000;-0.154474
7716.000000;-0.154254
7715.000000;-0.154036
7714.000000;-0.153843
7713.000000;-0.153708
7712.000000;-0.153625
7711.000000;-0.153541
7710.000000;-0.153405
7709.000000;-0.153219
7708.000000;-0.153013
7707.000000;-0.152806
7706.000000;-0.152591
7705.000000;-0.152358
7704.000000;-0.152104
7703.000000;-0.151842
7702.000000;-0.151603
7701.000000;-0.151419
7700.000000;-0.151280
7699.000000;-0.151131
7698.000000;-0.150925
7697.000000;-0.150683
7696.000000;-0.150461
7695.000000;-0.150288
7694.000000;-0.150137
7693.000000;-0.149972
7692.000000;-0.149772
7691.000000;-0.149536
7690.000000;-0.149281
7689.000000;-0.149054
7688.000000;-0.148886
7687.000000;-0.148750
7686.000000;-0.148580
7685.000000;-0.148341
7684.000000;-0.148070
7683.000000;-0.147819
7682.000000;-0.147597
7681.000000;-0.147371
7680.000000;-0.147121
7679.000000;-0.146861
7678.000000;-0.146618
7677.000000;-0.146396
7676.000000;-0.146185
7675.000000;-0.145970
7674.000000;-0.145753
7673.000000;-0.145540
7672.000000;-0.145330
7671.000000;-0.145116
7670.000000;-0.144897
7669.000000;-0.144669
7668.000000;-0.144418
7667.000000;-0.144134
7666.000000;-0.143840
7665.000000;-0.143593
7664.000000;-0.143421
7663.000000;-0.143295
7662.000000;-0.143167
7661.000000;-0.143019
7660.000000;-0.142856
7659.000000;-0.142664
7658.000000;-0.142429
7657.000000;-0.142169
7656.000000;-0.141921
7655.000000;-0.141685
7654.000000;-0.141433
7653.000000;-0.141167
7652.000000;-0.140923
7651.000000;-0.140716
7650.000000;-0.140509
7649.000000;-0.140265
7648.000000;-0.139989
7647.000000;-0.139704
7646.000000;-0.139410
7645.000000;-0.139102
7644.000000;-0.138792
7643.000000;-0.138500
7642.000000;-0.138226
7641.000000;-0.137959
7640.000000;-0.137700
7639.000000;-0.137459
7638.000000;-0.137237
7637.000000;-0.137015
7636.000000;-0.136776
7635.000000;-0.136524
7634.000000;-0.136279
7633.000000;-0.136053
7632.000000;-0.135824
7631.000000;-0.135552
7630.000000;-0.135225
7629.000000;-0.134879
7628.000000;-0.134556
7627.000000;-0.134255
7626.000000;-0.133946
7625.000000;-0.133629
7624.000000;-0.133343
7623.000000;-0.133112
7622.000000;-0.132912
7621.000000;-0.132698
7620.000000;-0.132441
7619.000000;-0.132135
7618.000000;-0.131798
7617.000000;-0.131464
7616.000000;-0.131159
7615.000000;-0.130878
7614.000000;-0.130587
7613.000000;-0.130271
7612.000000;-0.129941
7611.000000;-0.129604
7610.000000;-0.129260
7609.000000;-0.128918
7608.000000;-0.128603
7607.000000;-0.128319
7606.000000;-0.128043
7605.000000;-0.127761
7604.000000;-0.127481
7603.000000;-0.127209
7602.000000;-0.126929
7601.000000;-0.126633
7600.000000;-0.126329
7599.000000;-0.126022
7598.000000;-0.125699
7597.000000;-0.125354
7596.000000;-0.124998
7595.000000;-0.124638
7594.000000;-0.124274
7593.000000;-0.123926
7592.000000;-0.123621
7591.000000;-0.123355
7590.000000;-0.123076
7589.000000;-0.122739
7588.000000;-0.122363
7587.000000;-0.122003
7586.000000;-0.121686
7585.000000;-0.121405
7584.000000;-0.121140
7583.000000;-0.120867
7582.000000;-0.120558
7581.000000;-0.120190
7580.000000;-0.119771
7579.000000;-0.119337
7578.000000;-0.118924
7577.000000;-0.118549
7576.000000;-0.118201
7575.000000;-0.117855
7574.000000;-0.117492
7573.000000;-0.117116
7572.000000;-0.116749
7571.000000;-0.116393
7570.000000;-0.116037
7569.000000;-0.115671
7568.000000;-0.115307
7567.000000;-0.114961
7566.000000;-0.114640
7565.000000;-0.114334
7564.000000;-0.114023
7563.000000;-0.113672
7562.000000;-0.113272
7561.000000;-0.112867
7560.000000;-0.112510
7559.000000;-0.112195
7558.000000;-0.111860
7557.000000;-0.111459
7556.000000;-0.111016
7555.000000;-0.110586
7554.000000;-0.110189
7553.000000;-0.109813
7552.000000;-0.109439
7551.000000;-0.109063
7550.000000;-0.108686
7549.000000;-0.108316
7548.000000;-0.107959
7547.000000;-0.107594
7546.000000;-0.107189
7545.000000;-0.106730
7544.000000;-0.106238
7543.000000;-0.105752
7542.000000;-0.105306
7541.000000;-0.104924
7540.000000;-0.104604
7539.000000;-0.104309
7538.000000;-0.103985
7537.000000;-0.103620
7536.000000;-0.103238
7535.000000;-0.102856
7534.000000;-0.102462
7533.000000;-0.102036
7532.000000;-0.101582
7531.000000;-0.101117
7530.000000;-0.100654
7529.000000;-0.100210
7528.000000;-0.099794
7527.000000;-0.099389
7526.000000;-0.098961
7525.000000;-0.098502
7524.000000;-0.098044
7523.000000;-0.097620
7522.000000;-0.097223
7521.000000;-0.096822
7520.000000;-0.096394
7519.000000;-0.095940
7518.000000;-0.095489
7517.000000;-0.095075
7516.000000;-0.094699
7515.000000;-0.094306
7514.000000;-0.093847
7513.000000;-0.093336
7512.000000;-0.092842
7511.000000;-0.092405
7510.000000;-0.091997
7509.000000;-0.091575
7508.000000;-0.091119
7507.000000;-0.090633
7506.000000;-0.090130
7505.000000;-0.089640
7504.000000;-0.089188
7503.000000;-0.088766
7502.000000;-0.088350
7501.000000;-0.087932
7500.000000;-0.087524
7499.000000;-0.087104
7498.000000;-0.086653
7497.000000;-0.086160
7496.000000;-0.085692
7495.000000;-0.085270
7494.000000;-0.084766
7493.000000;-0.084274
7492.000000;-0.083817
7491.000000;-0.083417
7490.000000;-0.083032
7489.000000;-0.082628
7488.000000;-0.082194
7487.000000;-0.081719
7486.000000;-0.081184
7485.000000;-0.080609
7484.000000;-0.080054
7483.000000;-0.079565
7482.000000;-0.079128
7481.000000;-0.078714
7480.000000;-0.078296
7479.000000;-0.077838
7478.000000;-0.077311
7477.000000;-0.076747
7476.000000;-0.076226
7475.000000;-0.075784
7474.000000;-0.075371
7473.000000;-0.074930
7472.000000;-0.074469
7471.000000;-0.074020
7470.000000;-0.073595
7469.000000;-0.073179
7468.000000;-0.072761
7467.000000;-0.072327
7466.000000;-0.071867
7465.000000;-0.071405
7464.000000;-0.070975
7463.000000;-0.070566
7462.000000;-0.070122
7461.000000;-0.069622
7460.000000;-0.069103
7459.000000;-0.068602
7458.000000;-0.068118
7457.000000;-0.067645
7456.000000;-0.067179
7455.000000;-0.066700
7454.000000;-0.066182
7453.000000;-0.065652
7452.000000;-0.065170
7451.000000;-0.064737
7450.000000;-0.064284
7449.000000;-0.063778
7448.000000;-0.063269
7447.000000;-0.062802
7446.000000;-0.062359
7445.000000;-0.061909
7444.000000;-0.061464
7443.000000;-0.061038
7442.000000;-0.060617
7441.000000;-0.060193
7440.000000;-0.059785
7439.000000;-0.059388
7438.000000;-0.058960
7437.000000;-0.058481
7436.000000;-0.057983
7435.000000;-0.057497
7434.000000;-0.057021
7433.000000;-0.056550
7432.000000;-0.056097
7431.000000;-0.055666
7430.000000;-0.055249
7429.000000;-0.054863
7428.000000;-0.054514
7427.000000;-0.054150
7426.000000;-0.053716
7425.000000;-0.053255
7424.000000;-0.052868
7423.000000;-0.052527
7422.000000;-0.052068
7421.000000;-0.051423
7420.000000;-0.050758
7419.000000;-0.050297
7418.000000;-0.050094
7417.000000;-0.050011
7416.000000;-0.049862
7415.000000;-0.049530
7414.000000;-0.049007
7413.000000;-0.048400
7412.000000;-0.047837
7411.000000;-0.047343
7410.000000;-0.046879
7409.000000;-0.046456
7408.000000;-0.046116
7407.000000;-0.045804
7406.000000;-0.045387
7405.000000;-0.044874
7404.000000;-0.044462
7403.000000;-0.044255
7402.000000;-0.044085
7401.000000;-0.043700
7400.000000;-0.043031
7399.000000;-0.042233
7398.000000;-0.041575
7397.000000;-0.041246
7396.000000;-0.041173
7395.000000;-0.041098
7394.000000;-0.040872
7393.000000;-0.040644
7392.000000;-0.040601
7391.000000;-0.040567
7390.000000;-0.040173
7389.000000;-0.039409
7388.000000;-0.038664
7387.000000;-0.038175
7386.000000;-0.037781
7385.000000;-0.037281
7384.000000;-0.036740
7383.000000;-0.036213
7382.000000;-0.035562
7381.000000;-0.034871
7380.000000;-0.034677
7379.000000;-0.035259
7378.000000;-0.035915
7377.000000;-0.035472
7376.000000;-0.033614
7375.000000;-0.031402
7374.000000;-0.030260
7373.000000;-0.030605
7372.000000;-0.031563
7371.000000;-0.031820
7370.000000;-0.030792
7369.000000;-0.029112
7368.000000;-0.027962
7367.000000;-0.027929
7366.000000;-0.028584
7365.000000;-0.029059
7364.000000;-0.028853
7363.000000;-0.028000
7362.000000;-0.026746
7361.000000;-0.025524
7360.000000;-0.025005
7359.000000;-0.025481
7358.000000;-0.026203
7357.000000;-0.025932
7356.000000;-0.024293
7355.000000;-0.022280
7354.000000;-0.021273
7353.000000;-0.021690
7352.000000;-0.022750
7351.000000;-0.023199
7350.000000;-0.022286
7349.000000;-0.020400
7348.000000;-0.018941
7347.000000;-0.019072
7346.000000;-0.020450
7345.000000;-0.021552
7344.000000;-0.021332
7343.000000;-0.020064
7342.000000;-0.018440
7341.000000;-0.016585
7340.000000;-0.014506
7339.000000;-0.012887
7338.000000;-0.012505
7337.000000;-0.013016
7336.000000;-0.013158
7335.000000;-0.012185
7334.000000;-0.010570
7333.000000;-0.009381
7332.000000;-0.009351
7331.000000;-0.010282
7330.000000;-0.011030
7329.000000;-0.010369
7328.000000;-0.008431
7327.000000;-0.006903
7326.000000;-0.007101
7325.000000;-0.008178
7324.000000;-0.008060
7323.000000;-0.006001
7322.000000;-0.003398
7321.000000;-0.001926
7320.000000;-0.001672
7319.000000;-0.001528
7318.000000;-0.000707
7317.000000;0.000590
7316.000000;0.001614
7315.000000;0.001809
7314.000000;0.001480
7313.000000;0.001681
7312.000000;0.002936
7311.000000;0.004339
7310.000000;0.004617
7309.000000;0.004021
7308.000000;0.004271
7307.000000;0.006302
7306.000000;0.008914
7305.000000;0.010244
7304.000000;0.009954
7303.000000;0.009369
7302.000000;0.009835
7301.000000;0.011618
7300.000000;0.013999
7299.000000;0.015721
7298.000000;0.015787
7297.000000;0.014609
7296.000000;0.014125
7295.000000;0.015978
7294.000000;0.019528
7293.000000;0.022384
7292.000000;0.023079
7291.000000;0.022602
7290.000000;0.023062
7289.000000;0.025315
7288.000000;0.028284
7287.000000;0.030312
7286.000000;0.030785
7285.000000;0.030461
7284.000000;0.030521
7283.000000;0.031524
7282.000000;0.033123
7281.000000;0.034661
7280.000000;0.035883
7279.000000;0.036945
7278.000000;0.038028
7277.000000;0.039232
7276.000000;0.040637
7275.000000;0.042295
7274.000000;0.044120
7273.000000;0.045861
7272.000000;0.047288
7271.000000;0.048408
7270.000000;0.049496
7269.000000;0.050902
7268.000000;0.052717
7267.000000;0.054591
7266.000000;0.056095
7265.000000;0.057316
7264.000000;0.058851
7263.000000;0.061073
7262.000000;0.063601
7261.000000;0.065700
7260.000000;0.067120
7259.000000;0.068300
7258.000000;0.069759
7257.000000;0.071606
7256.000000;0.073680
7255.000000;0.075915
7254.000000;0.078325
7253.000000;0.080706
7252.000000;0.082692
7251.000000;0.084136
7250.000000;0.085392
7249.000000;0.087083
7248.000000;0.089351
7247.000000;0.091587
7246.000000;0.093302
7245.000000;0.095034
7244.000000;0.097886
7243.000000;0.101988
7242.000000;0.105869
7241.000000;0.108008
7240.000000;0.108738
7239.000000;0.109939
7238.000000;0.112820
7237.000000;0.116582
7236.000000;0.119587
7235.000000;0.121454
7234.000000;0.123384
7233.000000;0.126469
7232.000000;0.130209
7231.000000;0.132943
7230.000000;0.133893
7229.000000;0.134459
7228.000000;0.136897
7227.000000;0.141894
7226.000000;0.147847
7225.000000;0.152473
7224.000000;0.154936
7223.000000;0.156271
7222.000000;0.158095
7221.000000;0.161251
7220.000000;0.165328
7219.000000;0.169177
7218.000000;0.171993
7217.000000;0.174098
7216.000000;0.176609
7215.000000;0.180252
7214.000000;0.184675
7213.000000;0.189026
7212.000000;0.192925
7211.000000;0.196573
7210.000000;0.200205
7209.000000;0.203878
7208.000000;0.207661
7207.000000;0.211722
7206.000000;0.216168
7205.000000;0.220852
7204.000000;0.225371
7203.000000;0.229312
7202.000000;0.232655
7201.000000;0.235967
7200.000000;0.239976
7199.000000;0.244835
7198.000000;0.249976
7197.000000;0.254826
7196.000000;0.259381
7195.000000;0.263898
7194.000000;0.268341
7193.000000;0.272518
7192.000000;0.276587
7191.000000;0.280984
7190.000000;0.285876
7189.000000;0.291002
7188.000000;0.296047
7187.000000;0.300873
7186.000000;0.305331
7185.000000;0.309322
7184.000000;0.313243
7183.000000;0.317914
7182.000000;0.323699
7181.000000;0.329911
7180.000000;0.335467
7179.000000;0.340185
7178.000000;0.345050
7177.000000;0.351069
7176.000000;0.358075
7175.000000;0.364910
7174.000000;0.370560
7173.000000;0.374979
7172.000000;0.379001
7171.000000;0.383597
7170.000000;0.389192
7169.000000;0.395400
7168.000000;0.401436
7167.000000;0.406823
7166.000000;0.411619
7165.000000;0.416131
7164.000000;0.420752
7163.000000;0.426021
7162.000000;0.432400
7161.000000;0.439597
7160.000000;0.446408
7159.000000;0.451900
7158.000000;0.456619
7157.000000;0.462071
7156.000000;0.468917
7155.000000;0.476270
7154.000000;0.482890
7153.000000;0.488517
7152.000000;0.493812
7151.000000;0.499352
7150.000000;0.505057
7149.000000;0.510558
7148.000000;0.515783
7147.000000;0.521035
7146.000000;0.526698
7145.000000;0.532795
7144.000000;0.538799
7143.000000;0.544119
7142.000000;0.548949
7141.000000;0.554281
7140.000000;0.560745
7139.000000;0.567662
7138.000000;0.573728
7137.000000;0.578668
7136.000000;0.583592
7135.000000;0.589565
7134.000000;0.596353
7133.000000;0.602899
7132.000000;0.608688
7131.000000;0.614114
7130.000000;0.619687
7129.000000;0.625475
7128.000000;0.631288
7127.000000;0.636943
7126.000000;0.642329
7125.000000;0.647496
7124.000000;0.652724
7123.000000;0.658196
7122.000000;0.663547
7121.000000;0.668204
7120.000000;0.672304
7119.000000;0.676838
7118.000000;0.682521
7117.000000;0.688768
7116.000000;0.694305
7115.000000;0.698790
7114.000000;0.703287
7113.000000;0.708918
7112.000000;0.715463
7111.000000;0.721656
7110.000000;0.726679
7109.000000;0.730893
7108.000000;0.735113
7107.000000;0.739677
7106.000000;0.744361
7105.000000;0.748869
7104.000000;0.753191
7103.000000;0.757487
7102.000000;0.761895
7101.000000;0.766511
7100.000000;0.771265
7099.000000;0.775817
7098.000000;0.779901
7097.000000;0.783708
7096.000000;0.787722
7095.000000;0.792115
7094.000000;0.796516
7093.000000;0.800565
7092.000000;0.804462
7091.000000;0.808681
7090.000000;0.813297
7089.000000;0.817883
7088.000000;0.822055
7087.000000;0.825837
7086.000000;0.829449
7085.000000;0.833005
7084.000000;0.836508
7083.000000;0.839984
7082.000000;0.843478
7081.000000;0.846971
7080.000000;0.850349
7079.000000;0.853498
7078.000000;0.856509
7077.000000;0.859696
7076.000000;0.863217
7075.000000;0.866798
7074.000000;0.870008
7073.000000;0.872803
7072.000000;0.875560
7071.000000;0.878492
7070.000000;0.881397
7069.000000;0.884148
7068.000000;0.887032
7067.000000;0.890311
7066.000000;0.893685
7065.000000;0.896582
7064.000000;0.898872
7063.000000;0.900979
7062.000000;0.903327
7061.000000;0.906008
7060.000000;0.908918
7059.000000;0.911913
7058.000000;0.914826
7057.000000;0.917543
7056.000000;0.920064
7055.000000;0.922438
7054.000000;0.924662
7053.000000;0.926702
7052.000000;0.928599
7051.000000;0.930410
7050.000000;0.932141
7049.000000;0.933850
7048.000000;0.935694
7047.000000;0.937719
7046.000000;0.939732
7045.000000;0.941566
7044.000000;0.943379
7043.000000;0.945482
7042.000000;0.947925
7041.000000;0.950400
7040.000000;0.952559
7039.000000;0.954281
7038.000000;0.955707
7037.000000;0.957128
7036.000000;0.958797
7035.000000;0.960744
7034.000000;0.962739
7033.000000;0.964498
7032.000000;0.965901
7031.000000;0.967026
7030.000000;0.968060
7029.000000;0.969225
7028.000000;0.970653
7027.000000;0.972252
7026.000000;0.973796
7025.000000;0.975180
7024.000000;0.976466
7023.000000;0.977663
7022.000000;0.978664
7021.000000;0.979475
7020.000000;0.980330
7019.000000;0.981451
7018.000000;0.982808
7017.000000;0.984187
7016.000000;0.985375
7015.000000;0.986232
7014.000000;0.986789
7013.000000;0.987356
7012.000000;0.988358
7011.000000;0.989914
7010.000000;0.991698
7009.000000;0.993304
7008.000000;0.994550
7007.000000;0.995370
7006.000000;0.995702
7005.000000;0.995699
7004.000000;0.995869
7003.000000;0.996709
7002.000000;0.998209
7001.000000;0.999864
7000.000000;1.001145
6999.000000;1.001893
6998.000000;1.002327
6997.000000;1.002779
6996.000000;1.003397
6995.000000;1.004065
6994.000000;1.004635
6993.000000;1.005188
6992.000000;1.005903
6991.000000;1.006712
6990.000000;1.007340
6989.000000;1.007703
6988.000000;1.008038
6987.000000;1.008538
6986.000000;1.009081
6985.000000;1.009474
6984.000000;1.009754
6983.000000;1.010081
6982.000000;1.010517
6981.000000;1.011042
6980.000000;1.011621
6979.000000;1.012141
6978.000000;1.012425
6977.000000;1.012471
6976.000000;1.012523
6975.000000;1.012781
6974.000000;1.013175
6973.000000;1.013509
6972.000000;1.013666
6971.000000;1.013627
6970.000000;1.013465
6969.000000;1.013414
6968.000000;1.013712
6967.000000;1.014253
6966.000000;1.014603
6965.000000;1.014526
6964.000000;1.014280
6963.000000;1.014204
6962.000000;1.014244
6961.000000;1.014118
6960.000000;1.013753
6959.000000;1.013332
6958.000000;1.013022
6957.000000;1.012894
6956.000000;1.013020
6955.000000;1.013455
6954.000000;1.014134
6953.000000;1.014897
6952.000000;1.015559
6951.000000;1.015924
6950.000000;1.015902
6949.000000;1.015670
6948.000000;1.015549
6947.000000;1.015621
6946.000000;1.015640
6945.000000;1.015409
6944.000000;1.015024
6943.000000;1.014630
6942.000000;1.014200
6941.000000;1.013751
6940.000000;1.013527
6939.000000;1.013716
6938.000000;1.014133
6937.000000;1.014401
6936.000000;1.014334
6935.000000;1.013947
6934.000000;1.013270
6933.000000;1.012398
6932.000000;1.011599
6931.000000;1.011106
6930.000000;1.010856
6929.000000;1.010617
6928.000000;1.010320
6927.000000;1.010091
6926.000000;1.010019
6925.000000;1.010056
6924.000000;1.010076
6923.000000;1.009911
6922.000000;1.009408
6921.000000;1.008651
6920.000000;1.008025
6919.000000;1.007873
6918.000000;1.008109
6917.000000;1.008299
6916.000000;1.008079
6915.000000;1.007409
6914.000000;1.006521
6913.000000;1.005773
6912.000000;1.005445
6911.000000;1.005494
6910.000000;1.005570
6909.000000;1.005391
6908.000000;1.005072
6907.000000;1.004918
6906.000000;1.005007
6905.000000;1.005107
6904.000000;1.004942
6903.000000;1.004400
6902.000000;1.003526
6901.000000;1.002515
6900.000000;1.001666
6899.000000;1.001170
6898.000000;1.000912
6897.000000;1.000598
6896.000000;1.000067
6895.000000;0.999399
6894.000000;0.998776
6893.000000;0.998363
6892.000000;0.998251
6891.000000;0.998344
6890.000000;0.998332
6889.000000;0.997949
6888.000000;0.997292
6887.000000;0.996730
6886.000000;0.996492
6885.000000;0.996484
6884.000000;0.996521
6883.000000;0.996539
6882.000000;0.996499
6881.000000;0.996267
6880.000000;0.995734
6879.000000;0.994986
6878.000000;0.994222
6877.000000;0.993540
6876.000000;0.992876
6875.000000;0.992132
6874.000000;0.991291
6873.000000;0.990388
6872.000000;0.989473
6871.000000;0.988617
6870.000000;0.987910
6869.000000;0.987389
6868.000000;0.986961
6867.000000;0.986455
6866.000000;0.985797
6865.000000;0.985109
6864.000000;0.984579
6863.000000;0.984233
6862.000000;0.983905
6861.000000;0.983421
6860.000000;0.982777
6859.000000;0.982079
6858.000000;0.981387
6857.000000;0.980658
6856.000000;0.979821
6855.000000;0.978888
6854.000000;0.977969
6853.000000;0.977163
6852.000000;0.976447
6851.000000;0.975708
6850.000000;0.974874
6849.000000;0.973950
6848.000000;0.972912
6847.000000;0.971683
6846.000000;0.970303
6845.000000;0.969017
6844.000000;0.968051
6843.000000;0.967355
6842.000000;0.966647
6841.000000;0.965690
6840.000000;0.964467
6839.000000;0.963155
6838.000000;0.962035
6837.000000;0.961315
6836.000000;0.960875
6835.000000;0.960255
6834.000000;0.959092
6833.000000;0.957527
6832.000000;0.955993
6831.000000;0.954671
6830.000000;0.953372
6829.000000;0.951916
6828.000000;0.950389
6827.000000;0.948926
6826.000000;0.947491
6825.000000;0.945974
6824.000000;0.944369
6823.000000;0.942756
6822.000000;0.941206
6821.000000;0.939772
6820.000000;0.938464
6819.000000;0.937149
6818.000000;0.935577
6817.000000;0.933630
6816.000000;0.931487
6815.000000;0.929462
6814.000000;0.927729
6813.000000;0.926196
6812.000000;0.924616
6811.000000;0.922804
6810.000000;0.920790
6809.000000;0.918774
6808.000000;0.916919
6807.000000;0.915211
6806.000000;0.913567
6805.000000;0.911944
6804.000000;0.910265
6803.000000;0.908342
6802.000000;0.906076
6801.000000;0.903683
6800.000000;0.901519
6799.000000;0.899676
6798.000000;0.897900
6797.000000;0.895927
6796.000000;0.893740
6795.000000;0.891458
6794.000000;0.889168
6793.000000;0.886920
6792.000000;0.884762
6791.000000;0.882706
6790.000000;0.880735
6789.000000;0.878862
6788.000000;0.877106
6787.000000;0.875360
6786.000000;0.873398
6785.000000;0.871077
6784.000000;0.868504
6783.000000;0.865973
6782.000000;0.863752
6781.000000;0.861881
6780.000000;0.860111
6779.000000;0.858116
6778.000000;0.855819
6777.000000;0.853441
6776.000000;0.851151
6775.000000;0.848825
6774.000000;0.846284
6773.000000;0.843678
6772.000000;0.841378
6771.000000;0.839515
6770.000000;0.837834
6769.000000;0.835999
6768.000000;0.833850
6767.000000;0.831366
6766.000000;0.828601
6765.000000;0.825746
6764.000000;0.823077
6763.000000;0.820727
6762.000000;0.818606
6761.000000;0.816582
6760.000000;0.814612
6759.000000;0.812683
6758.000000;0.810732
6757.000000;0.808701
6756.000000;0.806571
6755.000000;0.804321
6754.000000;0.801948
6753.000000;0.799519
6752.000000;0.797105
6751.000000;0.794664
6750.000000;0.792130
6749.000000;0.789610
6748.000000;0.787319
6747.000000;0.785295
6746.000000;0.783329
6745.000000;0.781207
6744.000000;0.778862
6743.000000;0.776281
6742.000000;0.773469
6741.000000;0.770585
6740.000000;0.767909
6739.000000;0.765550
6738.000000;0.763325
6737.000000;0.761012
6736.000000;0.758617
6735.000000;0.756297
6734.000000;0.754126
6733.000000;0.752056
6732.000000;0.749994
6731.000000;0.747851
6730.000000;0.745578
6729.000000;0.743257
6728.000000;0.741041
6727.000000;0.738952
6726.000000;0.736818
6725.000000;0.734497
6724.000000;0.732064
6723.000000;0.729706
6722.000000;0.727510
6721.000000;0.725425
6720.000000;0.723354
6719.000000;0.721205
6718.000000;0.718924
6717.000000;0.716553
6716.000000;0.714219
6715.000000;0.712000
6714.000000;0.709852
6713.000000;0.707698
6712.000000;0.705500
6711.000000;0.703220
6710.000000;0.700871
6709.000000;0.698533
6708.000000;0.696319
6707.000000;0.694255
6706.000000;0.692204
6705.000000;0.690032
6704.000000;0.687805
6703.000000;0.685536
6702.000000;0.683362
6701.000000;0.681171
6700.000000;0.678830
6699.000000;0.676541
6698.000000;0.674261
6697.000000;0.672028
6696.000000;0.669838
6695.000000;0.667658
6694.000000;0.665392
6693.000000;0.663019
6692.000000;0.660647
6691.000000;0.658375
6690.000000;0.656172
6689.000000;0.653959
6688.000000;0.651748
6687.000000;0.649599
6686.000000;0.647507
6685.000000;0.645408
6684.000000;0.643293
6683.000000;0.641219
6682.000000;0.639214
6681.000000;0.637219
6680.000000;0.635128
6679.000000;0.632885
6678.000000;0.630542
6677.000000;0.628237
6676.000000;0.626082
6675.000000;0.624054
6674.000000;0.622044
6673.000000;0.620000
6672.000000;0.617966
6671.000000;0.615954
6670.000000;0.613889
6669.000000;0.611728
6668.000000;0.609544
6667.000000;0.607430
6666.000000;0.605372
6665.000000;0.603300
6664.000000;0.601188
6663.000000;0.599045
6662.000000;0.596864
6661.000000;0.594639
6660.000000;0.592429
6659.000000;0.590316
6658.000000;0.588331
6657.000000;0.586448
6656.000000;0.584614
6655.000000;0.582765
6654.000000;0.580858
6653.000000;0.578914
6652.000000;0.577002
6651.000000;0.575117
6650.000000;0.573140
6649.000000;0.570979
6648.000000;0.568712
6647.000000;0.566531
6646.000000;0.564556
6645.000000;0.562751
6644.000000;0.561000
6643.000000;0.559213
6642.000000;0.557374
6641.000000;0.555521
6640.000000;0.553680
6639.000000;0.551806
6638.000000;0.549831
6637.000000;0.547757
6636.000000;0.545674
6635.000000;0.543665
6634.000000;0.541729
6633.000000;0.539825
6632.000000;0.537925
6631.000000;0.535994
6630.000000;0.533991
6629.000000;0.531930
6628.000000;0.529894
6627.000000;0.527943
6626.000000;0.526051
6625.000000;0.524171
6624.000000;0.522309
6623.000000;0.520484
6622.000000;0.518658
6621.000000;0.516785
6620.000000;0.514888
6619.000000;0.513042
6618.000000;0.511284
6617.000000;0.509591
6616.000000;0.507915
6615.000000;0.506216
6614.000000;0.504459
6613.000000;0.502643
6612.000000;0.500796
6611.000000;0.498941
6610.000000;0.497084
6609.000000;0.495240
6608.000000;0.493447
6607.000000;0.491703
6606.000000;0.489945
6605.000000;0.488136
6604.000000;0.486330
6603.000000;0.484600
6602.000000;0.482945
6601.000000;0.481312
6600.000000;0.479683
6599.000000;0.478075
6598.000000;0.476472
6597.000000;0.474817
6596.000000;0.473077
6595.000000;0.471282
6594.000000;0.469495
6593.000000;0.467778
6592.000000;0.466162
6591.000000;0.464626
6590.000000;0.463095
6589.000000;0.461496
6588.000000;0.459824
6587.000000;0.458129
6586.000000;0.456447
6585.000000;0.454767
6584.000000;0.453069
6583.000000;0.451366
6582.000000;0.449706
6581.000000;0.448119
6580.000000;0.446578
6579.000000;0.445008
6578.000000;0.443365
6577.000000;0.441687
6576.000000;0.440040
6575.000000;0.438438
6574.000000;0.436845
6573.000000;0.435253
6572.000000;0.433704
6571.000000;0.432228
6570.000000;0.430801
6569.000000;0.429395
6568.000000;0.427999
6567.000000;0.426580
6566.000000;0.425071
6565.000000;0.423446
6564.000000;0.421762
6563.000000;0.420105
6562.000000;0.418511
6561.000000;0.416967
6560.000000;0.415454
6559.000000;0.413955
6558.000000;0.412458
6557.000000;0.410981
6556.000000;0.409562
6555.000000;0.408197
6554.000000;0.406815
6553.000000;0.405371
6552.000000;0.403905
6551.000000;0.402481
6550.000000;0.401088
6549.000000;0.399658
6548.000000;0.398170
6547.000000;0.396671
6546.000000;0.395209
6545.000000;0.393780
6544.000000;0.392362
6543.000000;0.390963
6542.000000;0.389621
6541.000000;0.388362
6540.000000;0.387157
6539.000000;0.385913
6538.000000;0.384544
6537.000000;0.383066
6536.000000;0.381594
6535.000000;0.380222
6534.000000;0.378922
6533.000000;0.377593
6532.000000;0.376186
6531.000000;0.374741
6530.000000;0.373324
6529.000000;0.371964
6528.000000;0.370650
6527.000000;0.369363
6526.000000;0.368079
6525.000000;0.366781
6524.000000;0.365464
6523.000000;0.364139
6522.000000;0.362831
6521.000000;0.361572
6520.000000;0.360376
6519.000000;0.359204
6518.000000;0.357987
6517.000000;0.356687
6516.000000;0.355328
6515.000000;0.353966
6514.000000;0.352637
6513.000000;0.351349
6512.000000;0.350089
6511.000000;0.348840
6510.000000;0.347587
6509.000000;0.346334
6508.000000;0.345089
6507.000000;0.343845
6506.000000;0.342595
6505.000000;0.341365
6504.000000;0.340193
6503.000000;0.339075
6502.000000;0.337962
6501.000000;0.336819
6500.000000;0.335652
6499.000000;0.334470
6498.000000;0.333271
6497.000000;0.332073
6496.000000;0.330915
6495.000000;0.329804
6494.000000;0.328688
6493.000000;0.327525
6492.000000;0.326329
6491.000000;0.325140
6490.000000;0.323960
6489.000000;0.322781
6488.000000;0.321622
6487.000000;0.320520
6486.000000;0.319477
6485.000000;0.318469
6484.000000;0.317469
6483.000000;0.316451
6482.000000;0.315376
6481.000000;0.314224
6480.000000;0.313029
6479.000000;0.311847
6478.000000;0.310705
6477.000000;0.309596
6476.000000;0.308506
6475.000000;0.307435
6474.000000;0.306390
6473.000000;0.305384
6472.000000;0.304420
6471.000000;0.303467
6470.000000;0.302476
6469.000000;0.301440
6468.000000;0.300410
6467.000000;0.299423
6466.000000;0.298444
6465.000000;0.297413
6464.000000;0.296323
6463.000000;0.295215
6462.000000;0.294118
6461.000000;0.293033
6460.000000;0.291961
6459.000000;0.290916
6458.000000;0.289902
6457.000000;0.288909
6456.000000;0.287932
6455.000000;0.286973
6454.000000;0.286030
6453.000000;0.285104
6452.000000;0.284202
6451.000000;0.283319
6450.000000;0.282422
6449.000000;0.281476
6448.000000;0.280488
6447.000000;0.279495
6446.000000;0.278519
6445.000000;0.277553
6444.000000;0.276590
6443.000000;0.275623
6442.000000;0.274647
6441.000000;0.273673
6440.000000;0.272731
6439.000000;0.271843
6438.000000;0.270986
6437.000000;0.270114
6436.000000;0.269209
6435.000000;0.268290
6434.000000;0.267377
6433.000000;0.266478
6432.000000;0.265593
6431.000000;0.264713
6430.000000;0.263818
6429.000000;0.262903
6428.000000;0.261995
6427.000000;0.261130
6426.000000;0.260299
6425.000000;0.259450
6424.000000;0.258555
6423.000000;0.257640
6422.000000;0.256747
6421.000000;0.255888
6420.000000;0.255049
6419.000000;0.254218
6418.000000;0.253398
6417.000000;0.252589
6416.000000;0.251772
6415.000000;0.250931
6414.000000;0.250067
6413.000000;0.249211
6412.000000;0.248391
6411.000000;0.247611
6410.000000;0.246860
6409.000000;0.246125
6408.000000;0.245397
6407.000000;0.244654
6406.000000;0.243871
6405.000000;0.243050
6404.000000;0.242222
6403.000000;0.241414
6402.000000;0.240624
6401.000000;0.239838
6400.000000;0.239050
6399.000000;0.238261
6398.000000;0.237475
6397.000000;0.236697
6396.000000;0.235923
6395.000000;0.235149
6394.000000;0.234386
6393.000000;0.233659
6392.000000;0.232975
6391.000000;0.232299
6390.000000;0.231578
6389.000000;0.230804
6388.000000;0.230015
6387.000000;0.229240
6386.000000;0.228477
6385.000000;0.227727
6384.000000;0.227017
6383.000000;0.226357
6382.000000;0.225720
6381.000000;0.225069
6380.000000;0.224391
6379.000000;0.223689
6378.000000;0.222959
6377.000000;0.222214
6376.000000;0.221481
6375.000000;0.220773
6374.000000;0.220072
6373.000000;0.219365
6372.000000;0.218668
6371.000000;0.218000
6370.000000;0.217348
6369.000000;0.216690
6368.000000;0.216034
6367.000000;0.215397
6366.000000;0.214771
6365.000000;0.214132
6364.000000;0.213469
6363.000000;0.212793
6362.000000;0.212114
6361.000000;0.211445
6360.000000;0.210795
6359.000000;0.210162
6358.000000;0.209516
6357.000000;0.208835
6356.000000;0.208146
6355.000000;0.207498
6354.000000;0.206911
6353.000000;0.206364
6352.000000;0.205826
6351.000000;0.205276
6350.000000;0.204705
6349.000000;0.204114
6348.000000;0.203509
6347.000000;0.202894
6346.000000;0.202276
6345.000000;0.201670
6344.000000;0.201093
6343.000000;0.200527
6342.000000;0.199929
6341.000000;0.199285
6340.000000;0.198634
6339.000000;0.198026
6338.000000;0.197465
6337.000000;0.196915
6336.000000;0.196361
6335.000000;0.195814
6334.000000;0.195281
6333.000000;0.194747
6332.000000;0.194202
6331.000000;0.193645
6330.000000;0.193079
6329.000000;0.192506
6328.000000;0.191927
6327.000000;0.191344
6326.000000;0.190762
6325.000000;0.190202
6324.000000;0.189684
6323.000000;0.189199
6322.000000;0.188700
6321.000000;0.188159
6320.000000;0.187600
6319.000000;0.187057
6318.000000;0.186526
6317.000000;0.185976
6316.000000;0.185397
6315.000000;0.184812
6314.000000;0.184248
6313.000000;0.183713
6312.000000;0.183212
6311.000000;0.182737
6310.000000;0.182275
6309.000000;0.181813
6308.000000;0.181357
6307.000000;0.180902
6306.000000;0.180422
6305.000000;0.179899
6304.000000;0.179353
6303.000000;0.178816
6302.000000;0.178292
6301.000000;0.177761
6300.000000;0.177229
6299.000000;0.176739
6298.000000;0.176316
6297.000000;0.175943
6296.000000;0.175579
6295.000000;0.175191
6294.000000;0.174760
6293.000000;0.174293
6292.000000;0.173815
6291.000000;0.173345
6290.000000;0.172875
6289.000000;0.172383
6288.000000;0.171874
6287.000000;0.171375
6286.000000;0.170902
6285.000000;0.170447
6284.000000;0.170012
6283.000000;0.169617
6282.000000;0.169277
6281.000000;0.168966
6280.000000;0.168638
6279.000000;0.168259
6278.000000;0.167822
6277.000000;0.167335
6276.000000;0.166814
6275.000000;0.166283
6274.000000;0.165774
6273.000000;0.165308
6272.000000;0.164879
6271.000000;0.164462
6270.000000;0.164035
6269.000000;0.163609
6268.000000;0.163210
6267.000000;0.162842
6266.000000;0.162479
6265.000000;0.162097
6264.000000;0.161698
6263.000000;0.161304
6262.000000;0.160920
6261.000000;0.160542
6260.000000;0.160168
6259.000000;0.159797
6258.000000;0.159421
6257.000000;0.159029
6256.000000;0.158624
6255.000000;0.158226
6254.000000;0.157855
6253.000000;0.157520
6252.000000;0.157217
6251.000000;0.156923
6250.000000;0.156612
6249.000000;0.156271
6248.000000;0.155905
6247.000000;0.155515
6246.000000;0.155102
6245.000000;0.154679
6244.000000;0.154271
6243.000000;0.153888
6242.000000;0.153520
6241.000000;0.153159
6240.000000;0.152823
6239.000000;0.152523
6238.000000;0.152235
6237.000000;0.151912
6236.000000;0.151542
6235.000000;0.151154
6234.000000;0.150778
6233.000000;0.150418
6232.000000;0.150065
6231.000000;0.149717
6230.000000;0.149378
6229.000000;0.149050
6228.000000;0.148735
6227.000000;0.148427
6226.000000;0.148112
6225.000000;0.147780
6224.000000;0.147435
6223.000000;0.147088
6222.000000;0.146741
6221.000000;0.146379
6220.000000;0.145999
6219.000000;0.145620
6218.000000;0.145269
6217.000000;0.144953
6216.000000;0.144660
6215.000000;0.144376
6214.000000;0.144095
6213.000000;0.143821
6212.000000;0.143554
6211.000000;0.143284
6210.000000;0.142990
6209.000000;0.142660
6208.000000;0.142300
6207.000000;0.141941
6206.000000;0.141617
6205.000000;0.141336
6204.000000;0.141069
6203.000000;0.140779
6202.000000;0.140466
6201.000000;0.140161
6200.000000;0.139888
6199.000000;0.139632
6198.000000;0.139371
6197.000000;0.139111
6196.000000;0.138863
6195.000000;0.138606
6194.000000;0.138310
6193.000000;0.137976
6192.000000;0.137641
6191.000000;0.137319
6190.000000;0.136992
6189.000000;0.136656
6188.000000;0.136340
6187.000000;0.136072
6186.000000;0.135854
6185.000000;0.135662
6184.000000;0.135474
6183.000000;0.135265
6182.000000;0.135024
6181.000000;0.134765
6180.000000;0.134513
6179.000000;0.134269
6178.000000;0.134013
6177.000000;0.133748
6176.000000;0.133499
6175.000000;0.133267
6174.000000;0.133019
6173.000000;0.132739
6172.000000;0.132448
6171.000000;0.132167
6170.000000;0.131883
6169.000000;0.131590
6168.000000;0.131324
6167.000000;0.131114
6166.000000;0.130933
6165.000000;0.130724
6164.000000;0.130464
6163.000000;0.130174
6162.000000;0.129884
6161.000000;0.129618
6160.000000;0.129401
6159.000000;0.129242
6158.000000;0.129111
6157.000000;0.128956
6156.000000;0.128749
6155.000000;0.128497
6154.000000;0.128226
6153.000000;0.127972
6152.000000;0.127768
6151.000000;0.127606
6150.000000;0.127437
6149.000000;0.127214
6148.000000;0.126945
6147.000000;0.126672
6146.000000;0.126415
6145.000000;0.126172
6144.000000;0.125947
6143.000000;0.125756
6142.000000;0.125591
6141.000000;0.125416
6140.000000;0.125203
6139.000000;0.124950
6138.000000;0.124674
6137.000000;0.124401
6136.000000;0.124158
6135.000000;0.123963
6134.000000;0.123798
6133.000000;0.123630
6132.000000;0.123443
6131.000000;0.123244
6130.000000;0.123047
6129.000000;0.122860
6128.000000;0.122682
6127.000000;0.122505
6126.000000;0.122318
6125.000000;0.122128
6124.000000;0.121953
6123.000000;0.121794
6122.000000;0.121626
6121.000000;0.121431
6120.000000;0.121233
6119.000000;0.121063
6118.000000;0.120919
6117.000000;0.120764
6116.000000;0.120578
6115.000000;0.120374
6114.000000;0.120176
6113.000000;0.119999
6112.000000;0.119841
6111.000000;0.119682
6110.000000;0.119502
6109.000000;0.119299
6108.000000;0.119099
6107.000000;0.118929
6106.000000;0.118784
6105.000000;0.118649
6104.000000;0.118517
6103.000000;0.118394
6102.000000;0.118273
6101.000000;0.118142
6100.000000;0.118004
6099.000000;0.117861
6098.000000;0.117703
6097.000000;0.117524
6096.000000;0.117338
6095.000000;0.117168
6094.000000;0.117019
6093.000000;0.116872
6092.000000;0.116714
6091.000000;0.116541
6090.000000;0.116355
6089.000000;0.116174
6088.000000;0.116022
6087.000000;0.115904
6086.000000;0.115786
6085.000000;0.115634
6084.000000;0.115456
6083.000000;0.115289
6082.000000;0.115147
6081.000000;0.115019
6080.000000;0.114892
6079.000000;0.114765
6078.000000;0.114642
6077.000000;0.114521
6076.000000;0.114406
6075.000000;0.114304
6074.000000;0.114210
6073.000000;0.114114
6072.000000;0.114020
6071.000000;0.113930
6070.000000;0.113832
6069.000000;0.113710
6068.000000;0.113570
6067.000000;0.113443
6066.000000;0.113340
6065.000000;0.113252
6064.000000;0.113165
6063.000000;0.113075
6062.000000;0.112984
6061.000000;0.112895
6060.000000;0.112808
6059.000000;0.112711
6058.000000;0.112580
6057.000000;0.112401
6056.000000;0.112209
6055.000000;0.112063
6054.000000;0.111991
6053.000000;0.111970
6052.000000;0.111950
6051.000000;0.111892
6050.000000;0.111786
6049.000000;0.111648
6048.000000;0.111514
6047.000000;0.111410
6046.000000;0.111334
6045.000000;0.111259
6044.000000;0.111169
6043.000000;0.111068
6042.000000;0.110967
6041.000000;0.110868
6040.000000;0.110774
6039.000000;0.110687
6038.000000;0.110608
6037.000000;0.110531
6036.000000;0.110452
6035.000000;0.110362
6034.000000;0.110255
6033.000000;0.110139
6032.000000;0.110042
6031.000000;0.109983
6030.000000;0.109953
6029.000000;0.109926
6028.000000;0.109886
6027.000000;0.109837
6026.000000;0.109780
6025.000000;0.109711
6024.000000;0.109628
6023.000000;0.109542
6022.000000;0.109463
6021.000000;0.109394
6020.000000;0.109334
6019.000000;0.109274
6018.000000;0.109208
6017.000000;0.109151
6016.000000;0.109135
6015.000000;0.109171
6014.000000;0.109234
6013.000000;0.109277
6012.000000;0.109270
6011.000000;0.109208
6010.000000;0.109108
6009.000000;0.108998
6008.000000;0.108910
6007.000000;0.108857
6006.000000;0.108827
6005.000000;0.108808
6004.000000;0.108801
6003.000000;0.108814
6002.000000;0.108832
6001.000000;0.108826
6000.000000;0.108788
5999.000000;0.108733
5998.000000;0.108678
5997.000000;0.108630
5996.000000;0.108595
5995.000000;0.108573
5994.000000;0.108564
5993.000000;0.108570
5992.000000;0.108599
5991.000000;0.108642
5990.000000;0.108679
5989.000000;0.108697
5988.000000;0.108710
5987.000000;0.108732
5986.000000;0.108752
5985.000000;0.108747
5984.000000;0.108712
5983.000000;0.108661
5982.000000;0.108620
5981.000000;0.108610
5980.000000;0.108645
5979.000000;0.108707
5978.000000;0.108760
5977.000000;0.108782
5976.000000;0.108796
5975.000000;0.108836
5974.000000;0.108904
5973.000000;0.108975
5972.000000;0.109036
5971.000000;0.109090
5970.000000;0.109145
5969.000000;0.109203
5968.000000;0.109272
5967.000000;0.109352
5966.000000;0.109425
5965.000000;0.109472
5964.000000;0.109492
5963.000000;0.109499
5962.000000;0.109504
5961.000000;0.109516
5960.000000;0.109548
5959.000000;0.109612
5958.000000;0.109704
5957.000000;0.109817
5956.000000;0.109950
5955.000000;0.110091
5954.000000;0.110206
5953.000000;0.110269
5952.000000;0.110298
5951.000000;0.110335
5950.000000;0.110396
5949.000000;0.110469
5948.000000;0.110539
5947.000000;0.110604
5946.000000;0.110663
5945.000000;0.110719
5944.000000;0.110777
5943.000000;0.110844
5942.000000;0.110913
5941.000000;0.110986
5940.000000;0.111084
5939.000000;0.111226
5938.000000;0.111397
5937.000000;0.111563
5936.000000;0.111702
5935.000000;0.111810
5934.000000;0.111887
5933.000000;0.111939
5932.000000;0.111989
5931.000000;0.112065
5930.000000;0.112165
5929.000000;0.112275
5928.000000;0.112389
5927.000000;0.112518
5926.000000;0.112657
5925.000000;0.112791
5924.000000;0.112911
5923.000000;0.113018
5922.000000;0.113109
5921.000000;0.113183
5920.000000;0.113256
5919.000000;0.113350
5918.000000;0.113464
5917.000000;0.113581
5916.000000;0.113683
5915.000000;0.113764
5914.000000;0.113825
5913.000000;0.113887
5912.000000;0.113984
5911.000000;0.114127
5910.000000;0.114278
5909.000000;0.114393
5908.000000;0.114476
5907.000000;0.114570
5906.000000;0.114689
5905.000000;0.114806
5904.000000;0.114892
5903.000000;0.114959
5902.000000;0.115026
5901.000000;0.115096
5900.000000;0.115165
5899.000000;0.115250
5898.000000;0.115375
5897.000000;0.115537
5896.000000;0.115706
5895.000000;0.115846
5894.000000;0.115946
5893.000000;0.116031
5892.000000;0.116141
5891.000000;0.116296
5890.000000;0.116485
5889.000000;0.116680
5888.000000;0.116868
5887.000000;0.117039
5886.000000;0.117182
5885.000000;0.117292
5884.000000;0.117394
5883.000000;0.117522
5882.000000;0.117690
5881.000000;0.117879
5880.000000;0.118064
5879.000000;0.118222
5878.000000;0.118340
5877.000000;0.118436
5876.000000;0.118554
5875.000000;0.118721
5874.000000;0.118922
5873.000000;0.119131
5872.000000;0.119347
5871.000000;0.119585
5870.000000;0.119823
5869.000000;0.120030
5868.000000;0.120208
5867.000000;0.120390
5866.000000;0.120591
5865.000000;0.120789
5864.000000;0.120964
5863.000000;0.121135
5862.000000;0.121326
5861.000000;0.121541
5860.000000;0.121766
5859.000000;0.121988
5858.000000;0.122191
5857.000000;0.122370
5856.000000;0.122542
5855.000000;0.122738
5854.000000;0.122973
5853.000000;0.123229
5852.000000;0.123481
5851.000000;0.123722
5850.000000;0.123961
5849.000000;0.124217
5848.000000;0.124509
5847.000000;0.124838
5846.000000;0.125176
5845.000000;0.125484
5844.000000;0.125752
5843.000000;0.125997
5842.000000;0.126237
5841.000000;0.126478
5840.000000;0.126732
5839.000000;0.127019
5838.000000;0.127342
5837.000000;0.127675
5836.000000;0.127985
5835.000000;0.128261
5834.000000;0.128519
5833.000000;0.128785
5832.000000;0.129080
5831.000000;0.129395
5830.000000;0.129709
5829.000000;0.130010
5828.000000;0.130311
5827.000000;0.130620
5826.000000;0.130932
5825.000000;0.131245
5824.000000;0.131574
5823.000000;0.131929
5822.000000;0.132290
5821.000000;0.132632
5820.000000;0.132967
5819.000000;0.133328
5818.000000;0.133723
5817.000000;0.134124
5816.000000;0.134512
5815.000000;0.134888
5814.000000;0.135251
5813.000000;0.135593
5812.000000;0.135926
5811.000000;0.136272
5810.000000;0.136645
5809.000000;0.137032
5808.000000;0.137417
5807.000000;0.137802
5806.000000;0.138190
5805.000000;0.138574
5804.000000;0.138944
5803.000000;0.139290
5802.000000;0.139615
5801.000000;0.139935
5800.000000;0.140284
5799.000000;0.140685
5798.000000;0.141126
5797.000000;0.141572
5796.000000;0.142002
5795.000000;0.142417
5794.000000;0.142815
5793.000000;0.143190
5792.000000;0.143550
5791.000000;0.143916
5790.000000;0.144295
5789.000000;0.144677
5788.000000;0.145064
5787.000000;0.145477
5786.000000;0.145929
5785.000000;0.146410
5784.000000;0.146899
5783.000000;0.147377
5782.000000;0.147834
5781.000000;0.148272
5780.000000;0.148707
5779.000000;0.149150
5778.000000;0.149591
5777.000000;0.150020
5776.000000;0.150454
5775.000000;0.150928
5774.000000;0.151458
5773.000000;0.152013
5772.000000;0.152546
5771.000000;0.153036
5770.000000;0.153489
5769.000000;0.153932
5768.000000;0.154383
5767.000000;0.154844
5766.000000;0.155304
5765.000000;0.155770
5764.000000;0.156263
5763.000000;0.156796
5762.000000;0.157361
5761.000000;0.157945
5760.000000;0.158540
5759.000000;0.159124
5758.000000;0.159656
5757.000000;0.160118
5756.000000;0.160550
5755.000000;0.161008
5754.000000;0.161512
5753.000000;0.162044
5752.000000;0.162598
5751.000000;0.163173
5750.000000;0.163752
5749.000000;0.164303
5748.000000;0.164821
5747.000000;0.165327
5746.000000;0.165840
5745.000000;0.166373
5744.000000;0.166943
5743.000000;0.167561
5742.000000;0.168205
5741.000000;0.168839
5740.000000;0.169451
5739.000000;0.170063
5738.000000;0.170678
5737.000000;0.171273
5736.000000;0.171841
5735.000000;0.172407
5734.000000;0.173006
5733.000000;0.173645
5732.000000;0.174311
5731.000000;0.174982
5730.000000;0.175633
5729.000000;0.176243
5728.000000;0.176821
5727.000000;0.177396
5726.000000;0.177999
5725.000000;0.178636
5724.000000;0.179298
5723.000000;0.179963
5722.000000;0.180616
5721.000000;0.181252
5720.000000;0.181890
5719.000000;0.182547
5718.000000;0.183230
5717.000000;0.183934
5716.000000;0.184658
5715.000000;0.185384
5714.000000;0.186089
5713.000000;0.186771
5712.000000;0.187471
5711.000000;0.188228
5710.000000;0.189020
5709.000000;0.189786
5708.000000;0.190495
5707.000000;0.191160
5706.000000;0.191812
5705.000000;0.192475
5704.000000;0.193160
5703.000000;0.193865
5702.000000;0.194573
5701.000000;0.195281
5700.000000;0.196031
5699.000000;0.196845
5698.000000;0.197713
5697.000000;0.198497
5696.000000;0.199222
5695.000000;0.199928
5694.000000;0.200619
5693.000000;0.201329
5692.000000;0.202040
5691.000000;0.202746
5690.000000;0.203436
5689.000000;0.204118
5688.000000;0.204816
5687.000000;0.205562
5686.000000;0.206355
5685.000000;0.207157
5684.000000;0.207933
5683.000000;0.208680
5682.000000;0.209411
5681.000000;0.210126
5680.000000;0.210813
5679.000000;0.211472
5678.000000;0.212128
5677.000000;0.212824
5676.000000;0.213592
5675.000000;0.214415
5674.000000;0.215230
5673.000000;0.215981
5672.000000;0.216666
5671.000000;0.217328
5670.000000;0.218006
5669.000000;0.218714
5668.000000;0.219451
5667.000000;0.220205
5666.000000;0.220956
5665.000000;0.221694
5664.000000;0.222429
5663.000000;0.223165
5662.000000;0.223892
5661.000000;0.224613
5660.000000;0.225356
5659.000000;0.226130
5658.000000;0.226898
5657.000000;0.227612
5656.000000;0.228273
5655.000000;0.228912
5654.000000;0.229538
5653.000000;0.230142
5652.000000;0.230735
5651.000000;0.231344
5650.000000;0.231974
5649.000000;0.232618
5648.000000;0.233280
5647.000000;0.233964
5646.000000;0.234652
5645.000000;0.235318
5644.000000;0.235958
5643.000000;0.236588
5642.000000;0.237212
5641.000000;0.237831
5640.000000;0.238457
5639.000000;0.239093
5638.000000;0.239710
5637.000000;0.240272
5636.000000;0.240788
5635.000000;0.241302
5634.000000;0.241838
5633.000000;0.242397
5632.000000;0.242969
5631.000000;0.243541
5630.000000;0.244081
5629.000000;0.244575
5628.000000;0.245056
5627.000000;0.245560
5626.000000;0.246081
5625.000000;0.246585
5624.000000;0.247068
5623.000000;0.247555
5622.000000;0.248047
5621.000000;0.248517
5620.000000;0.248951
5619.000000;0.249353
5618.000000;0.249735
5617.000000;0.250105
5616.000000;0.250492
5615.000000;0.250911
5614.000000;0.251337
5613.000000;0.251731
5612.000000;0.252100
5611.000000;0.252483
5610.000000;0.252885
5609.000000;0.253276
5608.000000;0.253641
5607.000000;0.253983
5606.000000;0.254297
5605.000000;0.254580
5604.000000;0.254854
5603.000000;0.255140
5602.000000;0.255425
5601.000000;0.255694
5600.000000;0.255972
5599.000000;0.256285
5598.000000;0.256604
5597.000000;0.256882
5596.000000;0.257123
5595.000000;0.257359
5594.000000;0.257591
5593.000000;0.257807
5592.000000;0.258033
5591.000000;0.258298
5590.000000;0.258564
5589.000000;0.258765
5588.000000;0.258909
5587.000000;0.259063
5586.000000;0.259248
5585.000000;0.259423
5584.000000;0.259565
5583.000000;0.259697
5582.000000;0.259836
5581.000000;0.259965
5580.000000;0.260081
5579.000000;0.260195
5578.000000;0.260298
5577.000000;0.260372
5576.000000;0.260443
5575.000000;0.260543
5574.000000;0.260647
5573.000000;0.260701
5572.000000;0.260715
5571.000000;0.260751
5570.000000;0.260822
5569.000000;0.260872
5568.000000;0.260882
5567.000000;0.260905
5566.000000;0.260981
5565.000000;0.261078
5564.000000;0.261161
5563.000000;0.261255
5562.000000;0.261385
5561.000000;0.261525
5560.000000;0.261617
5559.000000;0.261634
5558.000000;0.261586
5557.000000;0.261496
5556.000000;0.261378
5555.000000;0.261237
5554.000000;0.261079
5553.000000;0.260930
5552.000000;0.260825
5551.000000;0.260762
5550.000000;0.260718
5549.000000;0.260700
5548.000000;0.260749
5547.000000;0.260849
5546.000000;0.260919
5545.000000;0.260925
5544.000000;0.260934
5543.000000;0.261004
5542.000000;0.261062
5541.000000;0.260995
5540.000000;0.260812
5539.000000;0.260632
5538.000000;0.260522
5537.000000;0.260420
5536.000000;0.260242
5535.000000;0.260021
5534.000000;0.259903
5533.000000;0.259989
5532.000000;0.260227
5531.000000;0.260458
5530.000000;0.260576
5529.000000;0.260604
5528.000000;0.260609
5527.000000;0.260591
5526.000000;0.260487
5525.000000;0.260295
5524.000000;0.260121
5523.000000;0.260040
5522.000000;0.259968
5521.000000;0.259749
5520.000000;0.259386
5519.000000;0.259103
5518.000000;0.259130
5517.000000;0.259438
5516.000000;0.259761
5515.000000;0.259881
5514.000000;0.259845
5513.000000;0.259849
5512.000000;0.259945
5511.000000;0.259995
5510.000000;0.259923
5509.000000;0.259810
5508.000000;0.259686
5507.000000;0.259427
5506.000000;0.259017
5505.000000;0.258785
5504.000000;0.259071
5503.000000;0.259702
5502.000000;0.260151
5501.000000;0.260217
5500.000000;0.260218
5499.000000;0.260432
5498.000000;0.260605
5497.000000;0.260328
5496.000000;0.259758
5495.000000;0.259563
5494.000000;0.260010
5493.000000;0.260462
5492.000000;0.260163
5491.000000;0.259335
5490.000000;0.259028
5489.000000;0.259798
5488.000000;0.261022
5487.000000;0.261743
5486.000000;0.261811
5485.000000;0.261858
5484.000000;0.262352
5483.000000;0.263080
5482.000000;0.263635
5481.000000;0.263904
5480.000000;0.263843
5479.000000;0.263355
5478.000000;0.262738
5477.000000;0.262744
5476.000000;0.263609
5475.000000;0.264429
5474.000000;0.264230
5473.000000;0.263440
5472.000000;0.263445
5471.000000;0.264698
5470.000000;0.266196
5469.000000;0.266832
5468.000000;0.266566
5467.000000;0.266108
5466.000000;0.265964
5465.000000;0.266159
5464.000000;0.266592
5463.000000;0.267251
5462.000000;0.268109
5461.000000;0.268997
5460.000000;0.269610
5459.000000;0.269782
5458.000000;0.269876
5457.000000;0.270536
5456.000000;0.271797
5455.000000;0.272870
5454.000000;0.273097
5453.000000;0.272835
5452.000000;0.273040
5451.000000;0.274014
5450.000000;0.275030
5449.000000;0.275301
5448.000000;0.275078
5447.000000;0.275393
5446.000000;0.276615
5445.000000;0.277796
5444.000000;0.278057
5443.000000;0.278089
5442.000000;0.279276
5441.000000;0.281592
5440.000000;0.283384
5439.000000;0.283552
5438.000000;0.283144
5437.000000;0.284035
5436.000000;0.286495
5435.000000;0.288865
5434.000000;0.289507
5433.000000;0.288585
5432.000000;0.287838
5431.000000;0.288865
5430.000000;0.291617
5429.000000;0.294434
5428.000000;0.295754
5427.000000;0.295820
5426.000000;0.296260
5425.000000;0.298110
5424.000000;0.300796
5423.000000;0.303077
5422.000000;0.304399
5421.000000;0.305245
5420.000000;0.306376
5419.000000;0.307806
5418.000000;0.308903
5417.000000;0.309557
5416.000000;0.310655
5415.000000;0.312867
5414.000000;0.315446
5413.000000;0.317125
5412.000000;0.318033
5411.000000;0.319666
5410.000000;0.322755
5409.000000;0.326240
5408.000000;0.328829
5407.000000;0.330663
5406.000000;0.332747
5405.000000;0.335401
5404.000000;0.338000
5403.000000;0.340153
5402.000000;0.342167
5401.000000;0.344364
5400.000000;0.346799
5399.000000;0.349491
5398.000000;0.352313
5397.000000;0.354972
5396.000000;0.357626
5395.000000;0.360981
5394.000000;0.365256
5393.000000;0.369631
5392.000000;0.373284
5391.000000;0.376456
5390.000000;0.379827
5389.000000;0.383484
5388.000000;0.387173
5387.000000;0.390962
5386.000000;0.395050
5385.000000;0.399172
5384.000000;0.402982
5383.000000;0.406941
5382.000000;0.411698
5381.000000;0.416792
5380.000000;0.421294
5379.000000;0.425521
5378.000000;0.430623
5377.000000;0.436612
5376.000000;0.442262
5375.000000;0.447160
5374.000000;0.452393
5373.000000;0.458768
5372.000000;0.465672
5371.000000;0.472193
5370.000000;0.478340
5369.000000;0.484563
5368.000000;0.490884
5367.000000;0.497148
5366.000000;0.503674
5365.000000;0.510859
5364.000000;0.518476
5363.000000;0.526084
5362.000000;0.533765
5361.000000;0.541945
5360.000000;0.550747
5359.000000;0.559868
5358.000000;0.568838
5357.000000;0.577405
5356.000000;0.585940
5355.000000;0.595261
5354.000000;0.605690
5353.000000;0.616396
5352.000000;0.626420
5351.000000;0.636332
5350.000000;0.647593
5349.000000;0.660147
5348.000000;0.672282
5347.000000;0.683393
5346.000000;0.695129
5345.000000;0.708837
5344.000000;0.723212
5343.000000;0.736059
5342.000000;0.747636
5341.000000;0.760415
5340.000000;0.775778
5339.000000;0.792486
5338.000000;0.808503
5337.000000;0.823266
5336.000000;0.837818
5335.000000;0.853414
5334.000000;0.870587
5333.000000;0.888825
5332.000000;0.906706
5331.000000;0.923241
5330.000000;0.939308
5329.000000;0.956793
5328.000000;0.976292
5327.000000;0.996547
5326.000000;1.016196
5325.000000;1.035336
5324.000000;1.054917
5323.000000;1.075285
5322.000000;1.095946
5321.000000;1.116340
5320.000000;1.136277
5319.000000;1.155975
5318.000000;1.175978
5317.000000;1.196626
5316.000000;1.217609
5315.000000;1.238390
5314.000000;1.258998
5313.000000;1.279731
5312.000000;1.300263
5311.000000;1.320038
5310.000000;1.339511
5309.000000;1.359755
5308.000000;1.380683
5307.000000;1.400931
5306.000000;1.419682
5305.000000;1.437391
5304.000000;1.454575
5303.000000;1.471204
5302.000000;1.487433
5301.000000;1.503647
5300.000000;1.519584
5299.000000;1.534535
5298.000000;1.548408
5297.000000;1.561644
5296.000000;1.574120
5295.000000;1.585116
5294.000000;1.594502
5293.000000;1.603195
5292.000000;1.612296
5291.000000;1.622188
5290.000000;1.632216
5289.000000;1.640917
5288.000000;1.647343
5287.000000;1.652590
5286.000000;1.658794
5285.000000;1.666065
5284.000000;1.671901
5283.000000;1.674653
5282.000000;1.675961
5281.000000;1.678277
5280.000000;1.681786
5279.000000;1.685332
5278.000000;1.688634
5277.000000;1.691788
5276.000000;1.694049
5275.000000;1.695037
5274.000000;1.696043
5273.000000;1.698488
5272.000000;1.701927
5271.000000;1.705014
5270.000000;1.707418
5269.000000;1.709265
5268.000000;1.709968
5267.000000;1.709561
5266.000000;1.709869
5265.000000;1.712220
5264.000000;1.715238
5263.000000;1.716829
5262.000000;1.717424
5261.000000;1.718967
5260.000000;1.721459
5259.000000;1.722853
5258.000000;1.722142
5257.000000;1.720607
5256.000000;1.719898
5255.000000;1.720559
5254.000000;1.722269
5253.000000;1.724243
5252.000000;1.725443
5251.000000;1.725710
5250.000000;1.726365
5249.000000;1.728332
5248.000000;1.730396
5247.000000;1.730888
5246.000000;1.730456
5245.000000;1.731159
5244.000000;1.733486
5243.000000;1.735985
5242.000000;1.737429
5241.000000;1.737863
5240.000000;1.737628
5239.000000;1.736783
5238.000000;1.735653
5237.000000;1.734911
5236.000000;1.734795
5235.000000;1.735077
5234.000000;1.735750
5233.000000;1.736811
5232.000000;1.737645
5231.000000;1.737684
5230.000000;1.737356
5229.000000;1.737513
5228.000000;1.738442
5227.000000;1.740019
5226.000000;1.741958
5225.000000;1.743309
5224.000000;1.742762
5223.000000;1.740426
5222.000000;1.738306
5221.000000;1.738099
5220.000000;1.739382
5219.000000;1.740583
5218.000000;1.740938
5217.000000;1.740702
5216.000000;1.740144
5215.000000;1.739386
5214.000000;1.738681
5213.000000;1.738013
5212.000000;1.737071
5211.000000;1.736147
5210.000000;1.736179
5209.000000;1.737470
5208.000000;1.739149
5207.000000;1.740333
5206.000000;1.741045
5205.000000;1.741520
5204.000000;1.741606
5203.000000;1.741399
5202.000000;1.741427
5201.000000;1.741657
5200.000000;1.741373
5199.000000;1.740560
5198.000000;1.740272
5197.000000;1.740906
5196.000000;1.741417
5195.000000;1.741145
5194.000000;1.740939
5193.000000;1.741481
5192.000000;1.742068
5191.000000;1.742038
5190.000000;1.741901
5189.000000;1.742025
5188.000000;1.741623
5187.000000;1.740339
5186.000000;1.739516
5185.000000;1.740346
5184.000000;1.741861
5183.000000;1.742350
5182.000000;1.741836
5181.000000;1.741505
5180.000000;1.741565
5179.000000;1.741337
5178.000000;1.740765
5177.000000;1.740273
5176.000000;1.739602
5175.000000;1.738251
5174.000000;1.736735
5173.000000;1.736116
5172.000000;1.736567
5171.000000;1.737451
5170.000000;1.738352
5169.000000;1.739007
5168.000000;1.738743
5167.000000;1.737226
5166.000000;1.735410
5165.000000;1.734651
5164.000000;1.735224
5163.000000;1.736541
5162.000000;1.738178
5161.000000;1.739624
5160.000000;1.739739
5159.000000;1.737854
5158.000000;1.735106
5157.000000;1.733398
5156.000000;1.733244
5155.000000;1.733613
5154.000000;1.733652
5153.000000;1.733505
5152.000000;1.733463
5151.000000;1.733440
5150.000000;1.733403
5149.000000;1.733460
5148.000000;1.733389
5147.000000;1.732811
5146.000000;1.731804
5145.000000;1.730769
5144.000000;1.729795
5143.000000;1.728825
5142.000000;1.728224
5141.000000;1.728443
5140.000000;1.729237
5139.000000;1.729832
5138.000000;1.729800
5137.000000;1.729235
5136.000000;1.728335
5135.000000;1.727343
5134.000000;1.726653
5133.000000;1.726422
5132.000000;1.726335
5131.000000;1.726227
5130.000000;1.726508
5129.000000;1.727392
5128.000000;1.728179
5127.000000;1.727984
5126.000000;1.726816
5125.000000;1.725296
5124.000000;1.723691
5123.000000;1.721949
5122.000000;1.720363
5121.000000;1.719451
5120.000000;1.719335
5119.000000;1.719795
5118.000000;1.720699
5117.000000;1.721792
5116.000000;1.722387
5115.000000;1.722008
5114.000000;1.721121
5113.000000;1.720530
5112.000000;1.720242
5111.000000;1.719587
5110.000000;1.718267
5109.000000;1.716659
5108.000000;1.715214
5107.000000;1.714166
5106.000000;1.713701
5105.000000;1.713807
5104.000000;1.713982
5103.000000;1.713708
5102.000000;1.713192
5101.000000;1.713126
5100.000000;1.713674
5099.000000;1.714148
5098.000000;1.713763
5097.000000;1.712410
5096.000000;1.710665
5095.000000;1.709267
5094.000000;1.708575
5093.000000;1.708349
5092.000000;1.708084
5091.000000;1.707603
5090.000000;1.707143
5089.000000;1.706863
5088.000000;1.706655
5087.000000;1.706467
5086.000000;1.706344
5085.000000;1.706042
5084.000000;1.705172
5083.000000;1.703942
5082.000000;1.703173
5081.000000;1.703219
5080.000000;1.703325
5079.000000;1.702458
5078.000000;1.700439
5077.000000;1.698000
5076.000000;1.696165
5075.000000;1.695770
5074.000000;1.697000
5073.000000;1.698959
5072.000000;1.700235
5071.000000;1.700355
5070.000000;1.700200
5069.000000;1.700604
5068.000000;1.701151
5067.000000;1.700876
5066.000000;1.699628
5065.000000;1.698129
5064.000000;1.697012
5063.000000;1.696413
5062.000000;1.696239
5061.000000;1.696304
5060.000000;1.696323
5059.000000;1.696169
5058.000000;1.695904
5057.000000;1.695345
5056.000000;1.693996
5055.000000;1.691785
5054.000000;1.689457
5053.000000;1.687851
5052.000000;1.687133
5051.000000;1.686939
5050.000000;1.686875
5049.000000;1.686582
5048.000000;1.685805
5047.000000;1.684758
5046.000000;1.684020
5045.000000;1.683738
5044.000000;1.683390
5043.000000;1.682604
5042.000000;1.681654
5041.000000;1.680743
5040.000000;1.679438
5039.000000;1.677418
5038.000000;1.675274
5037.000000;1.673891
5036.000000;1.673346
5035.000000;1.672969
5034.000000;1.672174
5033.000000;1.670725
5032.000000;1.668510
5031.000000;1.665726
5030.000000;1.663108
5029.000000;1.661438
5028.000000;1.660837
5027.000000;1.660858
5026.000000;1.661126
5025.000000;1.661460
5024.000000;1.661527
5023.000000;1.660893
5022.000000;1.659479
5021.000000;1.657674
5020.000000;1.655994
5019.000000;1.654762
5018.000000;1.654002
5017.000000;1.653535
5016.000000;1.653249
5015.000000;1.653239
5014.000000;1.653421
5013.000000;1.653102
5012.000000;1.651459
5011.000000;1.648572
5010.000000;1.645464
5009.000000;1.642972
5008.000000;1.641065
5007.000000;1.639399
5006.000000;1.637907
5005.000000;1.636525
5004.000000;1.634935
5003.000000;1.633075
5002.000000;1.631445
5001.000000;1.630505
5000.000000;1.629903
4999.000000;1.629030
4998.000000;1.627651
4997.000000;1.625878
4996.000000;1.623839
4995.000000;1.621758
4994.000000;1.620093
4993.000000;1.619086
4992.000000;1.618278
4991.000000;1.616879
4990.000000;1.614642
4989.000000;1.612107
4988.000000;1.609977
4987.000000;1.608374
4986.000000;1.606664
4985.000000;1.604062
4984.000000;1.600583
4983.000000;1.597277
4982.000000;1.595183
4981.000000;1.594163
4980.000000;1.593182
4979.000000;1.591650
4978.000000;1.589868
4977.000000;1.588127
4976.000000;1.586176
4975.000000;1.583812
4974.000000;1.581294
4973.000000;1.578770
4972.000000;1.575953
4971.000000;1.572790
4970.000000;1.569862
4969.000000;1.567673
4968.000000;1.565991
4967.000000;1.564389
4966.000000;1.562899
4965.000000;1.561642
4964.000000;1.560226
4963.000000;1.558174
4962.000000;1.555650
4961.000000;1.553151
4960.000000;1.550645
4959.000000;1.547627
4958.000000;1.543900
4957.000000;1.539820
4956.000000;1.535932
4955.000000;1.532758
4954.000000;1.530740
4953.000000;1.529843
4952.000000;1.529295
4951.000000;1.528112
4950.000000;1.525889
4949.000000;1.522862
4948.000000;1.519379
4947.000000;1.515761
4946.000000;1.512419
4945.000000;1.509623
4944.000000;1.507120
4943.000000;1.504364
4942.000000;1.501159
4941.000000;1.497827
4940.000000;1.494769
4939.000000;1.492087
4938.000000;1.489547
4937.000000;1.486736
4936.000000;1.483347
4935.000000;1.479565
4934.000000;1.476034
4933.000000;1.473258
4932.000000;1.471124
4931.000000;1.469200
4930.000000;1.467259
4929.000000;1.465260
4928.000000;1.462999
4927.000000;1.460194
4926.000000;1.456890
4925.000000;1.453463
4924.000000;1.450220
4923.000000;1.447196
4922.000000;1.444337
4921.000000;1.441647
4920.000000;1.439093
4919.000000;1.436532
4918.000000;1.433774
4917.000000;1.430698
4916.000000;1.427363
4915.000000;1.424033
4914.000000;1.420967
4913.000000;1.418105
4912.000000;1.415117
4911.000000;1.411844
4910.000000;1.408502
4909.000000;1.405321
4908.000000;1.402166
4907.000000;1.398720
4906.000000;1.394921
4905.000000;1.391056
4904.000000;1.387526
4903.000000;1.384640
4902.000000;1.382426
4901.000000;1.380466
4900.000000;1.378050
4899.000000;1.374758
4898.000000;1.370853
4897.000000;1.366955
4896.000000;1.363415
4895.000000;1.360139
4894.000000;1.356878
4893.000000;1.353531
4892.000000;1.350193
4891.000000;1.347056
4890.000000;1.344186
4889.000000;1.341302
4888.000000;1.337924
4887.000000;1.333921
4886.000000;1.329809
4885.000000;1.326290
4884.000000;1.323548
4883.000000;1.321134
4882.000000;1.318480
4881.000000;1.315368
4880.000000;1.311935
4879.000000;1.308398
4878.000000;1.304848
4877.000000;1.301233
4876.000000;1.297508
4875.000000;1.293788
4874.000000;1.290286
4873.000000;1.287091
4872.000000;1.284096
4871.000000;1.281185
4870.000000;1.278366
4869.000000;1.275631
4868.000000;1.272805
4867.000000;1.269703
4866.000000;1.266377
4865.000000;1.263078
4864.000000;1.259949
4863.000000;1.256860
4862.000000;1.253585
4861.000000;1.250092
4860.000000;1.246608
4859.000000;1.243340
4858.000000;1.240153
4857.000000;1.236664
4856.000000;1.232743
4855.000000;1.228785
4854.000000;1.225310
4853.000000;1.222373
4852.000000;1.219560
4851.000000;1.216509
4850.000000;1.213221
4849.000000;1.209852
4848.000000;1.206491
4847.000000;1.203238
4846.000000;1.200198
4845.000000;1.197264
4844.000000;1.194115
4843.000000;1.190616
4842.000000;1.187040
4841.000000;1.183702
4840.000000;1.180546
4839.000000;1.177314
4838.000000;1.173996
4837.000000;1.170823
4836.000000;1.167856
4835.000000;1.164870
4834.000000;1.161698
4833.000000;1.158485
4832.000000;1.155451
4831.000000;1.152522
4830.000000;1.149374
4829.000000;1.145841
4828.000000;1.142151
4827.000000;1.138701
4826.000000;1.135656
4825.000000;1.132860
4824.000000;1.130088
4823.000000;1.127242
4822.000000;1.124257
4821.000000;1.120983
4820.000000;1.117372
4819.000000;1.113690
4818.000000;1.110355
4817.000000;1.107526
4816.000000;1.104967
4815.000000;1.102326
4814.000000;1.099422
4813.000000;1.096272
4812.000000;1.093019
4811.000000;1.089863
4810.000000;1.086899
4809.000000;1.084000
4808.000000;1.080883
4807.000000;1.077441
4806.000000;1.073861
4805.000000;1.070448
4804.000000;1.067372
4803.000000;1.064583
4802.000000;1.061864
4801.000000;1.058927
4800.000000;1.055625
4799.000000;1.052130
4798.000000;1.048797
4797.000000;1.045803
4796.000000;1.043010
4795.000000;1.040188
4794.000000;1.037237
4793.000000;1.034147
4792.000000;1.030932
4791.000000;1.027698
4790.000000;1.024627
4789.000000;1.021801
4788.000000;1.019115
4787.000000;1.016441
4786.000000;1.013762
4785.000000;1.011059
4784.000000;1.008205
4783.000000;1.005103
4782.000000;1.001857
4781.000000;0.998703
4780.000000;0.995795
4779.000000;0.993133
4778.000000;0.990610
4777.000000;0.988066
4776.000000;0.985362
4775.000000;0.982495
4774.000000;0.979604
4773.000000;0.976795
4772.000000;0.974027
4771.000000;0.971215
4770.000000;0.968349
4769.000000;0.965456
4768.000000;0.962539
4767.000000;0.959634
4766.000000;0.956835
4765.000000;0.954176
4764.000000;0.951539
4763.000000;0.948808
4762.000000;0.946028
4761.000000;0.943323
4760.000000;0.940690
4759.000000;0.938001
4758.000000;0.935195
4757.000000;0.932374
4756.000000;0.929674
4755.000000;0.927125
4754.000000;0.924638
4753.000000;0.922092
4752.000000;0.919419
4751.000000;0.916651
4750.000000;0.913909
4749.000000;0.911332
4748.000000;0.908980
4747.000000;0.906780
4746.000000;0.904565
4745.000000;0.902199
4744.000000;0.899674
4743.000000;0.897088
4742.000000;0.894485
4741.000000;0.891813
4740.000000;0.889055
4739.000000;0.886343
4738.000000;0.883825
4737.000000;0.881481
4736.000000;0.879179
4735.000000;0.876890
4734.000000;0.874679
4733.000000;0.872520
4732.000000;0.870270
4731.000000;0.867873
4730.000000;0.865425
4729.000000;0.862991
4728.000000;0.860517
4727.000000;0.858003
4726.000000;0.855589
4725.000000;0.853356
4724.000000;0.851184
4723.000000;0.848905
4722.000000;0.846531
4721.000000;0.844182
4720.000000;0.841896
4719.000000;0.839639
4718.000000;0.837432
4717.000000;0.835320
4716.000000;0.833230
4715.000000;0.831015
4714.000000;0.828649
4713.000000;0.826291
4712.000000;0.824143
4711.000000;0.822282
4710.000000;0.820625
4709.000000;0.818988
4708.000000;0.817175
4707.000000;0.815078
4706.000000;0.812730
4705.000000;0.810261
4704.000000;0.807834
4703.000000;0.805613
4702.000000;0.803700
4701.000000;0.802014
4700.000000;0.800313
4699.000000;0.798397
4698.000000;0.796285
4697.000000;0.794146
4696.000000;0.792114
4695.000000;0.790214
4694.000000;0.788424
4693.000000;0.786698
4692.000000;0.784961
4691.000000;0.783152
4690.000000;0.781278
4689.000000;0.779401
4688.000000;0.777582
4687.000000;0.775857
4686.000000;0.774232
4685.000000;0.772652
4684.000000;0.771026
4683.000000;0.769322
4682.000000;0.767581
4681.000000;0.765828
4680.000000;0.764034
4679.000000;0.762220
4678.000000;0.760510
4677.000000;0.758985
4676.000000;0.757555
4675.000000;0.756066
4674.000000;0.754489
4673.000000;0.752907
4672.000000;0.751346
4671.000000;0.749742
4670.000000;0.748076
4669.000000;0.746441
4668.000000;0.744932
4667.000000;0.743541
4666.000000;0.742180
4665.000000;0.740766
4664.000000;0.739276
4663.000000;0.737739
4662.000000;0.736193
4661.000000;0.734641
4660.000000;0.733070
4659.000000;0.731541
4658.000000;0.730185
4657.000000;0.729043
4656.000000;0.727970
4655.000000;0.726776
4654.000000;0.725444
4653.000000;0.724109
4652.000000;0.722843
4651.000000;0.721561
4650.000000;0.720165
4649.000000;0.718691
4648.000000;0.717269
4647.000000;0.715992
4646.000000;0.714848
4645.000000;0.713754
4644.000000;0.712623
4643.000000;0.711428
4642.000000;0.710209
4641.000000;0.708999
4640.000000;0.707768
4639.000000;0.706475
4638.000000;0.705158
4637.000000;0.703920
4636.000000;0.702797
4635.000000;0.701722
4634.000000;0.700610
4633.000000;0.699450
4632.000000;0.698272
4631.000000;0.697093
4630.000000;0.695932
4629.000000;0.694852
4628.000000;0.693915
4627.000000;0.693110
4626.000000;0.692341
4625.000000;0.691514
4624.000000;0.690602
4623.000000;0.689637
4622.000000;0.688643
4621.000000;0.687627
4620.000000;0.686616
4619.000000;0.685683
4618.000000;0.684889
4617.000000;0.684198
4616.000000;0.683494
4615.000000;0.682701
4614.000000;0.681855
4613.000000;0.681007
4612.000000;0.680124
4611.000000;0.679138
4610.000000;0.678089
4609.000000;0.677131
4608.000000;0.676368
4607.000000;0.675741
4606.000000;0.675118
4605.000000;0.674419
4604.000000;0.673624
4603.000000;0.672709
4602.000000;0.671686
4601.000000;0.670702
4600.000000;0.669969
4599.000000;0.669529
4598.000000;0.669145
4597.000000;0.668523
4596.000000;0.667635
4595.000000;0.666745
4594.000000;0.666111
4593.000000;0.665740
4592.000000;0.665450
4591.000000;0.665084
4590.000000;0.664607
4589.000000;0.664055
4588.000000;0.663495
4587.000000;0.663006
4586.000000;0.662629
4585.000000;0.662307
4584.000000;0.661923
4583.000000;0.661430
4582.000000;0.660903
4581.000000;0.660465
4580.000000;0.660198
4579.000000;0.660097
4578.000000;0.660073
4577.000000;0.659970
4576.000000;0.659660
4575.000000;0.659150
4574.000000;0.658585
4573.000000;0.658130
4572.000000;0.657858
4571.000000;0.657724
4570.000000;0.657617
4569.000000;0.657439
4568.000000;0.657186
4567.000000;0.656941
4566.000000;0.656775
4565.000000;0.656676
4564.000000;0.656603
4563.000000;0.656569
4562.000000;0.656604
4561.000000;0.656658
4560.000000;0.656624
4559.000000;0.656481
4558.000000;0.656329
4557.000000;0.656293
4556.000000;0.656439
4555.000000;0.656792
4554.000000;0.657315
4553.000000;0.657848
4552.000000;0.658174
4551.000000;0.658215
4550.000000;0.658103
4549.000000;0.658025
4548.000000;0.658051
4547.000000;0.658168
4546.000000;0.658388
4545.000000;0.658744
4544.000000;0.659216
4543.000000;0.659717
4542.000000;0.660152
4541.000000;0.660484
4540.000000;0.660753
4539.000000;0.661064
4538.000000;0.661481
4537.000000;0.661927
4536.000000;0.662254
4535.000000;0.662448
4534.000000;0.662680
4533.000000;0.663090
4532.000000;0.663613
4531.000000;0.664076
4530.000000;0.664388
4529.000000;0.664563
4528.000000;0.664622
4527.000000;0.664607
4526.000000;0.664651
4525.000000;0.664909
4524.000000;0.665390
4523.000000;0.665942
4522.000000;0.666409
4521.000000;0.666756
4520.000000;0.667048
4519.000000;0.667365
4518.000000;0.667747
4517.000000;0.668185
4516.000000;0.668617
4515.000000;0.668975
4514.000000;0.669225
4513.000000;0.669393
4512.000000;0.669569
4511.000000;0.669890
4510.000000;0.670432
4509.000000;0.671083
4508.000000;0.671597
4507.000000;0.671846
4506.000000;0.671983
4505.000000;0.672284
4504.000000;0.672857
4503.000000;0.673588
4502.000000;0.674309
4501.000000;0.674931
4500.000000;0.675431
4499.000000;0.675799
4498.000000;0.676072
4497.000000;0.676337
4496.000000;0.676675
4495.000000;0.677111
4494.000000;0.677641
4493.000000;0.678263
4492.000000;0.678990
4491.000000;0.679833
4490.000000;0.680768
4489.000000;0.681716
4488.000000;0.682572
4487.000000;0.683289
4486.000000;0.683918
4485.000000;0.684547
4484.000000;0.685233
4483.000000;0.686002
4482.000000;0.686876
4481.000000;0.687838
4480.000000;0.688815
4479.000000;0.689745
4478.000000;0.690676
4477.000000;0.691727
4476.000000;0.692965
4475.000000;0.694326
4474.000000;0.695643
4473.000000;0.696765
4472.000000;0.697667
4471.000000;0.698492
4470.000000;0.699454
4469.000000;0.700667
4468.000000;0.702085
4467.000000;0.703576
4466.000000;0.705023
4465.000000;0.706374
4464.000000;0.707652
4463.000000;0.708957
4462.000000;0.710363
4461.000000;0.711808
4460.000000;0.713158
4459.000000;0.714420
4458.000000;0.715783
4457.000000;0.717392
4456.000000;0.719175
4455.000000;0.720970
4454.000000;0.722700
4453.000000;0.724351
4452.000000;0.725875
4451.000000;0.727281
4450.000000;0.728721
4449.000000;0.730334
4448.000000;0.732060
4447.000000;0.733738
4446.000000;0.735364
4445.000000;0.737069
4444.000000;0.738882
4443.000000;0.740698
4442.000000;0.742484
4441.000000;0.744338
4440.000000;0.746303
4439.000000;0.748280
4438.000000;0.750201
4437.000000;0.752121
4436.000000;0.754077
4435.000000;0.755998
4434.000000;0.757856
4433.000000;0.759792
4432.000000;0.761947
4431.000000;0.764246
4430.000000;0.766471
4429.000000;0.768507
4428.000000;0.770433
4427.000000;0.772404
4426.000000;0.774528
4425.000000;0.776819
4424.000000;0.779187
4423.000000;0.781482
4422.000000;0.783643
4421.000000;0.785786
4420.000000;0.788075
4419.000000;0.790513
4418.000000;0.792945
4417.000000;0.795253
4416.000000;0.797486
4415.000000;0.799779
4414.000000;0.802195
4413.000000;0.804685
4412.000000;0.807147
4411.000000;0.809508
4410.000000;0.811761
4409.000000;0.813969
4408.000000;0.816226
4407.000000;0.818586
4406.000000;0.821037
4405.000000;0.823537
4404.000000;0.826072
4403.000000;0.828648
4402.000000;0.831233
4401.000000;0.833760
4400.000000;0.836217
4399.000000;0.838720
4398.000000;0.841409
4397.000000;0.844274
4396.000000;0.847114
4395.000000;0.849727
4394.000000;0.852101
4393.000000;0.854383
4392.000000;0.856713
4391.000000;0.859173
4390.000000;0.861853
4389.000000;0.864837
4388.000000;0.868027
4387.000000;0.871105
4386.000000;0.873790
4385.000000;0.876169
4384.000000;0.878653
4383.000000;0.881562
4382.000000;0.884788
4381.000000;0.887943
4380.000000;0.890800
4379.000000;0.893488
4378.000000;0.896247
4377.000000;0.899123
4376.000000;0.901991
4375.000000;0.904817
4374.000000;0.907739
4373.000000;0.910852
4372.000000;0.914017
4371.000000;0.917021
4370.000000;0.919864
4369.000000;0.922801
4368.000000;0.926046
4367.000000;0.929491
4366.000000;0.932813
4365.000000;0.935850
4364.000000;0.938775
4363.000000;0.941852
4362.000000;0.945101
4361.000000;0.948366
4360.000000;0.951655
4359.000000;0.955179
4358.000000;0.958977
4357.000000;0.962728
4356.000000;0.966119
4355.000000;0.969242
4354.000000;0.972415
4353.000000;0.975716
4352.000000;0.978983
4351.000000;0.982190
4350.000000;0.985517
4349.000000;0.989019
4348.000000;0.992567
4347.000000;0.996216
4346.000000;1.000313
4345.000000;1.005007
4344.000000;1.009837
4343.000000;1.014071
4342.000000;1.017426
4341.000000;1.020309
4340.000000;1.023406
4339.000000;1.027149
4338.000000;1.031468
4337.000000;1.035922
4336.000000;1.040124
4335.000000;1.044112
4334.000000;1.048195
4333.000000;1.052453
4332.000000;1.056590
4331.000000;1.060373
4330.000000;1.063953
4329.000000;1.067596
4328.000000;1.071364
4327.000000;1.075299
4326.000000;1.079648
4325.000000;1.084583
4324.000000;1.089842
4323.000000;1.094935
4322.000000;1.099623
4321.000000;1.103947
4320.000000;1.107923
4319.000000;1.111588
4318.000000;1.115285
4317.000000;1.119483
4316.000000;1.124251
4315.000000;1.129158
4314.000000;1.133780
4313.000000;1.138041
4312.000000;1.142016
4311.000000;1.145717
4310.000000;1.149224
4309.000000;1.152844
4308.000000;1.156949
4307.000000;1.161688
4306.000000;1.166833
4305.000000;1.171854
4304.000000;1.176261
4303.000000;1.180122
4302.000000;1.184136
4301.000000;1.188938
4300.000000;1.194338
4299.000000;1.199522
4298.000000;1.204031
4297.000000;1.208248
4296.000000;1.212838
4295.000000;1.218027
4294.000000;1.223512
4293.000000;1.228773
4292.000000;1.233312
4291.000000;1.236961
4290.000000;1.240241
4289.000000;1.244200
4288.000000;1.249555
4287.000000;1.255975
4286.000000;1.262369
4285.000000;1.267867
4284.000000;1.272440
4283.000000;1.276685
4282.000000;1.281257
4281.000000;1.286509
4280.000000;1.292367
4279.000000;1.298338
4278.000000;1.303660
4277.000000;1.307756
4276.000000;1.310822
4275.000000;1.313984
4274.000000;1.318516
4273.000000;1.324651
4272.000000;1.331224
4271.000000;1.336799
4270.000000;1.341185
4269.000000;1.345494
4268.000000;1.350668
4267.000000;1.356430
4266.000000;1.361960
4265.000000;1.367187
4264.000000;1.372858
4263.000000;1.379361
4262.000000;1.385998
4261.000000;1.391653
4260.000000;1.395950
4259.000000;1.399530
4258.000000;1.403332
4257.000000;1.407870
4256.000000;1.413130
4255.000000;1.418838
4254.000000;1.424674
4253.000000;1.430385
4252.000000;1.435930
4251.000000;1.441492
4250.000000;1.447216
4249.000000;1.453016
4248.000000;1.458795
4247.000000;1.464752
4246.000000;1.471040
4245.000000;1.477271
4244.000000;1.482528
4243.000000;1.486325
4242.000000;1.489324
4241.000000;1.492770
4240.000000;1.497313
4239.000000;1.502521
4238.000000;1.507528
4237.000000;1.511973
4236.000000;1.516251
4235.000000;1.520950
4234.000000;1.526244
4233.000000;1.531972
4232.000000;1.538251
4231.000000;1.545523
4230.000000;1.553652
4229.000000;1.561362
4228.000000;1.567315
4227.000000;1.571853
4226.000000;1.576791
4225.000000;1.583098
4224.000000;1.589552
4223.000000;1.594331
4222.000000;1.597496
4221.000000;1.601106
4220.000000;1.607058
4219.000000;1.615481
4218.000000;1.625024
4217.000000;1.633937
4216.000000;1.640842
4215.000000;1.645290
4214.000000;1.648100
4213.000000;1.650811
4212.000000;1.654399
4211.000000;1.658698
4210.000000;1.663296
4209.000000;1.668635
4208.000000;1.675678
4207.000000;1.684607
4206.000000;1.694441
4205.000000;1.704143
4204.000000;1.713575
4203.000000;1.722761
4202.000000;1.730583
4201.000000;1.735510
4200.000000;1.738052
4199.000000;1.741147
4198.000000;1.746979
4197.000000;1.754098
4196.000000;1.759036
4195.000000;1.760780
4194.000000;1.762096
4193.000000;1.766161
4192.000000;1.773595
4191.000000;1.783248
4190.000000;1.794060
4189.000000;1.804882
4188.000000;1.813607
4187.000000;1.818153
4186.000000;1.818430
4185.000000;1.816656
4184.000000;1.815602
4183.000000;1.817031
4182.000000;1.821600
4181.000000;1.828929
4180.000000;1.837413
4179.000000;1.844966
4178.000000;1.850576
4177.000000;1.854725
4176.000000;1.858255
4175.000000;1.861291
4174.000000;1.863432
4173.000000;1.865298
4172.000000;1.869347
4171.000000;1.878216
4170.000000;1.891809
4169.000000;1.905740
4168.000000;1.914089
4167.000000;1.915296
4166.000000;1.913991
4165.000000;1.915689
4164.000000;1.921573
4163.000000;1.929345
4162.000000;1.937078
4161.000000;1.943911
4160.000000;1.948342
4159.000000;1.949509
4158.000000;1.949493
4157.000000;1.951914
4156.000000;1.957727
4155.000000;1.963622
4154.000000;1.966188
4153.000000;1.966597
4152.000000;1.969370
4151.000000;1.977698
4150.000000;1.990530
4149.000000;2.003139
4148.000000;2.010846
4147.000000;2.012679
4146.000000;2.011459
4145.000000;2.011380
4144.000000;2.014697
4143.000000;2.019778
4142.000000;2.023062
4141.000000;2.023263
4140.000000;2.023369
4139.000000;2.027894
4138.000000;2.038439
4137.000000;2.052398
4136.000000;2.065342
4135.000000;2.074537
4134.000000;2.080267
4133.000000;2.084125
4132.000000;2.087270
4131.000000;2.090564
4130.000000;2.095000
4129.000000;2.101152
4128.000000;2.107686
4127.000000;2.110755
4126.000000;2.107536
4125.000000;2.101162
4124.000000;2.098727
4123.000000;2.103632
4122.000000;2.111629
4121.000000;2.115607
4120.000000;2.114507
4119.000000;2.114702
4118.000000;2.121622
4117.000000;2.132774
4116.000000;2.141082
4115.000000;2.144510
4114.000000;2.148657
4113.000000;2.158698
4112.000000;2.173278
4111.000000;2.187474
4110.000000;2.198925
4109.000000;2.209114
4108.000000;2.218423
4107.000000;2.222364
4106.000000;2.216269
4105.000000;2.203580
4104.000000;2.195012
4103.000000;2.198213
4102.000000;2.210414
4101.000000;2.221359
4100.000000;2.224056
4099.000000;2.222074
4098.000000;2.224052
4097.000000;2.234071
4096.000000;2.248850
4095.000000;2.261354
4094.000000;2.267126
4093.000000;2.266634
4092.000000;2.262683
4091.000000;2.258220
4090.000000;2.254563
4089.000000;2.251151
4088.000000;2.249432
4087.000000;2.254088
4086.000000;2.266589
4085.000000;2.280359
4084.000000;2.287636
4083.000000;2.289296
4082.000000;2.292341
4081.000000;2.300804
4080.000000;2.313178
4079.000000;2.325611
4078.000000;2.332821
4077.000000;2.328137
4076.000000;2.311077
4075.000000;2.294336
4074.000000;2.293536
4073.000000;2.309702
4072.000000;2.327293
4071.000000;2.332433
4070.000000;2.326673
4069.000000;2.318807
4068.000000;2.313009
4067.000000;2.308303
4066.000000;2.304228
4065.000000;2.301748
4064.000000;2.300764
4063.000000;2.301186
4062.000000;2.302876
4061.000000;2.304688
4060.000000;2.309447
4059.000000;2.322121
4058.000000;2.338805
4057.000000;2.343291
4056.000000;2.323272
4055.000000;2.292481
4054.000000;2.279253
4053.000000;2.298342
4052.000000;2.338773
4051.000000;2.372129
4050.000000;2.380366
4049.000000;2.372106
4048.000000;2.363855
4047.000000;2.361214
4046.000000;2.362963
4045.000000;2.369827
4044.000000;2.380741
4043.000000;2.387778
4042.000000;2.382730
4041.000000;2.367517
4040.000000;2.353698
4039.000000;2.352806
4038.000000;2.368364
4037.000000;2.395979
4036.000000;2.429875
4035.000000;2.465496
4034.000000;2.493240
4033.000000;2.496642
4032.000000;2.469891
4031.000000;2.427517
4030.000000;2.386288
4029.000000;2.357942
4028.000000;2.352630
4027.000000;2.375098
4026.000000;2.418089
4025.000000;2.457134
4024.000000;2.466564
4023.000000;2.456593
4022.000000;2.450528
4021.000000;2.445242
4020.000000;2.432038
4019.000000;2.426015
4018.000000;2.443358
4017.000000;2.470105
4016.000000;2.476348
4015.000000;2.459528
4014.000000;2.445464
4013.000000;2.451425
4012.000000;2.476232
4011.000000;2.510032
4010.000000;2.528995
4009.000000;2.513747
4008.000000;2.484033
4007.000000;2.474799
4006.000000;2.505191
4005.000000;2.557222
4004.000000;2.574904
4003.000000;2.534987
4002.000000;2.484028
4001.000000;2.460431
4000.000000;2.467595
3999.000000;2.495875
3998.000000;2.535595
3997.000000;2.569177
3996.000000;2.571782
3995.000000;2.544097
3994.000000;2.522101
3993.000000;2.533702
3992.000000;2.570868
3991.000000;2.603702
3990.000000;2.615235
3989.000000;2.611863
3988.000000;2.600469
3987.000000;2.583325
3986.000000;2.571962
3985.000000;2.582633
3984.000000;2.616887
3983.000000;2.654333
3982.000000;2.670014
3981.000000;2.662966
3980.000000;2.645670
3979.000000;2.626497
3978.000000;2.616815
3977.000000;2.621017
3976.000000;2.626244
3975.000000;2.617333
3974.000000;2.597297
3973.000000;2.577806
3972.000000;2.566248
3971.000000;2.573424
3970.000000;2.611034
3969.000000;2.682385
3968.000000;2.763239
3967.000000;2.811316
3966.000000;2.825227
3965.000000;2.818963
3964.000000;2.811821
3963.000000;2.821672
3962.000000;2.836881
3961.000000;2.833828
3960.000000;2.799647
3959.000000;2.741417
3958.000000;2.677734
3957.000000;2.623159
3956.000000;2.589274
3955.000000;2.585460
3954.000000;2.618747
3953.000000;2.682347
3952.000000;2.739526
3951.000000;2.774547
3950.000000;2.821347
3949.000000;2.907314
3948.000000;3.013499
3947.000000;3.097582
3946.000000;3.154581
3945.000000;3.136291
3944.000000;3.062552
3943.000000;2.995102
3942.000000;2.944380
3941.000000;2.931973
3940.000000;2.955220
3939.000000;2.973024
3938.000000;2.956348
3937.000000;2.928831
3936.000000;2.915743
3935.000000;2.924410
3934.000000;2.946461
3933.000000;2.956361
3932.000000;2.950453
3931.000000;2.950407
3930.000000;2.968606
3929.000000;2.976879
3928.000000;2.939700
3927.000000;2.903571
3926.000000;2.897800
3925.000000;2.900606
3924.000000;2.905239
3923.000000;2.917118
3922.000000;2.932380
3921.000000;2.955233
3920.000000;2.993956
3919.000000;3.041311
3918.000000;3.066497
3917.000000;3.036864
3916.000000;2.976457
3915.000000;2.929504
3914.000000;2.902252
3913.000000;2.859861
3912.000000;2.774326
3911.000000;2.690024
3910.000000;2.669796
3909.000000;2.726420
3908.000000;2.839249
3907.000000;2.969515
3906.000000;3.084185
3905.000000;3.183271
3904.000000;3.276686
3903.000000;3.389149
3902.000000;3.550466
3901.000000;3.760804
3900.000000;3.939841
3899.000000;3.895096
3898.000000;3.790345
3897.000000;3.688928
3896.000000;3.663643
3895.000000;3.997058
3894.000000;4.015903
3893.000000;3.580403
3892.000000;3.529280
3891.000000;3.536520
3890.000000;3.650167
3889.000000;3.590838
3888.000000;3.531831
3887.000000;3.590743
3886.000000;4.060466
3885.000000;4.092569
3884.000000;3.592508
3883.000000;3.557577
3882.000000;3.606075
3881.000000;3.693604
3880.000000;3.853250
3879.000000;4.147068
3878.000000;3.682326
3877.000000;3.417017
3876.000000;3.275473
3875.000000;3.178710
3874.000000;3.172045
3873.000000;3.322433
3872.000000;3.671831
3871.000000;4.318908
3870.000000;4.401455
3869.000000;4.236766
3868.000000;3.656645
3867.000000;3.417483
3866.000000;3.322998
3865.000000;3.309696
3864.000000;3.464891
3863.000000;3.906322
3862.000000;3.924345
3861.000000;3.640208
3860.000000;3.457922
3859.000000;3.222915
3858.000000;3.113556
3857.000000;3.171676
3856.000000;3.379238
3855.000000;3.654139
3854.000000;3.403764
3853.000000;3.128973
3852.000000;3.060067
3851.000000;3.123680
3850.000000;3.234471
3849.000000;3.328873
3848.000000;3.366388
3847.000000;3.267413
3846.000000;3.154091
3845.000000;3.155799
3844.000000;3.226457
3843.000000;3.281706
3842.000000;3.393023
3841.000000;3.483559
3840.000000;3.530961
3839.000000;3.631544
3838.000000;3.735869
3837.000000;3.710037
3836.000000;3.639602
3835.000000;3.584911
3834.000000;3.568010
3833.000000;3.611383
3832.000000;3.428144
3831.000000;3.178864
3830.000000;3.107126
3829.000000;3.133782
3828.000000;3.140719
3827.000000;3.182075
3826.000000;3.279118
3825.000000;3.177407
3824.000000;3.158647
3823.000000;3.320348
3822.000000;3.657918
3821.000000;4.113366
3820.000000;4.109537
3819.000000;3.615682
3818.000000;3.392466
3817.000000;3.254131
3816.000000;3.246645
3815.000000;3.288192
3814.000000;3.053506
3813.000000;2.962263
3812.000000;2.857150
3811.000000;2.788047
3810.000000;2.838323
3809.000000;3.064678
3808.000000;3.413672
3807.000000;3.431425
3806.000000;3.520932
3805.000000;3.844066
3804.000000;3.664819
3803.000000;3.568104
3802.000000;3.447703
3801.000000;3.480070
3800.000000;3.512244
3799.000000;3.365373
3798.000000;3.343075
3797.000000;3.292581
3796.000000;3.239019
3795.000000;3.214667
3794.000000;3.103861
3793.000000;2.908983
3792.000000;2.763696
3791.000000;2.731955
3790.000000;2.877773
3789.000000;3.316391
3788.000000;3.331181
3787.000000;3.036041
3786.000000;3.034249
3785.000000;3.099677
3784.000000;3.110047
3783.000000;3.101004
3782.000000;3.274480
3781.000000;3.462062
3780.000000;3.676791
3779.000000;3.736928
3778.000000;3.146358
3777.000000;2.851441
3776.000000;2.703127
3775.000000;2.609668
3774.000000;2.585507
3773.000000;2.682400
3772.000000;2.893426
3771.000000;3.005918
3770.000000;2.987344
3769.000000;2.985661
3768.000000;3.005409
3767.000000;3.025496
3766.000000;3.016108
3765.000000;2.992236
3764.000000;3.109633
3763.000000;3.529049
3762.000000;3.230094
3761.000000;3.025578
3760.000000;3.054117
3759.000000;3.307200
3758.000000;3.915961
3757.000000;4.156405
3756.000000;3.580278
3755.000000;3.349738
3754.000000;3.294324
3753.000000;3.391265
3752.000000;3.899440
3751.000000;3.822519
3750.000000;3.495652
3749.000000;3.433601
3748.000000;3.322140
3747.000000;3.317535
3746.000000;3.303893
3745.000000;3.183580
3744.000000;3.024375
3743.000000;2.975204
3742.000000;3.028802
3741.000000;3.064633
3740.000000;3.059063
3739.000000;3.096221
3738.000000;3.210578
3737.000000;3.283335
3736.000000;3.279192
3735.000000;3.327417
3734.000000;3.453467
3733.000000;3.598480
3732.000000;3.753526
3731.000000;3.970147
3730.000000;3.864663
3729.000000;3.617636
3728.000000;3.579285
3727.000000;3.568095
3726.000000;3.506436
3725.000000;3.372547
3724.000000;3.233400
3723.000000;3.171243
3722.000000;3.224019
3721.000000;3.449600
3720.000000;4.185916
3719.000000;4.242691
3718.000000;3.627646
3717.000000;3.234190
3716.000000;3.076252
3715.000000;3.159384
3714.000000;3.492658
3713.000000;4.116652
3712.000000;3.492124
3711.000000;3.394124
3710.000000;3.420698
3709.000000;3.328293
3708.000000;3.128413
3707.000000;2.950970
3706.000000;2.812344
3705.000000;2.728891
3704.000000;2.740288
3703.000000;2.704495
3702.000000;2.586179
3701.000000;2.580385
3700.000000;2.705795
3699.000000;3.257705
3698.000000;3.143478
3697.000000;2.660347
3696.000000;2.571519
3695.000000;2.521401
3694.000000;2.531582
3693.000000;2.657955
3692.000000;2.910473
3691.000000;3.174298
3690.000000;3.378188
3689.000000;3.603054
3688.000000;3.531966
3687.000000;3.381121
3686.000000;3.231851
3685.000000;3.036562
3684.000000;2.927033
3683.000000;2.802341
3682.000000;2.692740
3681.000000;2.706076
3680.000000;2.906789
3679.000000;3.198418
3678.000000;3.073677
3677.000000;3.005026
3676.000000;3.029450
3675.000000;3.170579
3674.000000;3.359860
3673.000000;3.319942
3672.000000;3.251819
3671.000000;3.361263
3670.000000;3.429444
3669.000000;2.978684
3668.000000;2.796203
3667.000000;2.801215
3666.000000;2.846047
3665.000000;2.887656
3664.000000;2.885819
3663.000000;2.844028
3662.000000;3.027824
3661.000000;3.177527
3660.000000;2.711388
3659.000000;2.673780
3658.000000;2.796167
3657.000000;2.804513
3656.000000;2.779569
3655.000000;2.851996
3654.000000;3.036663
3653.000000;3.220530
3652.000000;3.352442
3651.000000;3.431078
3650.000000;3.267474
3649.000000;3.190962
3648.000000;3.274984
3647.000000;3.327326
3646.000000;3.291696
3645.000000;3.326488
3644.000000;2.981562
3643.000000;2.760420
3642.000000;3.090355
3641.000000;2.718563
3640.000000;2.368820
3639.000000;2.297917
3638.000000;2.261810
3637.000000;2.255165
3636.000000;2.276150
3635.000000;2.317682
3634.000000;2.345787
3633.000000;2.430971
3632.000000;2.699446
3631.000000;3.124298
3630.000000;3.019792
3629.000000;2.982501
3628.000000;3.061469
3627.000000;3.113589
3626.000000;3.070664
3625.000000;3.047367
3624.000000;2.936206
3623.000000;2.690625
3622.000000;2.612273
3621.000000;2.770422
3620.000000;3.056077
3619.000000;3.015349
3618.000000;2.871425
3617.000000;2.828845
3616.000000;2.827316
3615.000000;2.831930
3614.000000;2.827329
3613.000000;2.875989
3612.000000;3.005537
3611.000000;3.484311
3610.000000;3.217230
3609.000000;2.808054
3608.000000;2.651052
3607.000000;2.603978
3606.000000;2.583676
3605.000000;2.581251
3604.000000;2.660808
3603.000000;2.797819
3602.000000;2.751307
3601.000000;2.600701
3600.000000;2.526313
3599.000000;2.593452
3598.000000;2.815626
3597.000000;2.871900
3596.000000;3.000031
3595.000000;3.221498
3594.000000;2.726554
3593.000000;2.544002
3592.000000;2.502253
3591.000000;2.459875
3590.000000;2.456550
3589.000000;2.581468
3588.000000;2.917659
3587.000000;3.151282
3586.000000;2.972961
3585.000000;2.898394
3584.000000;2.887944
3583.000000;2.547469
3582.000000;2.229873
3581.000000;2.094994
3580.000000;2.103377
3579.000000;2.200368
3578.000000;2.287711
3577.000000;2.327431
3576.000000;2.375208
3575.000000;2.392753
3574.000000;2.454015
3573.000000;2.716387
3572.000000;2.653815
3571.000000;2.441862
3570.000000;2.453649
3569.000000;2.511007
3568.000000;2.591484
3567.000000;2.669799
3566.000000;2.740153
3565.000000;2.813933
3564.000000;2.931225
3563.000000;2.833890
3562.000000;2.668840
3561.000000;2.866147
3560.000000;2.600143
3559.000000;2.254752
3558.000000;2.163346
3557.000000;2.195196
3556.000000;2.295789
3555.000000;2.364617
3554.000000;2.339248
3553.000000;2.303499
3552.000000;2.337827
3551.000000;2.453827
3550.000000;2.422217
3549.000000;2.264875
3548.000000;2.249070
3547.000000;2.371784
3546.000000;2.563567
3545.000000;2.694619
3544.000000;2.829529
3543.000000;3.009416
3542.000000;2.837293
3541.000000;2.768249
3540.000000;2.890620
3539.000000;2.589452
3538.000000;2.259972
3537.000000;2.173142
3536.000000;2.261933
3535.000000;2.772370
3534.000000;2.783803
3533.000000;2.478071
3532.000000;2.523861
3531.000000;2.319331
3530.000000;2.157343
3529.000000;2.150027
3528.000000;2.274591
3527.000000;2.586992
3526.000000;3.201723
3525.000000;2.730725
3524.000000;2.707011
3523.000000;2.987485
3522.000000;2.546965
3521.000000;2.278864
3520.000000;2.190163
3519.000000;2.171204
3518.000000;2.137758
3517.000000;2.078662
3516.000000;2.033664
3515.000000;2.018605
3514.000000;2.038610
3513.000000;2.110532
3512.000000;2.231124
3511.000000;2.336341
3510.000000;2.335151
3509.000000;2.224375
3508.000000;2.116029
3507.000000;2.070833
3506.000000;2.091344
3505.000000;2.163930
3504.000000;2.283278
3503.000000;2.327612
3502.000000;2.193800
3501.000000;2.085123
3500.000000;2.055349
3499.000000;2.083256
3498.000000;2.169140
3497.000000;2.334536
3496.000000;2.723230
3495.000000;3.334544
3494.000000;2.645514
3493.000000;2.430955
3492.000000;2.280477
3491.000000;2.209315
3490.000000;2.196943
3489.000000;2.192998
3488.000000;2.203086
3487.000000;2.376460
3486.000000;2.791312
3485.000000;2.520251
3484.000000;2.314350
3483.000000;2.430834
3482.000000;2.699308
3481.000000;2.761252
3480.000000;2.642667
3479.000000;2.505515
3478.000000;2.353584
3477.000000;2.271241
3476.000000;2.258587
3475.000000;2.310829
3474.000000;2.462132
3473.000000;2.715930
3472.000000;2.680708
3471.000000;2.581094
3470.000000;2.786133
3469.000000;2.974920
3468.000000;2.392708
3467.000000;2.208198
3466.000000;2.225640
3465.000000;2.336898
3464.000000;2.297747
3463.000000;2.263625
3462.000000;2.375316
3461.000000;2.465532
3460.000000;2.429655
3459.000000;2.370459
3458.000000;2.289053
3457.000000;2.221718
3456.000000;2.221736
3455.000000;2.299835
3454.000000;2.419562
3453.000000;2.503831
3452.000000;2.534972
3451.000000;2.595052
3450.000000;2.682598
3449.000000;2.645022
3448.000000;2.570430
3447.000000;2.578517
3446.000000;2.658859
3445.000000;2.666620
3444.000000;2.594124
3443.000000;2.628340
3442.000000;2.761232
3441.000000;2.930634
3440.000000;3.082179
3439.000000;2.826098
3438.000000;2.959260
3437.000000;3.263378
3436.000000;2.624884
3435.000000;2.478053
3434.000000;2.529630
3433.000000;2.404210
3432.000000;2.159646
3431.000000;2.078326
3430.000000;2.129101
3429.000000;2.261761
3428.000000;2.412679
3427.000000;2.444449
3426.000000;2.361055
3425.000000;2.337350
3424.000000;2.422416
3423.000000;2.541593
3422.000000;2.532784
3421.000000;2.474354
3420.000000;2.492993
3419.000000;2.496172
3418.000000;2.356837
3417.000000;2.224363
3416.000000;2.157969
3415.000000;2.141563
3414.000000;2.165288
3413.000000;2.223713
3412.000000;2.302850
3411.000000;2.371909
3410.000000;2.381103
3409.000000;2.337371
3408.000000;2.336426
3407.000000;2.422269
3406.000000;2.743193
3405.000000;3.181803
3404.000000;2.728739
3403.000000;2.567093
3402.000000;2.658445
3401.000000;2.879196
3400.000000;2.778282
3399.000000;2.649339
3398.000000;2.665086
3397.000000;2.711377
3396.000000;2.798284
3395.000000;2.835719
3394.000000;2.816418
3393.000000;2.812055
3392.000000;2.863547
3391.000000;2.837032
3390.000000;2.591459
3389.000000;2.415455
3388.000000;2.330137
3387.000000;2.298333
3386.000000;2.323542
3385.000000;2.415150
3384.000000;2.550946
3383.000000;2.690526
3382.000000;2.742400
3381.000000;2.599752
3380.000000;2.461235
3379.000000;2.411080
3378.000000;2.407615
3377.000000;2.454270
3376.000000;2.559460
3375.000000;2.618831
3374.000000;2.580260
3373.000000;2.545684
3372.000000;2.563965
3371.000000;2.750974
3370.000000;2.936420
3369.000000;2.593710
3368.000000;2.449408
3367.000000;2.520893
3366.000000;2.802972
3365.000000;3.550594
3364.000000;2.921738
3363.000000;2.680299
3362.000000;2.508356
3361.000000;2.388285
3360.000000;2.398065
3359.000000;2.544056
3358.000000;2.782810
3357.000000;2.807954
3356.000000;2.668409
3355.000000;2.595796
3354.000000;2.574048
3353.000000;2.554197
3352.000000;2.517747
3351.000000;2.493199
3350.000000;2.513290
3349.000000;2.579005
3348.000000;2.648257
3347.000000;2.687876
3346.000000;2.764612
3345.000000;3.056424
3344.000000;2.941863
3343.000000;2.621820
3342.000000;2.487912
3341.000000;2.477307
3340.000000;2.606947
3339.000000;2.860522
3338.000000;3.069259
3337.000000;3.258865
3336.000000;3.578971
3335.000000;3.289631
3334.000000;2.889518
3333.000000;2.642413
3332.000000;2.512125
3331.000000;2.501433
3330.000000;2.803177
3329.000000;3.221044
3328.000000;2.641005
3327.000000;2.554287
3326.000000;2.587008
3325.000000;2.653176
3324.000000;2.746679
3323.000000;2.871093
3322.000000;2.969131
3321.000000;3.020378
3320.000000;2.979711
3319.000000;2.804432
3318.000000;2.739613
3317.000000;2.925622
3316.000000;3.063330
3315.000000;2.793126
3314.000000;2.661432
3313.000000;2.624917
3312.000000;2.572853
3311.000000;2.477445
3310.000000;2.395151
3309.000000;2.392060
3308.000000;2.536538
3307.000000;2.872906
3306.000000;2.847192
3305.000000;2.703382
3304.000000;2.722088
3303.000000;2.710666
3302.000000;2.673061
3301.000000;2.626760
3300.000000;2.531720
3299.000000;2.459710
3298.000000;2.491966
3297.000000;2.754480
3296.000000;3.043549
3295.000000;2.828624
3294.000000;2.772870
3293.000000;2.774020
3292.000000;2.807836
3291.000000;2.909807
3290.000000;2.748066
3289.000000;2.603995
3288.000000;2.637469
3287.000000;2.870060
3286.000000;3.369819
3285.000000;3.104139
3284.000000;2.956166
3283.000000;2.892321
3282.000000;2.756406
3281.000000;2.699889
3280.000000;2.898766
3279.000000;3.304379
3278.000000;2.794515
3277.000000;2.678851
3276.000000;2.755189
3275.000000;2.867239
3274.000000;2.938634
3273.000000;2.909793
3272.000000;2.743470
3271.000000;2.644757
3270.000000;2.626879
3269.000000;2.615778
3268.000000;2.700591
3267.000000;2.827653
3266.000000;2.961338
3265.000000;3.291751
3264.000000;3.240014
3263.000000;3.050882
3262.000000;2.813481
3261.000000;2.587796
3260.000000;2.499510
3259.000000;2.540174
3258.000000;2.722700
3257.000000;3.059961
3256.000000;3.326566
3255.000000;3.237242
3254.000000;3.100986
3253.000000;3.009796
3252.000000;2.943425
3251.000000;2.844837
3250.000000;2.718130
3249.000000;2.636524
3248.000000;2.650139
3247.000000;2.771523
3246.000000;2.893631
3245.000000;2.899691
3244.000000;3.182867
3243.000000;3.454824
3242.000000;2.838986
3241.000000;2.585933
3240.000000;2.530396
3239.000000;2.657730
3238.000000;2.934284
3237.000000;2.977561
3236.000000;2.869471
3235.000000;2.826639
3234.000000;2.831327
3233.000000;2.927248
3232.000000;3.274644
3231.000000;3.088113
3230.000000;2.726722
3229.000000;2.599389
3228.000000;2.609521
3227.000000;2.669577
3226.000000;2.682593
3225.000000;2.700450
3224.000000;2.932619
3223.000000;3.480515
3222.000000;3.003948
3221.000000;2.763370
3220.000000;2.670225
3219.000000;2.594169
3218.000000;2.524328
3217.000000;2.499284
3216.000000;2.597026
3215.000000;2.783855
3214.000000;2.769041
3213.000000;2.709746
3212.000000;2.906155
3211.000000;3.282491
3210.000000;2.992214
3209.000000;2.794946
3208.000000;2.842037
3207.000000;2.802265
3206.000000;2.613123
3205.000000;2.560615
3204.000000;2.788798
3203.000000;3.136991
3202.000000;2.817450
3201.000000;2.814610
3200.000000;3.103799
3199.000000;2.969023
3198.000000;2.695194
3197.000000;2.654924
3196.000000;2.767635
3195.000000;3.028326
3194.000000;3.308797
3193.000000;2.998952
3192.000000;2.760519
3191.000000;2.690008
3190.000000;2.650767
3189.000000;2.554912
3188.000000;2.461445
3187.000000;2.423611
3186.000000;2.455413
3185.000000;2.569760
3184.000000;2.693429
3183.000000;2.678024
3182.000000;2.677432
3181.000000;2.862789
3180.000000;3.320393
3179.000000;3.757093
3178.000000;3.422942
3177.000000;3.165067
3176.000000;2.939969
3175.000000;2.700199
3174.000000;2.561578
3173.000000;2.555096
3172.000000;2.679602
3171.000000;2.884168
3170.000000;3.019215
3169.000000;3.114993
3168.000000;3.197217
3167.000000;3.176549
3166.000000;3.060304
3165.000000;2.973412
3164.000000;3.045284
3163.000000;3.001036
3162.000000;2.911548
3161.000000;3.088005
3160.000000;3.046890
3159.000000;2.880843
3158.000000;2.934691
3157.000000;2.829573
3156.000000;2.627185
3155.000000;2.539286
3154.000000;2.568312
3153.000000;2.684764
3152.000000;2.882339
3151.000000;3.367883
3150.000000;3.235117
3149.000000;2.844906
3148.000000;2.745694
3147.000000;2.806830
3146.000000;3.003169
3145.000000;3.138555
3144.000000;2.934560
3143.000000;2.807302
3142.000000;2.883189
3141.000000;2.984129
3140.000000;2.785582
3139.000000;2.601203
3138.000000;2.532454
3137.000000;2.591329
3136.000000;2.944709
3135.000000;2.987995
3134.000000;2.650992
3133.000000;2.693819
3132.000000;2.965764
3131.000000;2.891255
3130.000000;2.664340
3129.000000;2.607196
3128.000000;2.653245
3127.000000;2.907852
3126.000000;3.535759
3125.000000;3.155519
3124.000000;3.002078
3123.000000;2.939255
3122.000000;2.815499
3121.000000;2.832241
3120.000000;3.052539
3119.000000;3.625456
3118.000000;4.156247
3117.000000;3.731600
3116.000000;3.432862
3115.000000;3.254067
3114.000000;3.227340
3113.000000;2.997609
3112.000000;2.773772
3111.000000;2.719481
3110.000000;2.655646
3109.000000;2.496457
3108.000000;2.372875
3107.000000;2.322581
3106.000000;2.307341
3105.000000;2.300704
3104.000000;2.296852
3103.000000;2.330455
3102.000000;2.437765
3101.000000;2.676012
3100.000000;3.345240
3099.000000;3.168640
3098.000000;2.733652
3097.000000;2.643823
3096.000000;2.860714
3095.000000;3.017293
3094.000000;2.731171
3093.000000;2.821045
3092.000000;2.910213
3091.000000;2.674820
3090.000000;2.633481
3089.000000;2.736241
3088.000000;2.913395
3087.000000;3.064404
3086.000000;3.090593
3085.000000;3.029380
3084.000000;3.265641
3083.000000;3.611106
3082.000000;3.140864
3081.000000;3.410121
3080.000000;3.382707
3079.000000;2.862109
3078.000000;2.861136
3077.000000;3.096555
3076.000000;2.864758
3075.000000;2.662751
3074.000000;2.666610
3073.000000;2.721972
3072.000000;2.803010
3071.000000;2.982053
3070.000000;3.316521
3069.000000;3.324358
3068.000000;3.182002
3067.000000;3.121714
3066.000000;3.013162
3065.000000;2.888413
3064.000000;2.725554
3063.000000;2.566809
3062.000000;2.479305
3061.000000;2.477390
3060.000000;2.550303
3059.000000;2.690306
3058.000000;2.863159
3057.000000;2.851574
3056.000000;2.684994
3055.000000;2.627665
3054.000000;2.728626
3053.000000;2.833089
3052.000000;2.758722
3051.000000;2.756845
3050.000000;3.080437
3049.000000;3.206965
3048.000000;2.779354
3047.000000;2.637089
3046.000000;2.690836
3045.000000;2.760093
3044.000000;2.711771
3043.000000;2.745970
3042.000000;2.867176
3041.000000;2.819041
3040.000000;2.755966
3039.000000;2.801258
3038.000000;2.904148
3037.000000;2.944559
3036.000000;2.860260
3035.000000;2.771572
3034.000000;2.765758
3033.000000;2.831000
3032.000000;2.783127
3031.000000;2.587098
3030.000000;2.446692
3029.000000;2.405855
3028.000000;2.446679
3027.000000;2.542044
3026.000000;2.670402
3025.000000;2.813402
3024.000000;2.857519
3023.000000;2.721720
3022.000000;2.552516
3021.000000;2.454722
3020.000000;2.444221
3019.000000;2.491835
3018.000000;2.593786
3017.000000;2.776637
3016.000000;3.147302
3015.000000;3.832971
3014.000000;3.230198
3013.000000;2.965997
3012.000000;2.824849
3011.000000;2.713706
3010.000000;2.695811
3009.000000;2.776475
3008.000000;2.880435
3007.000000;2.857886
3006.000000;2.804292
3005.000000;2.827787
3004.000000;2.977768
3003.000000;3.520051
3002.000000;3.840247
3001.000000;3.315360
3000.000000;3.518519
2999.000000;3.859240
2998.000000;3.683781
2997.000000;3.335008
2996.000000;2.897686
2995.000000;2.680969
2994.000000;2.658066
2993.000000;2.780863
2992.000000;2.903097
2991.000000;2.874388
2990.000000;2.824419
2989.000000;2.951217
2988.000000;3.329460
2987.000000;3.003287
2986.000000;2.819680
2985.000000;2.845748
2984.000000;2.873291
2983.000000;2.836542
2982.000000;2.716253
2981.000000;2.591480
2980.000000;2.529734
2979.000000;2.585748
2978.000000;2.700739
2977.000000;2.670152
2976.000000;2.612429
2975.000000;2.728720
2974.000000;3.004041
2973.000000;2.921347
2972.000000;2.726756
2971.000000;2.733008
2970.000000;2.840163
2969.000000;3.039550
2968.000000;3.210788
2967.000000;2.985893
2966.000000;2.778590
2965.000000;2.744766
2964.000000;2.784335
2963.000000;2.785532
2962.000000;2.809891
2961.000000;2.970596
2960.000000;3.321866
2959.000000;3.179117
2958.000000;3.280891
2957.000000;3.507239
2956.000000;2.864768
2955.000000;2.744504
2954.000000;2.877343
2953.000000;3.312200
2952.000000;4.043176
2951.000000;3.846456
2950.000000;3.540422
2949.000000;3.235830
2948.000000;3.103745
2947.000000;2.799059
2946.000000;2.577221
2945.000000;2.493531
2944.000000;2.525645
2943.000000;2.656901
2942.000000;2.737870
2941.000000;2.682302
2940.000000;2.630947
2939.000000;2.637098
2938.000000;2.672434
2937.000000;2.749824
2936.000000;2.902089
2935.000000;3.146190
2934.000000;3.372267
2933.000000;3.085434
2932.000000;2.911174
2931.000000;2.878961
2930.000000;2.894961
2929.000000;2.977538
2928.000000;2.905067
2927.000000;2.775768
2926.000000;2.785113
2925.000000;3.065542
2924.000000;3.476603
2923.000000;3.049800
2922.000000;2.906372
2921.000000;2.942328
2920.000000;3.023623
2919.000000;3.070768
2918.000000;3.034232
2917.000000;2.954406
2916.000000;2.832899
2915.000000;2.756470
2914.000000;2.758743
2913.000000;2.881252
2912.000000;2.995936
2911.000000;2.920533
2910.000000;2.881428
2909.000000;3.103583
2908.000000;3.685440
2907.000000;3.202293
2906.000000;2.951338
2905.000000;2.759873
2904.000000;2.622854
2903.000000;2.622090
2902.000000;2.763385
2901.000000;3.051292
2900.000000;3.595188
2899.000000;3.764870
2898.000000;3.034240
2897.000000;2.771198
2896.000000;2.626236
2895.000000;2.598437
2894.000000;2.728814
2893.000000;2.987412
2892.000000;3.177648
2891.000000;2.984427
2890.000000;2.746234
2889.000000;2.654802
2888.000000;2.713808
2887.000000;3.025636
2886.000000;3.433529
2885.000000;2.971059
2884.000000;2.667597
2883.000000;2.526762
2882.000000;2.530672
2881.000000;2.743308
2880.000000;2.943390
2879.000000;2.780385
2878.000000;2.778475
2877.000000;2.938059
2876.000000;3.286411
2875.000000;3.350771
2874.000000;2.884842
2873.000000;2.798760
2872.000000;2.853309
2871.000000;2.862561
2870.000000;2.856849
2869.000000;2.866086
2868.000000;2.947560
2867.000000;3.202575
2866.000000;3.282587
2865.000000;3.551235
2864.000000;3.418504
2863.000000;2.924657
2862.000000;2.853824
2861.000000;2.830140
2860.000000;2.752250
2859.000000;2.722577
2858.000000;2.749358
2857.000000;2.823938
2856.000000;2.994738
2855.000000;3.201600
2854.000000;3.250624
2853.000000;3.314161
2852.000000;3.169406
2851.000000;3.276870
2850.000000;3.740351
2849.000000;3.263724
2848.000000;3.103237
2847.000000;2.943306
2846.000000;2.779769
2845.000000;2.734067
2844.000000;2.853012
2843.000000;2.960079
2842.000000;2.710847
2841.000000;2.527505
2840.000000;2.465464
2839.000000;2.481473
2838.000000;2.561820
2837.000000;2.696425
2836.000000;2.867906
2835.000000;3.040106
2834.000000;3.162323
2833.000000;3.084175
2832.000000;2.936616
2831.000000;2.795466
2830.000000;2.694194
2829.000000;2.679275
2828.000000;2.714720
2827.000000;2.711683
2826.000000;2.654732
2825.000000;2.614593
2824.000000;2.665737
2823.000000;2.771687
2822.000000;2.712136
2821.000000;2.634460
2820.000000;2.690824
2819.000000;2.941006
2818.000000;3.353812
2817.000000;2.981183
2816.000000;2.655404
2815.000000;2.547539
2814.000000;2.577500
2813.000000;2.792235
2812.000000;3.257678
2811.000000;3.039303
2810.000000;2.775729
2809.000000;2.770795
2808.000000;2.982180
2807.000000;3.483675
2806.000000;3.197204
2805.000000;3.044605
2804.000000;2.871778
2803.000000;2.641173
2802.000000;2.548182
2801.000000;2.513543
2800.000000;2.529741
2799.000000;2.597221
2798.000000;2.884613
2797.000000;3.175382
2796.000000;2.695484
2795.000000;2.574791
2794.000000;2.654708
2793.000000;2.835755
2792.000000;2.954949
2791.000000;2.864659
2790.000000;2.819208
2789.000000;2.797474
2788.000000;2.807150
2787.000000;2.832040
2786.000000;3.003121
2785.000000;3.478391
2784.000000;3.204916
2783.000000;2.958820
2782.000000;3.117678
2781.000000;3.622904
2780.000000;3.554773
2779.000000;3.265128
2778.000000;3.090240
2777.000000;2.846386
2776.000000;2.695473
2775.000000;2.664412
2774.000000;2.725241
2773.000000;2.816716
2772.000000;2.853896
2771.000000;2.810865
2770.000000;2.718220
2769.000000;2.645318
2768.000000;2.652235
2767.000000;2.743056
2766.000000;2.862580
2765.000000;2.997352
2764.000000;3.153073
2763.000000;3.111683
2762.000000;2.956196
2761.000000;2.885607
2760.000000;2.851665
2759.000000;2.799641
2758.000000;2.743289
2757.000000;2.737997
2756.000000;2.812542
2755.000000;2.831360
2754.000000;2.743575
2753.000000;2.736812
2752.000000;2.855222
2751.000000;2.997803
2750.000000;3.007983
2749.000000;2.954275
2748.000000;2.927226
2747.000000;2.992833
2746.000000;3.159188
2745.000000;3.024684
2744.000000;2.784288
2743.000000;2.692467
2742.000000;2.728275
2741.000000;2.939300
2740.000000;3.464637
2739.000000;3.611532
2738.000000;3.350010
2737.000000;3.218852
2736.000000;3.076522
2735.000000;2.922675
2734.000000;2.730406
2733.000000;2.656196
2732.000000;2.758615
2731.000000;2.941814
2730.000000;2.898853
2729.000000;2.796770
2728.000000;2.802687
2727.000000;2.852571
2726.000000;2.904081
2725.000000;2.899253
2724.000000;2.847785
2723.000000;2.816682
2722.000000;2.835471
2721.000000;2.857407
2720.000000;2.798705
2719.000000;2.696711
2718.000000;2.646067
2717.000000;2.683994
2716.000000;2.797909
2715.000000;2.939272
2714.000000;3.003163
2713.000000;2.951795
2712.000000;2.899207
2711.000000;2.859850
2710.000000;2.814731
2709.000000;2.800062
2708.000000;2.888337
2707.000000;3.067458
2706.000000;3.213865
2705.000000;3.431349
2704.000000;3.328076
2703.000000;3.059079
2702.000000;2.984695
2701.000000;2.941183
2700.000000;2.938828
2699.000000;2.968484
2698.000000;2.882331
2697.000000;2.820458
2696.000000;2.921884
2695.000000;3.272056
2694.000000;3.898849
2693.000000;3.622444
2692.000000;3.293531
2691.000000;3.112335
2690.000000;3.090171
2689.000000;3.326627
2688.000000;3.501177
2687.000000;3.183811
2686.000000;3.003881
2685.000000;2.874182
2684.000000;2.768001
2683.000000;2.730244
2682.000000;2.757050
2681.000000;2.820118
2680.000000;2.921965
2679.000000;3.201146
2678.000000;3.512431
2677.000000;3.244951
2676.000000;3.087236
2675.000000;3.067533
2674.000000;3.261959
2673.000000;3.732731
2672.000000;3.560850
2671.000000;3.482315
2670.000000;3.206414
2669.000000;2.887576
2668.000000;2.736475
2667.000000;2.708564
2666.000000;2.816243
2665.000000;3.085498
2664.000000;3.261767
2663.000000;3.321648
2662.000000;3.717245
2661.000000;3.285835
2660.000000;2.925722
2659.000000;2.821461
2658.000000;2.880969
2657.000000;3.078461
2656.000000;3.102032
2655.000000;3.004355
2654.000000;2.981301
2653.000000;2.917245
2652.000000;2.856045
2651.000000;2.897087
2650.000000;3.192572
2649.000000;3.639613
2648.000000;3.545155
2647.000000;3.537230
2646.000000;3.085972
2645.000000;2.850265
2644.000000;2.842579
2643.000000;3.036925
2642.000000;3.383417
2641.000000;3.410281
2640.000000;3.567670
2639.000000;3.161569
2638.000000;2.881993
2637.000000;2.855440
2636.000000;2.947736
2635.000000;3.119514
2634.000000;3.363595
2633.000000;3.819226
2632.000000;3.622912
2631.000000;3.232415
2630.000000;3.077445
2629.000000;3.110534
2628.000000;3.440088
2627.000000;3.403574
2626.000000;3.041470
2625.000000;2.955184
2624.000000;2.951396
2623.000000;3.020347
2622.000000;3.003046
2621.000000;2.765628
2620.000000;2.596697
2619.000000;2.554920
2618.000000;2.620987
2617.000000;2.772346
2616.000000;2.989166
2615.000000;3.159071
2614.000000;3.409944
2613.000000;3.767863
2612.000000;3.264083
2611.000000;3.157542
2610.000000;3.210453
2609.000000;3.108831
2608.000000;3.070263
2607.000000;3.096620
2606.000000;3.170846
2605.000000;3.299507
2604.000000;3.277813
2603.000000;3.086203
2602.000000;2.952683
2601.000000;2.930464
2600.000000;2.971695
2599.000000;2.937107
2598.000000;2.865164
2597.000000;2.852100
2596.000000;2.928128
2595.000000;3.017243
2594.000000;3.004240
2593.000000;2.966220
2592.000000;3.026012
2591.000000;3.381287
2590.000000;3.420556
2589.000000;3.085958
2588.000000;3.069933
2587.000000;3.103494
2586.000000;3.046836
2585.000000;3.102698
2584.000000;3.166620
2583.000000;3.129704
2582.000000;3.099623
2581.000000;3.334766
2580.000000;4.073230
2579.000000;3.359375
2578.000000;3.215229
2577.000000;3.377633
2576.000000;3.496642
2575.000000;3.403207
2574.000000;3.393887
2573.000000;3.418002
2572.000000;3.185690
2571.000000;3.054964
2570.000000;3.119202
2569.000000;3.379933
2568.000000;3.459112
2567.000000;3.253746
2566.000000;3.072057
2565.000000;2.925586
2564.000000;2.852406
2563.000000;2.917964
2562.000000;3.140716
2561.000000;3.394819
2560.000000;3.384157
2559.000000;3.412462
2558.000000;3.799435
2557.000000;3.294525
2556.000000;2.975552
2555.000000;2.922120
2554.000000;3.049488
2553.000000;3.390400
2552.000000;3.275926
2551.000000;3.055214
2550.000000;3.047416
2549.000000;3.054798
2548.000000;3.063331
2547.000000;3.109930
2546.000000;2.993091
2545.000000;2.800878
2544.000000;2.707041
2543.000000;2.715421
2542.000000;2.771305
2541.000000;2.789250
2540.000000;2.742726
2539.000000;2.706580
2538.000000;2.734762
2537.000000;2.840617
2536.000000;3.005963
2535.000000;3.024591
2534.000000;2.888256
2533.000000;2.834078
2532.000000;2.877701
2531.000000;2.966920
2530.000000;3.001660
2529.000000;3.091380
2528.000000;3.381707
2527.000000;3.185379
2526.000000;2.901548
2525.000000;2.860192
2524.000000;2.906587
2523.000000;2.865156
2522.000000;2.788440
2521.000000;2.809174
2520.000000;2.915830
2519.000000;2.999347
2518.000000;3.023577
2517.000000;2.989387
2516.000000;2.911185
2515.000000;2.907052
2514.000000;2.991271
2513.000000;3.092834
2512.000000;3.213736
2511.000000;3.220199
2510.000000;2.979515
2509.000000;2.800367
2508.000000;2.765247
2507.000000;2.800377
2506.000000;2.812260
2505.000000;2.837166
2504.000000;2.944070
2503.000000;3.020110
2502.000000;2.966225
2501.000000;2.925766
2500.000000;2.961293
2499.000000;3.036051
2498.000000;3.086079
2497.000000;3.112260
2496.000000;3.114279
2495.000000;3.431051
2494.000000;3.802505
2493.000000;3.233149
2492.000000;3.338311
2491.000000;3.470828
2490.000000;3.099832
2489.000000;2.918720
2488.000000;2.863319
2487.000000;2.895129
2486.000000;2.979973
2485.000000;3.085575
2484.000000;3.158599
2483.000000;3.140159
2482.000000;3.038182
2481.000000;2.921150
2480.000000;2.847732
2479.000000;2.815020
2478.000000;2.841304
2477.000000;2.933367
2476.000000;3.169227
2475.000000;3.587244
2474.000000;3.300897
2473.000000;3.016099
2472.000000;2.890420
2471.000000;2.872714
2470.000000;3.003190
2469.000000;3.133283
2468.000000;3.103083
2467.000000;3.106865
2466.000000;3.126462
2465.000000;3.099588
2464.000000;3.100829
2463.000000;3.148847
2462.000000;3.206970
2461.000000;3.222243
2460.000000;3.279458
2459.000000;3.140267
2458.000000;2.893038
2457.000000;2.817776
2456.000000;2.902287
2455.000000;3.132223
2454.000000;3.454727
2453.000000;3.622394
2452.000000;3.463790
2451.000000;3.398744
2450.000000;3.687623
2449.000000;3.451364
2448.000000;3.146913
2447.000000;3.094879
2446.000000;3.079737
2445.000000;3.032582
2444.000000;2.957530
2443.000000;2.884825
2442.000000;2.874086
2441.000000;2.960117
2440.000000;3.182455
2439.000000;3.353002
2438.000000;3.148223
2437.000000;2.971825
2436.000000;2.910928
2435.000000;2.931118
2434.000000;2.945348
2433.000000;2.921837
2432.000000;2.971325
2431.000000;3.082055
2430.000000;3.094314
2429.000000;3.114327
2428.000000;3.238216
2427.000000;3.336667
2426.000000;3.594261
2425.000000;3.673085
2424.000000;3.233803
2423.000000;3.016743
2422.000000;2.950399
2421.000000;3.009373
2420.000000;3.203625
2419.000000;3.361047
2418.000000;3.274332
2417.000000;3.218264
2416.000000;3.268344
2415.000000;3.336231
2414.000000;3.369267
2413.000000;3.308849
2412.000000;3.124876
2411.000000;2.935426
2410.000000;2.839652
2409.000000;2.846600
2408.000000;2.956772
2407.000000;3.134784
2406.000000;3.108731
2405.000000;2.945873
2404.000000;2.888621
2403.000000;2.944716
2402.000000;3.074773
2401.000000;3.201208
2400.000000;3.299090
2399.000000;3.209904
2398.000000;3.027844
2397.000000;2.970492
2396.000000;3.068692
2395.000000;3.247147
2394.000000;3.263291
2393.000000;3.173936
2392.000000;3.098472
2391.000000;3.096560
2390.000000;3.137319
2389.000000;3.204960
2388.000000;3.317136
2387.000000;3.163230
2386.000000;2.963604
2385.000000;2.883027
2384.000000;2.907487
2383.000000;3.078206
2382.000000;3.182518
2381.000000;3.062268
2380.000000;3.028234
2379.000000;3.116283
2378.000000;3.214660
2377.000000;3.220712
2376.000000;3.201943
2375.000000;3.272504
2374.000000;3.506806
2373.000000;3.544271
2372.000000;3.282748
2371.000000;3.138580
2370.000000;3.066274
2369.000000;3.002739
2368.000000;2.961529
2367.000000;2.987269
2366.000000;3.111246
2365.000000;3.322574
2364.000000;3.293064
2363.000000;3.091455
2362.000000;3.025795
2361.000000;3.079514
2360.000000;3.361447
2359.000000;3.576294
2358.000000;3.236214
2357.000000;3.149646
2356.000000;3.429069
2355.000000;3.800333
2354.000000;3.372465
2353.000000;3.197379
2352.000000;3.138891
2351.000000;3.115259
2350.000000;3.152729
2349.000000;3.186478
2348.000000;3.197042
2347.000000;3.143660
2346.000000;3.015677
2345.000000;2.903291
2344.000000;2.930776
2343.000000;3.114890
2342.000000;3.360940
2341.000000;3.475525
2340.000000;3.665979
2339.000000;3.957378
2338.000000;3.600058
2337.000000;3.313108
2336.000000;3.153029
2335.000000;3.101651
2334.000000;3.118742
2333.000000;3.173150
2332.000000;3.241559
2331.000000;3.534544
2330.000000;3.963272
2329.000000;3.486774
2328.000000;3.408187
2327.000000;3.573773
2326.000000;3.673921
2325.000000;3.669525
2324.000000;3.541418
2323.000000;3.308045
2322.000000;3.146478
2321.000000;3.084795
2320.000000;3.095069
2319.000000;3.182095
2318.000000;3.362303
2317.000000;3.522848
2316.000000;3.655281
2315.000000;3.733203
2314.000000;3.345548
2313.000000;3.066104
2312.000000;2.881412
2311.000000;2.773679
2310.000000;2.774659
2309.000000;2.882717
2308.000000;3.094308
2307.000000;3.323244
2306.000000;3.327969
2305.000000;3.168875
2304.000000;3.133641
2303.000000;3.316060
2302.000000;3.598362
2301.000000;3.633984
2300.000000;3.645386
2299.000000;3.593633
2298.000000;3.510921
2297.000000;3.345400
2296.000000;3.157341
2295.000000;3.045793
2294.000000;2.995559
2293.000000;2.990490
2292.000000;3.062493
2291.000000;3.209971
2290.000000;3.504146
2289.000000;4.202745
2288.000000;3.715614
2287.000000;3.383395
2286.000000;3.274357
2285.000000;3.244057
2284.000000;3.250141
2283.000000;3.198902
2282.000000;3.114119
2281.000000;3.038293
2280.000000;3.044044
2279.000000;3.146166
2278.000000;3.365659
2277.000000;3.344822
2276.000000;3.108553
2275.000000;3.016899
2274.000000;3.142532
2273.000000;3.679009
2272.000000;3.458971
2271.000000;3.162261
2270.000000;3.325671
2269.000000;3.429426
2268.000000;3.135066
2267.000000;2.904690
2266.000000;2.788230
2265.000000;2.723333
2264.000000;2.681138
2263.000000;2.663427
2262.000000;2.669003
2261.000000;2.702989
2260.000000;2.788660
2259.000000;2.935188
2258.000000;3.104837
2257.000000;3.274333
2256.000000;3.608824
2255.000000;3.931671
2254.000000;4.121906
2253.000000;4.546434
2252.000000;3.854229
2251.000000;3.680150
2250.000000;3.506018
2249.000000;3.430574
2248.000000;3.422041
2247.000000;3.297459
2246.000000;3.171816
2245.000000;3.108052
2244.000000;3.121238
2243.000000;3.117168
2242.000000;3.033567
2241.000000;2.969162
2240.000000;2.989800
2239.000000;3.080975
2238.000000;3.218473
2237.000000;3.382517
2236.000000;3.720260
2235.000000;3.892971
2234.000000;3.417503
2233.000000;3.202087
2232.000000;3.132360
2231.000000;3.181047
2230.000000;3.371835
2229.000000;3.420027
2228.000000;3.460003
2227.000000;3.646216
2226.000000;3.381286
2225.000000;3.166253
2224.000000;3.081546
2223.000000;2.989052
2222.000000;2.912567
2221.000000;2.907957
2220.000000;3.010028
2219.000000;3.177607
2218.000000;3.297694
2217.000000;3.281070
2216.000000;3.260241
2215.000000;3.529345
2214.000000;3.687762
2213.000000;3.291340
2212.000000;3.157900
2211.000000;3.274456
2210.000000;3.509390
2209.000000;3.491842
2208.000000;3.391080
2207.000000;3.543385
2206.000000;3.975334
2205.000000;3.499921
2204.000000;3.225839
2203.000000;3.217990
2202.000000;3.322737
2201.000000;3.393214
2200.000000;3.300685
2199.000000;3.194319
2198.000000;3.134456
2197.000000;3.130245
2196.000000;3.212778
2195.000000;3.447953
2194.000000;3.617967
2193.000000;3.503316
2192.000000;3.479247
2191.000000;3.715412
2190.000000;4.020264
2189.000000;3.558888
2188.000000;3.461670
2187.000000;3.638238
2186.000000;3.270967
2185.000000;2.991986
2184.000000;2.915283
2183.000000;2.928430
2182.000000;2.992126
2181.000000;3.067634
2180.000000;3.167020
2179.000000;3.325482
2178.000000;3.642455
2177.000000;3.891493
2176.000000;3.567919
2175.000000;3.407235
2174.000000;3.388051
2173.000000;3.448248
2172.000000;3.602869
2171.000000;4.033830
2170.000000;3.887166
2169.000000;3.496953
2168.000000;3.555106
2167.000000;3.936318
2166.000000;4.153237
2165.000000;3.774105
2164.000000;3.526924
2163.000000;3.483106
2162.000000;3.622111
2161.000000;3.520365
2160.000000;3.252868
2159.000000;3.120439
2158.000000;3.074938
2157.000000;3.093414
2156.000000;3.149876
2155.000000;3.257910
2154.000000;3.412948
2153.000000;3.759055
2152.000000;4.091808
2151.000000;3.527276
2150.000000;3.419043
2149.000000;3.467178
2148.000000;3.368965
2147.000000;3.298336
2146.000000;3.283053
2145.000000;3.499036
2144.000000;3.679955
2143.000000;3.290745
2142.000000;3.159338
2141.000000;3.155840
2140.000000;3.151067
2139.000000;3.147727
2138.000000;3.183663
2137.000000;3.480000
2136.000000;3.750454
2135.000000;3.331618
2134.000000;3.117664
2133.000000;3.029688
2132.000000;2.988828
2131.000000;2.997678
2130.000000;3.021818
2129.000000;3.067974
2128.000000;3.149892
2127.000000;3.345011
2126.000000;3.792218
2125.000000;3.770080
2124.000000;3.535009
2123.000000;3.579587
2122.000000;3.756601
2121.000000;3.937951
2120.000000;3.789404
2119.000000;3.552193
2118.000000;3.448859
2117.000000;3.569542
2116.000000;3.645732
2115.000000;3.430211
2114.000000;3.305391
2113.000000;3.239633
2112.000000;3.186359
2111.000000;3.194403
2110.000000;3.277305
2109.000000;3.312388
2108.000000;3.264588
2107.000000;3.250021
2106.000000;3.270758
2105.000000;3.337629
2104.000000;3.449654
2103.000000;3.406576
2102.000000;3.226138
2101.000000;3.163149
2100.000000;3.251895
2099.000000;3.429104
2098.000000;3.534835
2097.000000;3.443823
2096.000000;3.288492
2095.000000;3.145013
2094.000000;3.062537
2093.000000;3.078732
2092.000000;3.341933
2091.000000;3.730868
2090.000000;3.468496
2089.000000;3.433306
2088.000000;3.518696
2087.000000;3.453803
2086.000000;3.320034
2085.000000;3.234241
2084.000000;3.298394
2083.000000;3.391135
2082.000000;3.250281
2081.000000;3.127125
2080.000000;3.163503
2079.000000;3.376241
2078.000000;3.783729
2077.000000;3.770171
2076.000000;3.548866
2075.000000;3.397239
2074.000000;3.292537
2073.000000;3.249976
2072.000000;3.246679
2071.000000;3.275595
2070.000000;3.288854
2069.000000;3.313495
2068.000000;3.413160
2067.000000;3.769726
2066.000000;3.858262
2065.000000;3.402979
2064.000000;3.241168
2063.000000;3.204888
2062.000000;3.265331
2061.000000;3.453618
2060.000000;3.809497
2059.000000;4.042227
2058.000000;3.689164
2057.000000;3.400617
2056.000000;3.174915
2055.000000;3.040292
2054.000000;2.999871
2053.000000;3.079425
2052.000000;3.345939
2051.000000;3.452672
2050.000000;3.218344
2049.000000;3.104161
2048.000000;3.064096
2047.000000;3.009153
2046.000000;2.931967
2045.000000;2.899706
2044.000000;2.942876
2043.000000;3.019277
2042.000000;3.066246
2041.000000;3.086194
2040.000000;3.140275
2039.000000;3.234756
2038.000000;3.305750
2037.000000;3.302009
2036.000000;3.256589
2035.000000;3.229696
2034.000000;3.248833
2033.000000;3.358395
2032.000000;3.577176
2031.000000;3.811982
2030.000000;3.619725
2029.000000;3.416407
2028.000000;3.395238
2027.000000;3.585327
2026.000000;4.203190
2025.000000;3.767962
2024.000000;3.436621
2023.000000;3.522560
2022.000000;3.717725
2021.000000;3.543377
2020.000000;3.416484
2019.000000;3.403771
2018.000000;3.332196
2017.000000;3.249512
2016.000000;3.283624
2015.000000;3.415650
2014.000000;3.396011
2013.000000;3.406363
2012.000000;3.696272
2011.000000;3.727549
2010.000000;3.346497
2009.000000;3.162381
2008.000000;3.109286
2007.000000;3.154855
2006.000000;3.276215
2005.000000;3.355187
2004.000000;3.283681
2003.000000;3.225050
2002.000000;3.314229
2001.000000;3.647601
2000.000000;4.152576
1999.000000;3.899537
1998.000000;3.877741
1997.000000;4.019900
1996.000000;3.807596
1995.000000;3.626610
1994.000000;3.538769
1993.000000;3.520693
1992.000000;3.482142
1991.000000;3.406618
1990.000000;3.410812
1989.000000;3.484352
1988.000000;3.578697
1987.000000;3.660597
1986.000000;3.637731
1985.000000;3.543457
1984.000000;3.423581
1983.000000;3.300583
1982.000000;3.205412
1981.000000;3.142125
1980.000000;3.090454
1979.000000;3.032443
1978.000000;3.007767
1977.000000;3.067953
1976.000000;3.293137
1975.000000;3.542625
1974.000000;3.418132
1973.000000;3.345405
1972.000000;3.449181
1971.000000;3.722374
1970.000000;3.794715
1969.000000;3.549249
1968.000000;3.400929
1967.000000;3.305946
1966.000000;3.230360
1965.000000;3.162805
1964.000000;3.109544
1963.000000;3.110200
1962.000000;3.176137
1961.000000;3.376195
1960.000000;3.845198
1959.000000;3.705793
1958.000000;3.315639
1957.000000;3.132603
1956.000000;3.060890
1955.000000;3.122133
1954.000000;3.430467
1953.000000;3.805402
1952.000000;3.436033
1951.000000;3.260840
1950.000000;3.238005
1949.000000;3.318420
1948.000000;3.494608
1947.000000;3.721075
1946.000000;4.219546
1945.000000;3.995358
1944.000000;3.703461
1943.000000;3.547010
1942.000000;3.444705
1941.000000;3.426846
1940.000000;3.549948
1939.000000;3.953527
1938.000000;3.593640
1937.000000;3.226707
1936.000000;3.060829
1935.000000;2.986590
1934.000000;3.004384
1933.000000;3.106745
1932.000000;3.307325
1931.000000;3.556786
1930.000000;3.603782
1929.000000;3.417074
1928.000000;3.278430
1927.000000;3.252805
1926.000000;3.319245
1925.000000;3.439608
1924.000000;3.584575
1923.000000;3.782473
1922.000000;3.969057
1921.000000;3.774672
1920.000000;3.457175
1919.000000;3.235022
1918.000000;3.132112
1917.000000;3.105663
1916.000000;3.081114
1915.000000;3.012149
1914.000000;2.988991
1913.000000;3.064132
1912.000000;3.321268
1911.000000;3.846023
1910.000000;3.570500
1909.000000;3.329838
1908.000000;3.275565
1907.000000;3.284224
1906.000000;3.365699
1905.000000;3.406232
1904.000000;3.315635
1903.000000;3.188734
1902.000000;3.168435
1901.000000;3.270801
1900.000000;3.522391
1899.000000;3.761172
1898.000000;3.643885
1897.000000;3.356234
1896.000000;3.169462
1895.000000;3.102173
1894.000000;3.181397
1893.000000;3.617918
1892.000000;3.660006
1891.000000;3.289367
1890.000000;3.263146
1889.000000;3.379766
1888.000000;3.614282
1887.000000;3.814755
1886.000000;3.724223
1885.000000;3.539350
1884.000000;3.419553
1883.000000;3.379354
1882.000000;3.378028
1881.000000;3.376188
1880.000000;3.316958
1879.000000;3.293202
1878.000000;3.318451
1877.000000;3.187764
1876.000000;3.033578
1875.000000;3.001353
1874.000000;3.036945
1873.000000;3.057689
1872.000000;3.002165
1871.000000;2.932495
1870.000000;2.921776
1869.000000;3.006654
1868.000000;3.182883
1867.000000;3.414793
1866.000000;3.966397
1865.000000;3.867478
1864.000000;3.355658
1863.000000;3.214183
1862.000000;3.208388
1861.000000;3.274010
1860.000000;3.342207
1859.000000;3.381930
1858.000000;3.428832
1857.000000;3.410998
1856.000000;3.271313
1855.000000;3.132623
1854.000000;3.070899
1853.000000;3.111434
1852.000000;3.263742
1851.000000;3.484049
1850.000000;3.633552
1849.000000;3.695146
1848.000000;3.537626
1847.000000;3.273514
1846.000000;3.147740
1845.000000;3.134698
1844.000000;3.184548
1843.000000;3.267151
1842.000000;3.386531
1841.000000;3.537254
1840.000000;3.824812
1839.000000;4.169522
1838.000000;3.662463
1837.000000;3.338374
1836.000000;3.171413
1835.000000;3.100965
1834.000000;3.155488
1833.000000;3.282587
1832.000000;3.310650
1831.000000;3.254415
1830.000000;3.302965
1829.000000;3.671664
1828.000000;3.697127
1827.000000;3.224406
1826.000000;3.081955
1825.000000;3.071772
1824.000000;3.115459
1823.000000;3.183612
1822.000000;3.256879
1821.000000;3.375679
1820.000000;3.500079
1819.000000;3.475573
1818.000000;3.350779
1817.000000;3.304930
1816.000000;3.351042
1815.000000;3.436746
1814.000000;3.494620
1813.000000;3.532499
1812.000000;3.637675
1811.000000;3.707435
1810.000000;3.549614
1809.000000;3.429973
1808.000000;3.458602
1807.000000;3.614288
1806.000000;3.681101
1805.000000;3.521013
1804.000000;3.415691
1803.000000;3.383455
1802.000000;3.382970
1801.000000;3.418659
1800.000000;3.481389
1799.000000;3.509829
1798.000000;3.555753
1797.000000;3.693908
1796.000000;3.561751
1795.000000;3.341162
1794.000000;3.286798
1793.000000;3.343446
1792.000000;3.492050
1791.000000;3.690771
1790.000000;3.639943
1789.000000;3.470075
1788.000000;3.488816
1787.000000;3.434695
1786.000000;3.236759
1785.000000;3.171508
1784.000000;3.225797
1783.000000;3.360469
1782.000000;3.455442
1781.000000;3.329318
1780.000000;3.227836
1779.000000;3.240319
1778.000000;3.291523
1777.000000;3.306025
1776.000000;3.256491
1775.000000;3.175218
1774.000000;3.104656
1773.000000;3.110481
1772.000000;3.250148
1771.000000;3.539312
1770.000000;3.724724
1769.000000;3.571447
1768.000000;3.459282
1767.000000;3.484811
1766.000000;3.667172
1765.000000;3.946804
1764.000000;3.756159
1763.000000;3.603053
1762.000000;3.759031
1761.000000;3.756067
1760.000000;3.532239
1759.000000;3.563505
1758.000000;3.965644
1757.000000;3.863212
1756.000000;3.497361
1755.000000;3.384259
1754.000000;3.408818
1753.000000;3.598470
1752.000000;3.785215
1751.000000;3.719304
1750.000000;3.650570
1749.000000;3.656991
1748.000000;3.704956
1747.000000;3.668673
1746.000000;3.512987
1745.000000;3.371810
1744.000000;3.305358
1743.000000;3.301452
1742.000000;3.338635
1741.000000;3.382974
1740.000000;3.438282
1739.000000;3.596484
1738.000000;3.592123
1737.000000;3.377317
1736.000000;3.308645
1735.000000;3.362492
1734.000000;3.425785
1733.000000;3.451131
1732.000000;3.469924
1731.000000;3.507825
1730.000000;3.612536
1729.000000;3.912791
1728.000000;4.591025
1727.000000;4.306846
1726.000000;3.734298
1725.000000;3.417132
1724.000000;3.277928
1723.000000;3.271615
1722.000000;3.317999
1721.000000;3.347983
1720.000000;3.386348
1719.000000;3.430045
1718.000000;3.425538
1717.000000;3.441689
1716.000000;3.573605
1715.000000;3.760602
1714.000000;3.894508
1713.000000;4.163483
1712.000000;3.961858
1711.000000;3.645657
1710.000000;3.609147
1709.000000;3.702155
1708.000000;3.864577
1707.000000;3.782067
1706.000000;3.565016
1705.000000;3.471334
1704.000000;3.457352
1703.000000;3.580284
1702.000000;3.620069
1701.000000;3.393954
1700.000000;3.288331
1699.000000;3.287752
1698.000000;3.285106
1697.000000;3.315576
1696.000000;3.383409
1695.000000;3.390173
1694.000000;3.372752
1693.000000;3.406595
1692.000000;3.485540
1691.000000;3.417609
1690.000000;3.300536
1689.000000;3.327755
1688.000000;3.534803
1687.000000;3.997992
1686.000000;3.839620
1685.000000;3.550102
1684.000000;3.629142
1683.000000;3.787695
1682.000000;3.775741
1681.000000;3.859917
1680.000000;3.787368
1679.000000;3.402191
1678.000000;3.181896
1677.000000;3.086397
1676.000000;3.071635
1675.000000;3.112880
1674.000000;3.203702
1673.000000;3.330977
1672.000000;3.613429
1671.000000;4.266156
1670.000000;3.671513
1669.000000;3.496664
1668.000000;3.579407
1667.000000;3.591014
1666.000000;3.426431
1665.000000;3.208986
1664.000000;3.111757
1663.000000;3.131764
1662.000000;3.242541
1661.000000;3.376881
1660.000000;3.460530
1659.000000;3.485820
1658.000000;3.578088
1657.000000;3.883891
1656.000000;4.044435
1655.000000;3.858826
1654.000000;3.674119
1653.000000;3.502004
1652.000000;3.481618
1651.000000;3.509912
1650.000000;3.479619
1649.000000;3.365625
1648.000000;3.227005
1647.000000;3.185967
1646.000000;3.289945
1645.000000;3.449273
1644.000000;3.473285
1643.000000;3.441268
1642.000000;3.704915
1641.000000;3.921434
1640.000000;3.439085
1639.000000;3.358382
1638.000000;3.339168
1637.000000;3.189108
1636.000000;3.068554
1635.000000;3.012138
1634.000000;2.995914
1633.000000;2.998259
1632.000000;3.070327
1631.000000;3.179149
1630.000000;3.183119
1629.000000;3.209070
1628.000000;3.564298
1627.000000;3.938261
1626.000000;3.458377
1625.000000;3.264433
1624.000000;3.186180
1623.000000;3.126146
1622.000000;3.072096
1621.000000;3.039532
1620.000000;3.013972
1619.000000;2.987209
1618.000000;2.982269
1617.000000;3.029597
1616.000000;3.178876
1615.000000;3.444631
1614.000000;3.804544
1613.000000;3.722878
1612.000000;3.417485
1611.000000;3.331364
1610.000000;3.356514
1609.000000;3.397111
1608.000000;3.437323
1607.000000;3.667448
1606.000000;3.948054
1605.000000;3.541594
1604.000000;3.307229
1603.000000;3.223794
1602.000000;3.250781
1601.000000;3.286249
1600.000000;3.197594
1599.000000;3.135455
1598.000000;3.181310
1597.000000;3.308479
1596.000000;3.471761
1595.000000;3.634401
1594.000000;3.628942
1593.000000;3.493024
1592.000000;3.437229
1591.000000;3.475242
1590.000000;3.402181
1589.000000;3.210506
1588.000000;3.097800
1587.000000;3.092130
1586.000000;3.147874
1585.000000;3.237413
1584.000000;3.324554
1583.000000;3.550784
1582.000000;4.050582
1581.000000;3.562490
1580.000000;3.266316
1579.000000;3.179192
1578.000000;3.144400
1577.000000;3.102027
1576.000000;3.113012
1575.000000;3.269545
1574.000000;3.519609
1573.000000;4.015809
1572.000000;4.074056
1571.000000;3.532799
1570.000000;3.449160
1569.000000;3.412260
1568.000000;3.231485
1567.000000;3.120649
1566.000000;3.125068
1565.000000;3.187622
1564.000000;3.226125
1563.000000;3.262258
1562.000000;3.364197
1561.000000;3.494785
1560.000000;3.624034
1559.000000;3.714556
1558.000000;3.683794
1557.000000;3.659034
1556.000000;3.646642
1555.000000;3.642104
1554.000000;3.644517
1553.000000;3.593300
1552.000000;3.497383
1551.000000;3.435154
1550.000000;3.453973
1549.000000;3.547656
1548.000000;3.680833
1547.000000;3.729709
1546.000000;3.708324
1545.000000;3.709520
1544.000000;3.677966
1543.000000;3.626751
1542.000000;3.595207
1541.000000;3.600497
1540.000000;3.619130
1539.000000;3.623548
1538.000000;3.681201
1537.000000;3.856309
1536.000000;4.181778
1535.000000;4.461332
1534.000000;4.124317
1533.000000;3.767209
1532.000000;3.629102
1531.000000;3.591137
1530.000000;3.547378
1529.000000;3.476142
1528.000000;3.422494
1527.000000;3.452219
1526.000000;3.565133
1525.000000;3.666877
1524.000000;3.655343
1523.000000;3.588308
1522.000000;3.623838
1521.000000;3.930662
1520.000000;4.560828
1519.000000;4.327263
1518.000000;3.842649
1517.000000;3.542918
1516.000000;3.422198
1515.000000;3.425745
1514.000000;3.514595
1513.000000;3.583424
1512.000000;3.492690
1511.000000;3.426478
1510.000000;3.458611
1509.000000;3.538789
1508.000000;3.611639
1507.000000;3.619019
1506.000000;3.609132
1505.000000;3.614565
1504.000000;3.626321
1503.000000;3.683852
1502.000000;3.713451
1501.000000;3.673532
1500.000000;3.688892
1499.000000;3.683944
1498.000000;3.580508
1497.000000;3.505457
1496.000000;3.496623
1495.000000;3.522107
1494.000000;3.537570
1493.000000;3.580389
1492.000000;3.553805
1491.000000;3.483133
1490.000000;3.492158
1489.000000;3.689736
1488.000000;4.239613
1487.000000;3.734058
1486.000000;3.453758
1485.000000;3.455692
1484.000000;3.532111
1483.000000;3.724429
1482.000000;3.780344
1481.000000;3.624722
1480.000000;3.599124
1479.000000;3.792436
1478.000000;4.052614
1477.000000;4.024121
1476.000000;4.244123
1475.000000;4.282732
1474.000000;4.005030
1473.000000;3.983393
1472.000000;3.865949
1471.000000;3.754001
1470.000000;3.761771
1469.000000;3.967969
1468.000000;4.109918
1467.000000;3.789530
1466.000000;3.632541
1465.000000;3.630912
1464.000000;3.751074
1463.000000;4.004165
1462.000000;4.050890
1461.000000;3.768173
1460.000000;3.533987
1459.000000;3.440861
1458.000000;3.497130
1457.000000;3.750678
1456.000000;4.193073
1455.000000;4.130849
1454.000000;3.914330
1453.000000;3.868161
1452.000000;3.808038
1451.000000;3.645069
1450.000000;3.558350
1449.000000;3.611674
1448.000000;3.752369
1447.000000;3.870100
1446.000000;3.929154
1445.000000;4.015038
1444.000000;3.891062
1443.000000;3.662982
1442.000000;3.600762
1441.000000;3.698236
1440.000000;3.937758
1439.000000;4.225409
1438.000000;4.016715
1437.000000;3.800784
1436.000000;3.771842
1435.000000;3.871163
1434.000000;4.114233
1433.000000;3.986013
1432.000000;3.795978
1431.000000;3.673314
1430.000000;3.561505
1429.000000;3.565071
1428.000000;3.677239
1427.000000;3.928430
1426.000000;4.175638
1425.000000;3.875341
1424.000000;3.576965
1423.000000;3.425800
1422.000000;3.404862
1421.000000;3.600380
1420.000000;4.066832
1419.000000;4.038219
1418.000000;3.818946
1417.000000;3.759673
1416.000000;3.726306
1415.000000;3.793705
1414.000000;3.814484
1413.000000;3.621312
1412.000000;3.440123
1411.000000;3.344824
1410.000000;3.285463
1409.000000;3.276595
1408.000000;3.342769
1407.000000;3.563012
1406.000000;4.126191
1405.000000;3.934245
1404.000000;3.652462
1403.000000;3.585862
1402.000000;3.508679
1401.000000;3.450856
1400.000000;3.457861
1399.000000;3.545487
1398.000000;3.651425
1397.000000;3.703009
1396.000000;3.712361
1395.000000;3.750471
1394.000000;3.838399
1393.000000;3.981632
1392.000000;4.119435
1391.000000;3.995669
1390.000000;3.830649
1389.000000;3.785792
1388.000000;3.825369
1387.000000;3.869895
1386.000000;3.812699
1385.000000;3.679915
1384.000000;3.591532
1383.000000;3.568965
1382.000000;3.530608
1381.000000;3.505980
1380.000000;3.565582
1379.000000;3.653817
1378.000000;3.679003
1377.000000;3.697928
1376.000000;3.750554
1375.000000;3.751632
1374.000000;3.726345
1373.000000;3.701522
1372.000000;3.643355
1371.000000;3.611549
1370.000000;3.655026
1369.000000;3.737035
1368.000000;3.780886
1367.000000;3.776350
1366.000000;3.747866
1365.000000;3.711434
1364.000000;3.636956
1363.000000;3.528853
1362.000000;3.464262
1361.000000;3.472302
1360.000000;3.559387
1359.000000;3.698155
1358.000000;3.742976
1357.000000;3.668594
1356.000000;3.637457
1355.000000;3.685347
1354.000000;3.678824
1353.000000;3.560557
1352.000000;3.513925
1351.000000;3.590633
1350.000000;3.868598
1349.000000;4.559724
1348.000000;4.095001
1347.000000;3.732298
1346.000000;3.522332
1345.000000;3.433611
1344.000000;3.495978
1343.000000;3.672654
1342.000000;3.857616
1341.000000;3.881618
1340.000000;3.860220
1339.000000;3.915752
1338.000000;4.084177
1337.000000;4.191560
1336.000000;4.128750
1335.000000;4.156229
1334.000000;4.097700
1333.000000;3.840956
1332.000000;3.536896
1331.000000;3.365189
1330.000000;3.359988
1329.000000;3.521689
1328.000000;3.847005
1327.000000;3.823492
1326.000000;3.746291
1325.000000;3.836365
1324.000000;3.696881
1323.000000;3.524731
1322.000000;3.566706
1321.000000;3.990174
1320.000000;3.866345
1319.000000;3.528595
1318.000000;3.719702
1317.000000;3.841547
1316.000000;3.278715
1315.000000;3.121068
1314.000000;3.156869
1313.000000;3.315934
1312.000000;3.559260
1311.000000;3.789372
1310.000000;4.081088
1309.000000;3.914240
1308.000000;3.735647
1307.000000;3.910590
1306.000000;3.896768
1305.000000;3.610310
1304.000000;3.561646
1303.000000;3.670071
1302.000000;3.765543
1301.000000;3.699325
1300.000000;3.584147
1299.000000;3.520101
1298.000000;3.522990
1297.000000;3.709000
1296.000000;4.046319
1295.000000;3.736740
1294.000000;3.593707
1293.000000;3.651369
1292.000000;3.752689
1291.000000;3.962157
1290.000000;4.219661
1289.000000;4.037970
1288.000000;3.702319
1287.000000;3.536899
1286.000000;3.534063
1285.000000;3.776010
1284.000000;4.051792
1283.000000;3.782015
1282.000000;3.737742
1281.000000;3.928110
1280.000000;4.140228
1279.000000;3.997432
1278.000000;3.850096
1277.000000;3.752381
1276.000000;3.622740
1275.000000;3.553606
1274.000000;3.579357
1273.000000;3.591734
1272.000000;3.529718
1271.000000;3.526657
1270.000000;3.643742
1269.000000;3.845492
1268.000000;4.090771
1267.000000;4.339846
1266.000000;4.246417
1265.000000;4.261904
1264.000000;4.514757
1263.000000;4.299411
1262.000000;3.880308
1261.000000;3.664476
1260.000000;3.611306
1259.000000;3.615081
1258.000000;3.580957
1257.000000;3.565943
1256.000000;3.572477
1255.000000;3.493638
1254.000000;3.397861
1253.000000;3.399767
1252.000000;3.636084
1251.000000;4.018787
1250.000000;3.724363
1249.000000;3.610751
1248.000000;3.870738
1247.000000;3.964374
1246.000000;3.673581
1245.000000;3.559954
1244.000000;3.574620
1243.000000;3.655947
1242.000000;3.745723
1241.000000;3.712688
1240.000000;3.522555
1239.000000;3.334853
1238.000000;3.250474
1237.000000;3.284794
1236.000000;3.465482
1235.000000;3.700756
1234.000000;3.629631
1233.000000;3.571906
1232.000000;3.656596
1231.000000;3.801911
1230.000000;3.892523
1229.000000;3.931463
1228.000000;4.112155
1227.000000;4.042280
1226.000000;3.763174
1225.000000;3.663798
1224.000000;3.667603
1223.000000;3.769445
1222.000000;3.993058
1221.000000;4.015416
1220.000000;3.912585
1219.000000;3.952850
1218.000000;3.958981
1217.000000;3.842604
1216.000000;3.596874
1215.000000;3.436537
1214.000000;3.416318
1213.000000;3.615981
1212.000000;4.124507
1211.000000;3.795678
1210.000000;3.703036
1209.000000;3.742860
1208.000000;3.631369
1207.000000;3.556905
1206.000000;3.501735
1205.000000;3.477141
1204.000000;3.510715
1203.000000;3.588658
1202.000000;3.651701
1201.000000;3.722600
1200.000000;3.841337
