Criado como novo conjunto de dados;"0307_DANIEL.spp","57604.8 Secs"
cm-1;Abs
10000.000000;0.358030
9999.000000;0.357636
9998.000000;0.357243
9997.000000;0.356849
9996.000000;0.356457
9995.000000;0.356064
9994.000000;0.355673
9993.000000;0.355278
9992.000000;0.354892
9991.000000;0.354491
9990.000000;0.354122
9989.000000;0.353606
9988.000000;0.352844
9987.000000;0.351988
9986.000000;0.351094
9985.000000;0.350152
9984.000000;0.349144
9983.000000;0.348162
9982.000000;0.347342
9981.000000;0.346711
9980.000000;0.346148
9979.000000;0.345487
9978.000000;0.344654
9977.000000;0.343716
9976.000000;0.342836
9975.000000;0.342140
9974.000000;0.341593
9973.000000;0.341035
9972.000000;0.340367
9971.000000;0.339678
9970.000000;0.339101
9969.000000;0.338585
9968.000000;0.337920
9967.000000;0.337005
9966.000000;0.336005
9965.000000;0.335175
9964.000000;0.334584
9963.000000;0.334063
9962.000000;0.333400
9961.000000;0.332523
9960.000000;0.331518
9959.000000;0.330533
9958.000000;0.329657
9957.000000;0.328868
9956.000000;0.328088
9955.000000;0.327276
9954.000000;0.326434
9953.000000;0.325534
9952.000000;0.324534
9951.000000;0.323485
9950.000000;0.322557
9949.000000;0.321868
9948.000000;0.321341
9947.000000;0.320774
9946.000000;0.320036
9945.000000;0.319134
9944.000000;0.318127
9943.000000;0.317071
9942.000000;0.316039
9941.000000;0.315090
9940.000000;0.314236
9939.000000;0.313462
9938.000000;0.312798
9937.000000;0.312265
9936.000000;0.311787
9935.000000;0.311220
9934.000000;0.310501
9933.000000;0.309689
9932.000000;0.308839
9931.000000;0.307943
9930.000000;0.306997
9929.000000;0.306048
9928.000000;0.305118
9927.000000;0.304169
9926.000000;0.303193
9925.000000;0.302253
9924.000000;0.301362
9923.000000;0.300416
9922.000000;0.299340
9921.000000;0.298240
9920.000000;0.297278
9919.000000;0.296451
9918.000000;0.295605
9917.000000;0.294652
9916.000000;0.293671
9915.000000;0.292769
9914.000000;0.291963
9913.000000;0.291221
9912.000000;0.290515
9911.000000;0.289784
9910.000000;0.288910
9909.000000;0.287828
9908.000000;0.286633
9907.000000;0.285528
9906.000000;0.284650
9905.000000;0.283964
9904.000000;0.283302
9903.000000;0.282506
9902.000000;0.281561
9901.000000;0.280592
9900.000000;0.279711
9899.000000;0.278881
9898.000000;0.277969
9897.000000;0.276911
9896.000000;0.275767
9895.000000;0.274637
9894.000000;0.273588
9893.000000;0.272679
9892.000000;0.271958
9891.000000;0.271378
9890.000000;0.270782
9889.000000;0.270027
9888.000000;0.269096
9887.000000;0.268065
9886.000000;0.266990
9885.000000;0.265878
9884.000000;0.264745
9883.000000;0.263672
9882.000000;0.262788
9881.000000;0.262163
9880.000000;0.261655
9879.000000;0.260916
9878.000000;0.259673
9877.000000;0.258042
9876.000000;0.256465
9875.000000;0.255285
9874.000000;0.254472
9873.000000;0.253787
9872.000000;0.253087
9871.000000;0.252352
9870.000000;0.251539
9869.000000;0.250579
9868.000000;0.249490
9867.000000;0.248365
9866.000000;0.247249
9865.000000;0.246141
9864.000000;0.245076
9863.000000;0.244091
9862.000000;0.243111
9861.000000;0.242005
9860.000000;0.240780
9859.000000;0.239593
9858.000000;0.238557
9857.000000;0.237649
9856.000000;0.236836
9855.000000;0.236135
9854.000000;0.235486
9853.000000;0.234694
9852.000000;0.233611
9851.000000;0.232301
9850.000000;0.230956
9849.000000;0.229696
9848.000000;0.228531
9847.000000;0.227440
9846.000000;0.226399
9845.000000;0.225361
9844.000000;0.224324
9843.000000;0.223349
9842.000000;0.222453
9841.000000;0.221527
9840.000000;0.220459
9839.000000;0.219306
9838.000000;0.218214
9837.000000;0.217194
9836.000000;0.216090
9835.000000;0.214795
9834.000000;0.213378
9833.000000;0.211982
9832.000000;0.210694
9831.000000;0.209556
9830.000000;0.208589
9829.000000;0.207736
9828.000000;0.206828
9827.000000;0.205720
9826.000000;0.204447
9825.000000;0.203208
9824.000000;0.202197
9823.000000;0.201450
9822.000000;0.200813
9821.000000;0.200037
9820.000000;0.198976
9819.000000;0.197736
9818.000000;0.196568
9817.000000;0.195572
9816.000000;0.194556
9815.000000;0.193263
9814.000000;0.191695
9813.000000;0.190098
9812.000000;0.188668
9811.000000;0.187418
9810.000000;0.186319
9809.000000;0.185419
9808.000000;0.184719
9807.000000;0.184044
9806.000000;0.183164
9805.000000;0.182028
9804.000000;0.180763
9803.000000;0.179478
9802.000000;0.178165
9801.000000;0.176814
9800.000000;0.175511
9799.000000;0.174360
9798.000000;0.173332
9797.000000;0.172261
9796.000000;0.170994
9795.000000;0.169525
9794.000000;0.168018
9793.000000;0.166657
9792.000000;0.165476
9791.000000;0.164347
9790.000000;0.163151
9789.000000;0.161941
9788.000000;0.160850
9787.000000;0.159875
9786.000000;0.158874
9785.000000;0.157771
9784.000000;0.156650
9783.000000;0.155569
9782.000000;0.154423
9781.000000;0.153098
9780.000000;0.151680
9779.000000;0.150366
9778.000000;0.149187
9777.000000;0.147976
9776.000000;0.146598
9775.000000;0.145111
9774.000000;0.143666
9773.000000;0.142351
9772.000000;0.141180
9771.000000;0.140113
9770.000000;0.139038
9769.000000;0.137799
9768.000000;0.136315
9767.000000;0.134668
9766.000000;0.133025
9765.000000;0.131526
9764.000000;0.130247
9763.000000;0.129219
9762.000000;0.128390
9761.000000;0.127593
9760.000000;0.126605
9759.000000;0.125281
9758.000000;0.123651
9757.000000;0.121896
9756.000000;0.120253
9755.000000;0.118847
9754.000000;0.117588
9753.000000;0.116250
9752.000000;0.114711
9751.000000;0.113082
9750.000000;0.111594
9749.000000;0.110369
9748.000000;0.109329
9747.000000;0.108293
9746.000000;0.107106
9745.000000;0.105720
9744.000000;0.104198
9743.000000;0.102683
9742.000000;0.101299
9741.000000;0.100062
9740.000000;0.098856
9739.000000;0.097495
9738.000000;0.095848
9737.000000;0.093975
9736.000000;0.092144
9735.000000;0.090635
9734.000000;0.089491
9733.000000;0.088475
9732.000000;0.087287
9731.000000;0.085800
9730.000000;0.084068
9729.000000;0.082218
9728.000000;0.080402
9727.000000;0.078780
9726.000000;0.077426
9725.000000;0.076226
9724.000000;0.074976
9723.000000;0.073591
9722.000000;0.072200
9721.000000;0.070990
9720.000000;0.070009
9719.000000;0.069109
9718.000000;0.068047
9717.000000;0.066644
9716.000000;0.064900
9715.000000;0.062982
9714.000000;0.061088
9713.000000;0.059320
9712.000000;0.057691
9711.000000;0.056191
9710.000000;0.054789
9709.000000;0.053390
9708.000000;0.051884
9707.000000;0.050254
9706.000000;0.048579
9705.000000;0.046939
9704.000000;0.045373
9703.000000;0.043919
9702.000000;0.042600
9701.000000;0.041329
9700.000000;0.039933
9699.000000;0.038338
9698.000000;0.036673
9697.000000;0.035110
9696.000000;0.033646
9695.000000;0.032151
9694.000000;0.030586
9693.000000;0.029063
9692.000000;0.027651
9691.000000;0.026241
9690.000000;0.024657
9689.000000;0.022870
9688.000000;0.021031
9687.000000;0.019312
9686.000000;0.017751
9685.000000;0.016244
9684.000000;0.014632
9683.000000;0.012824
9682.000000;0.010868
9681.000000;0.008928
9680.000000;0.007175
9679.000000;0.005682
9678.000000;0.004405
9677.000000;0.003225
9676.000000;0.002004
9675.000000;0.000625
9674.000000;-0.000951
9673.000000;-0.002650
9672.000000;-0.004340
9671.000000;-0.005944
9670.000000;-0.007513
9669.000000;-0.009181
9668.000000;-0.011055
9667.000000;-0.013129
9666.000000;-0.015249
9665.000000;-0.017181
9664.000000;-0.018773
9663.000000;-0.020108
9662.000000;-0.021479
9661.000000;-0.023171
9660.000000;-0.025252
9659.000000;-0.027558
9658.000000;-0.029849
9657.000000;-0.031936
9656.000000;-0.033738
9655.000000;-0.035319
9654.000000;-0.036863
9653.000000;-0.038517
9652.000000;-0.040241
9651.000000;-0.041873
9650.000000;-0.043376
9649.000000;-0.044927
9648.000000;-0.046715
9647.000000;-0.048716
9646.000000;-0.050725
9645.000000;-0.052567
9644.000000;-0.054216
9643.000000;-0.055762
9642.000000;-0.057343
9641.000000;-0.059056
9640.000000;-0.060865
9639.000000;-0.062607
9638.000000;-0.064176
9637.000000;-0.065687
9636.000000;-0.067351
9635.000000;-0.069208
9634.000000;-0.071092
9633.000000;-0.072902
9632.000000;-0.074760
9631.000000;-0.076800
9630.000000;-0.078906
9629.000000;-0.080802
9628.000000;-0.082387
9627.000000;-0.083867
9626.000000;-0.085526
9625.000000;-0.087447
9624.000000;-0.089490
9623.000000;-0.091476
9622.000000;-0.093331
9621.000000;-0.095078
9620.000000;-0.096755
9619.000000;-0.098402
9618.000000;-0.100114
9617.000000;-0.102063
9616.000000;-0.104387
9615.000000;-0.107007
9614.000000;-0.109574
9613.000000;-0.111699
9612.000000;-0.113299
9611.000000;-0.114702
9610.000000;-0.116357
9609.000000;-0.118415
9608.000000;-0.120612
9607.000000;-0.122568
9606.000000;-0.124174
9605.000000;-0.125663
9604.000000;-0.127328
9603.000000;-0.129244
9602.000000;-0.131277
9601.000000;-0.133303
9600.000000;-0.135329
9599.000000;-0.137415
9598.000000;-0.139551
9597.000000;-0.141644
9596.000000;-0.143606
9595.000000;-0.145438
9594.000000;-0.147242
9593.000000;-0.149160
9592.000000;-0.151257
9591.000000;-0.153439
9590.000000;-0.155526
9589.000000;-0.157412
9588.000000;-0.159162
9587.000000;-0.160932
9586.000000;-0.162824
9585.000000;-0.164823
9584.000000;-0.166838
9583.000000;-0.168780
9582.000000;-0.170632
9581.000000;-0.172497
9580.000000;-0.174535
9579.000000;-0.176813
9578.000000;-0.179200
9577.000000;-0.181449
9576.000000;-0.183389
9575.000000;-0.185027
9574.000000;-0.186513
9573.000000;-0.188049
9572.000000;-0.189795
9571.000000;-0.191787
9570.000000;-0.193929
9569.000000;-0.196099
9568.000000;-0.198254
9567.000000;-0.200399
9566.000000;-0.202476
9565.000000;-0.204369
9564.000000;-0.206057
9563.000000;-0.207691
9562.000000;-0.209452
9561.000000;-0.211384
9560.000000;-0.213386
9559.000000;-0.215345
9558.000000;-0.217221
9557.000000;-0.219028
9556.000000;-0.220809
9555.000000;-0.222647
9554.000000;-0.224631
9553.000000;-0.226793
9552.000000;-0.229090
9551.000000;-0.231439
9550.000000;-0.233760
9549.000000;-0.235976
9548.000000;-0.238015
9547.000000;-0.239850
9546.000000;-0.241529
9545.000000;-0.243144
9544.000000;-0.244783
9543.000000;-0.246503
9542.000000;-0.248341
9541.000000;-0.250293
9540.000000;-0.252266
9539.000000;-0.254110
9538.000000;-0.255753
9537.000000;-0.257292
9536.000000;-0.258923
9535.000000;-0.260773
9534.000000;-0.262825
9533.000000;-0.264968
9532.000000;-0.267058
9531.000000;-0.268951
9530.000000;-0.270573
9529.000000;-0.272019
9528.000000;-0.273504
9527.000000;-0.275160
9526.000000;-0.276914
9525.000000;-0.278610
9524.000000;-0.280186
9523.000000;-0.281700
9522.000000;-0.283268
9521.000000;-0.285030
9520.000000;-0.287077
9519.000000;-0.289289
9518.000000;-0.291322
9517.000000;-0.292903
9516.000000;-0.294133
9515.000000;-0.295352
9514.000000;-0.296731
9513.000000;-0.298154
9512.000000;-0.299503
9511.000000;-0.300841
9510.000000;-0.302264
9509.000000;-0.303724
9508.000000;-0.305151
9507.000000;-0.306598
9506.000000;-0.308161
9505.000000;-0.309827
9504.000000;-0.311511
9503.000000;-0.313150
9502.000000;-0.314655
9501.000000;-0.315884
9500.000000;-0.316817
9499.000000;-0.317689
9498.000000;-0.318800
9497.000000;-0.320198
9496.000000;-0.321672
9495.000000;-0.323040
9494.000000;-0.324313
9493.000000;-0.325581
9492.000000;-0.326864
9491.000000;-0.328134
9490.000000;-0.329354
9489.000000;-0.330475
9488.000000;-0.331437
9487.000000;-0.332221
9486.000000;-0.332869
9485.000000;-0.333456
9484.000000;-0.334060
9483.000000;-0.334742
9482.000000;-0.335487
9481.000000;-0.336212
9480.000000;-0.336878
9479.000000;-0.337575
9478.000000;-0.338412
9477.000000;-0.339356
9476.000000;-0.340282
9475.000000;-0.341161
9474.000000;-0.342079
9473.000000;-0.343065
9472.000000;-0.343974
9471.000000;-0.344613
9470.000000;-0.344942
9469.000000;-0.345131
9468.000000;-0.345460
9467.000000;-0.346093
9466.000000;-0.346893
9465.000000;-0.347489
9464.000000;-0.347635
9463.000000;-0.347512
9462.000000;-0.347563
9461.000000;-0.348014
9460.000000;-0.348655
9459.000000;-0.349117
9458.000000;-0.349277
9457.000000;-0.349324
9456.000000;-0.349521
9455.000000;-0.349960
9454.000000;-0.350513
9453.000000;-0.350947
9452.000000;-0.351101
9451.000000;-0.350989
9450.000000;-0.350737
9449.000000;-0.350456
9448.000000;-0.350217
9447.000000;-0.350079
9446.000000;-0.350052
9445.000000;-0.350018
9444.000000;-0.349831
9443.000000;-0.349514
9442.000000;-0.349250
9441.000000;-0.349133
9440.000000;-0.349025
9439.000000;-0.348728
9438.000000;-0.348208
9437.000000;-0.347586
9436.000000;-0.346967
9435.000000;-0.346373
9434.000000;-0.345794
9433.000000;-0.345216
9432.000000;-0.344634
9431.000000;-0.344088
9430.000000;-0.343654
9429.000000;-0.343330
9428.000000;-0.342952
9427.000000;-0.342319
9426.000000;-0.341418
9425.000000;-0.340458
9424.000000;-0.339657
9423.000000;-0.339027
9422.000000;-0.338413
9421.000000;-0.337709
9420.000000;-0.336998
9419.000000;-0.336436
9418.000000;-0.336026
9417.000000;-0.335547
9416.000000;-0.334763
9415.000000;-0.333656
9414.000000;-0.332408
9413.000000;-0.331208
9412.000000;-0.330140
9411.000000;-0.329208
9410.000000;-0.328334
9409.000000;-0.327350
9408.000000;-0.326140
9407.000000;-0.324833
9406.000000;-0.323729
9405.000000;-0.322947
9404.000000;-0.322289
9403.000000;-0.321505
9402.000000;-0.320557
9401.000000;-0.319477
9400.000000;-0.318159
9399.000000;-0.316509
9398.000000;-0.314737
9397.000000;-0.313239
9396.000000;-0.312149
9395.000000;-0.311222
9394.000000;-0.310212
9393.000000;-0.309171
9392.000000;-0.308242
9391.000000;-0.307332
9390.000000;-0.306188
9389.000000;-0.304740
9388.000000;-0.303208
9387.000000;-0.301839
9386.000000;-0.300660
9385.000000;-0.299532
9384.000000;-0.298353
9383.000000;-0.297125
9382.000000;-0.295848
9381.000000;-0.294453
9380.000000;-0.292891
9379.000000;-0.291243
9378.000000;-0.289682
9377.000000;-0.288291
9376.000000;-0.286969
9375.000000;-0.285556
9374.000000;-0.284020
9373.000000;-0.282475
9372.000000;-0.281023
9371.000000;-0.279644
9370.000000;-0.278237
9369.000000;-0.276723
9368.000000;-0.275099
9367.000000;-0.273451
9366.000000;-0.271910
9365.000000;-0.270557
9364.000000;-0.269319
9363.000000;-0.268009
9362.000000;-0.266503
9361.000000;-0.264838
9360.000000;-0.263142
9359.000000;-0.261507
9358.000000;-0.259981
9357.000000;-0.258625
9356.000000;-0.257470
9355.000000;-0.256397
9354.000000;-0.255153
9353.000000;-0.253580
9352.000000;-0.251819
9351.000000;-0.250224
9350.000000;-0.249048
9349.000000;-0.248214
9348.000000;-0.247416
9347.000000;-0.246351
9346.000000;-0.244866
9345.000000;-0.242964
9344.000000;-0.240815
9343.000000;-0.238718
9342.000000;-0.236914
9341.000000;-0.235400
9340.000000;-0.233995
9339.000000;-0.232594
9338.000000;-0.231269
9337.000000;-0.230071
9336.000000;-0.228874
9335.000000;-0.227521
9334.000000;-0.226013
9333.000000;-0.224457
9332.000000;-0.222897
9331.000000;-0.221329
9330.000000;-0.219818
9329.000000;-0.218456
9328.000000;-0.217204
9327.000000;-0.215915
9326.000000;-0.214518
9325.000000;-0.213051
9324.000000;-0.211537
9323.000000;-0.209957
9322.000000;-0.208393
9321.000000;-0.207029
9320.000000;-0.205921
9319.000000;-0.204854
9318.000000;-0.203548
9317.000000;-0.201928
9316.000000;-0.200143
9315.000000;-0.198364
9314.000000;-0.196659
9313.000000;-0.195057
9312.000000;-0.193608
9311.000000;-0.192343
9310.000000;-0.191180
9309.000000;-0.189928
9308.000000;-0.188423
9307.000000;-0.186686
9306.000000;-0.184928
9305.000000;-0.183353
9304.000000;-0.182002
9303.000000;-0.180798
9302.000000;-0.179687
9301.000000;-0.178612
9300.000000;-0.177423
9299.000000;-0.175977
9298.000000;-0.174352
9297.000000;-0.172804
9296.000000;-0.171449
9295.000000;-0.170122
9294.000000;-0.168649
9293.000000;-0.167105
9292.000000;-0.165682
9291.000000;-0.164394
9290.000000;-0.163086
9289.000000;-0.161693
9288.000000;-0.160320
9287.000000;-0.159047
9286.000000;-0.157833
9285.000000;-0.156642
9284.000000;-0.155536
9283.000000;-0.154553
9282.000000;-0.153584
9281.000000;-0.152470
9280.000000;-0.151187
9279.000000;-0.149852
9278.000000;-0.148557
9277.000000;-0.147282
9276.000000;-0.145964
9275.000000;-0.144581
9274.000000;-0.143128
9273.000000;-0.141592
9272.000000;-0.139995
9271.000000;-0.138442
9270.000000;-0.137043
9269.000000;-0.135801
9268.000000;-0.134645
9267.000000;-0.133572
9266.000000;-0.132660
9265.000000;-0.131892
9264.000000;-0.131044
9263.000000;-0.129857
9262.000000;-0.128294
9261.000000;-0.126561
9260.000000;-0.124910
9259.000000;-0.123503
9258.000000;-0.122400
9257.000000;-0.121543
9256.000000;-0.120741
9255.000000;-0.119784
9254.000000;-0.118648
9253.000000;-0.117469
9252.000000;-0.116303
9251.000000;-0.115034
9250.000000;-0.113594
9249.000000;-0.112156
9248.000000;-0.110994
9247.000000;-0.110175
9246.000000;-0.109481
9245.000000;-0.108620
9244.000000;-0.107448
9243.000000;-0.106042
9242.000000;-0.104651
9241.000000;-0.103543
9240.000000;-0.102775
9239.000000;-0.102106
9238.000000;-0.101191
9237.000000;-0.099892
9236.000000;-0.098360
9235.000000;-0.096858
9234.000000;-0.095558
9233.000000;-0.094492
9232.000000;-0.093574
9231.000000;-0.092650
9230.000000;-0.091595
9229.000000;-0.090418
9228.000000;-0.089256
9227.000000;-0.088231
9226.000000;-0.087341
9225.000000;-0.086476
9224.000000;-0.085514
9223.000000;-0.084391
9222.000000;-0.083158
9221.000000;-0.081963
9220.000000;-0.080934
9219.000000;-0.080032
9218.000000;-0.079062
9217.000000;-0.077869
9216.000000;-0.076502
9215.000000;-0.075183
9214.000000;-0.074109
9213.000000;-0.073322
9212.000000;-0.072697
9211.000000;-0.072035
9210.000000;-0.071174
9209.000000;-0.070084
9208.000000;-0.068876
9207.000000;-0.067711
9206.000000;-0.066689
9205.000000;-0.065825
9204.000000;-0.065094
9203.000000;-0.064442
9202.000000;-0.063772
9201.000000;-0.062974
9200.000000;-0.062016
9199.000000;-0.060975
9198.000000;-0.059945
9197.000000;-0.058931
9196.000000;-0.057868
9195.000000;-0.056726
9194.000000;-0.055565
9193.000000;-0.054484
9192.000000;-0.053535
9191.000000;-0.052681
9190.000000;-0.051811
9189.000000;-0.050819
9188.000000;-0.049721
9187.000000;-0.048682
9186.000000;-0.047865
9185.000000;-0.047217
9184.000000;-0.046487
9183.000000;-0.045501
9182.000000;-0.044383
9181.000000;-0.043418
9180.000000;-0.042719
9179.000000;-0.042105
9178.000000;-0.041314
9177.000000;-0.040277
9176.000000;-0.039155
9175.000000;-0.038138
9174.000000;-0.037263
9173.000000;-0.036396
9172.000000;-0.035404
9171.000000;-0.034316
9170.000000;-0.033291
9169.000000;-0.032430
9168.000000;-0.031647
9167.000000;-0.030800
9166.000000;-0.029884
9165.000000;-0.029035
9164.000000;-0.028342
9163.000000;-0.027745
9162.000000;-0.027157
9161.000000;-0.026604
9160.000000;-0.026174
9159.000000;-0.025851
9158.000000;-0.025455
9157.000000;-0.024778
9156.000000;-0.023755
9155.000000;-0.022543
9154.000000;-0.021423
9153.000000;-0.020615
9152.000000;-0.020112
9151.000000;-0.019680
9150.000000;-0.019038
9149.000000;-0.018089
9148.000000;-0.017002
9147.000000;-0.016070
9146.000000;-0.015462
9145.000000;-0.015084
9144.000000;-0.014697
9143.000000;-0.014147
9142.000000;-0.013455
9141.000000;-0.012702
9140.000000;-0.011879
9139.000000;-0.010922
9138.000000;-0.009841
9137.000000;-0.008755
9136.000000;-0.007779
9135.000000;-0.006937
9134.000000;-0.006170
9133.000000;-0.005431
9132.000000;-0.004729
9131.000000;-0.004117
9130.000000;-0.003628
9129.000000;-0.003212
9128.000000;-0.002771
9127.000000;-0.002267
9126.000000;-0.001746
9125.000000;-0.001240
9124.000000;-0.000669
9123.000000;0.000081
9122.000000;0.001016
9121.000000;0.002031
9120.000000;0.003025
9119.000000;0.003951
9118.000000;0.004748
9117.000000;0.005339
9116.000000;0.005738
9115.000000;0.006111
9114.000000;0.006666
9113.000000;0.007465
9112.000000;0.008356
9111.000000;0.009100
9110.000000;0.009590
9109.000000;0.009963
9108.000000;0.010462
9107.000000;0.011158
9106.000000;0.011888
9105.000000;0.012494
9104.000000;0.013042
9103.000000;0.013699
9102.000000;0.014428
9101.000000;0.014989
9100.000000;0.015269
9099.000000;0.015479
9098.000000;0.015940
9097.000000;0.016758
9096.000000;0.017769
9095.000000;0.018740
9094.000000;0.019532
9093.000000;0.020114
9092.000000;0.020513
9091.000000;0.020781
9090.000000;0.021006
9089.000000;0.021335
9088.000000;0.021939
9087.000000;0.022873
9086.000000;0.023966
9085.000000;0.024941
9084.000000;0.025663
9083.000000;0.026206
9082.000000;0.026651
9081.000000;0.026951
9080.000000;0.027067
9079.000000;0.027148
9078.000000;0.027433
9077.000000;0.027993
9076.000000;0.028685
9075.000000;0.029342
9074.000000;0.029920
9073.000000;0.030440
9072.000000;0.030899
9071.000000;0.031297
9070.000000;0.031711
9069.000000;0.032273
9068.000000;0.033039
9067.000000;0.033917
9066.000000;0.034715
9065.000000;0.035295
9064.000000;0.035686
9063.000000;0.036047
9062.000000;0.036528
9061.000000;0.037131
9060.000000;0.037713
9059.000000;0.038134
9058.000000;0.038405
9057.000000;0.038691
9056.000000;0.039148
9055.000000;0.039764
9054.000000;0.040394
9053.000000;0.040927
9052.000000;0.041366
9051.000000;0.041724
9050.000000;0.041965
9049.000000;0.042113
9048.000000;0.042340
9047.000000;0.042794
9046.000000;0.043387
9045.000000;0.043880
9044.000000;0.044192
9043.000000;0.044496
9042.000000;0.044957
9041.000000;0.045518
9040.000000;0.046025
9039.000000;0.046469
9038.000000;0.046972
9037.000000;0.047576
9036.000000;0.048186
9035.000000;0.048698
9034.000000;0.049126
9033.000000;0.049569
9032.000000;0.050114
9031.000000;0.050753
9030.000000;0.051365
9029.000000;0.051774
9028.000000;0.051896
9027.000000;0.051839
9026.000000;0.051821
9025.000000;0.051973
9024.000000;0.052246
9023.000000;0.052517
9022.000000;0.052762
9021.000000;0.053082
9020.000000;0.053572
9019.000000;0.054159
9018.000000;0.054619
9017.000000;0.054792
9016.000000;0.054774
9015.000000;0.054848
9014.000000;0.055193
9013.000000;0.055733
9012.000000;0.056271
9011.000000;0.056726
9010.000000;0.057159
9009.000000;0.057619
9008.000000;0.058072
9007.000000;0.058492
9006.000000;0.058944
9005.000000;0.059500
9004.000000;0.060114
9003.000000;0.060644
9002.000000;0.061009
9001.000000;0.061280
9000.000000;0.061588
8999.000000;0.061963
8998.000000;0.062322
8997.000000;0.062591
8996.000000;0.062788
8995.000000;0.062947
8994.000000;0.063028
8993.000000;0.062995
8992.000000;0.062965
8991.000000;0.063162
8990.000000;0.063685
8989.000000;0.064352
8988.000000;0.064862
8987.000000;0.065091
8986.000000;0.065188
8985.000000;0.065376
8984.000000;0.065702
8983.000000;0.066025
8982.000000;0.066211
8981.000000;0.066315
8980.000000;0.066531
8979.000000;0.066972
8978.000000;0.067531
8977.000000;0.067992
8976.000000;0.068253
8975.000000;0.068400
8974.000000;0.068566
8973.000000;0.068801
8972.000000;0.069091
8971.000000;0.069451
8970.000000;0.069907
8969.000000;0.070395
8968.000000;0.070746
8967.000000;0.070837
8966.000000;0.070727
8965.000000;0.070623
8964.000000;0.070678
8963.000000;0.070871
8962.000000;0.071086
8961.000000;0.071288
8960.000000;0.071558
8959.000000;0.071960
8958.000000;0.072413
8957.000000;0.072749
8956.000000;0.072889
8955.000000;0.072910
8954.000000;0.072973
8953.000000;0.073202
8952.000000;0.073613
8951.000000;0.074095
8950.000000;0.074458
8949.000000;0.074571
8948.000000;0.074486
8947.000000;0.074406
8946.000000;0.074499
8945.000000;0.074744
8944.000000;0.074995
8943.000000;0.075170
8942.000000;0.075330
8941.000000;0.075576
8940.000000;0.075890
8939.000000;0.076159
8938.000000;0.076326
8937.000000;0.076478
8936.000000;0.076741
8935.000000;0.077133
8934.000000;0.077552
8933.000000;0.077896
8932.000000;0.078121
8931.000000;0.078227
8930.000000;0.078255
8929.000000;0.078318
8928.000000;0.078514
8927.000000;0.078793
8926.000000;0.078992
8925.000000;0.079050
8924.000000;0.079088
8923.000000;0.079228
8922.000000;0.079402
8921.000000;0.079454
8920.000000;0.079373
8919.000000;0.079318
8918.000000;0.079419
8917.000000;0.079665
8916.000000;0.079976
8915.000000;0.080298
8914.000000;0.080599
8913.000000;0.080859
8912.000000;0.081095
8911.000000;0.081348
8910.000000;0.081622
8909.000000;0.081872
8908.000000;0.082053
8907.000000;0.082145
8906.000000;0.082144
8905.000000;0.082069
8904.000000;0.081988
8903.000000;0.082008
8902.000000;0.082226
8901.000000;0.082658
8900.000000;0.083198
8899.000000;0.083610
8898.000000;0.083668
8897.000000;0.083362
8896.000000;0.082947
8895.000000;0.082716
8894.000000;0.082747
8893.000000;0.082915
8892.000000;0.083091
8891.000000;0.083226
8890.000000;0.083318
8889.000000;0.083401
8888.000000;0.083573
8887.000000;0.083918
8886.000000;0.084367
8885.000000;0.084750
8884.000000;0.084966
8883.000000;0.085031
8882.000000;0.084961
8881.000000;0.084737
8880.000000;0.084431
8879.000000;0.084234
8878.000000;0.084264
8877.000000;0.084402
8876.000000;0.084395
8875.000000;0.084139
8874.000000;0.083799
8873.000000;0.083669
8872.000000;0.083896
8871.000000;0.084337
8870.000000;0.084713
8869.000000;0.084928
8868.000000;0.085163
8867.000000;0.085571
8866.000000;0.085964
8865.000000;0.085981
8864.000000;0.085567
8863.000000;0.085110
8862.000000;0.085045
8861.000000;0.085445
8860.000000;0.086038
8859.000000;0.086493
8858.000000;0.086608
8857.000000;0.086367
8856.000000;0.085953
8855.000000;0.085669
8854.000000;0.085708
8853.000000;0.086016
8852.000000;0.086402
8851.000000;0.086717
8850.000000;0.086855
8849.000000;0.086699
8848.000000;0.086236
8847.000000;0.085687
8846.000000;0.085358
8845.000000;0.085339
8844.000000;0.085436
8843.000000;0.085434
8842.000000;0.085338
8841.000000;0.085299
8840.000000;0.085373
8839.000000;0.085458
8838.000000;0.085441
8837.000000;0.085343
8836.000000;0.085272
8835.000000;0.085278
8834.000000;0.085301
8833.000000;0.085298
8832.000000;0.085344
8831.000000;0.085560
8830.000000;0.085935
8829.000000;0.086298
8828.000000;0.086488
8827.000000;0.086495
8826.000000;0.086419
8825.000000;0.086336
8824.000000;0.086256
8823.000000;0.086184
8822.000000;0.086162
8821.000000;0.086227
8820.000000;0.086363
8819.000000;0.086485
8818.000000;0.086511
8817.000000;0.086462
8816.000000;0.086474
8815.000000;0.086665
8814.000000;0.086977
8813.000000;0.087210
8812.000000;0.087216
8811.000000;0.087012
8810.000000;0.086703
8809.000000;0.086377
8808.000000;0.086107
8807.000000;0.085975
8806.000000;0.086008
8805.000000;0.086113
8804.000000;0.086137
8803.000000;0.086002
8802.000000;0.085741
8801.000000;0.085444
8800.000000;0.085202
8799.000000;0.085082
8798.000000;0.085093
8797.000000;0.085169
8796.000000;0.085214
8795.000000;0.085189
8794.000000;0.085119
8793.000000;0.085043
8792.000000;0.084990
8791.000000;0.085006
8790.000000;0.085132
8789.000000;0.085320
8788.000000;0.085405
8787.000000;0.085230
8786.000000;0.084820
8785.000000;0.084375
8784.000000;0.084074
8783.000000;0.083926
8782.000000;0.083860
8781.000000;0.083869
8780.000000;0.083995
8779.000000;0.084171
8778.000000;0.084224
8777.000000;0.084062
8776.000000;0.083800
8775.000000;0.083624
8774.000000;0.083612
8773.000000;0.083719
8772.000000;0.083866
8771.000000;0.083967
8770.000000;0.083928
8769.000000;0.083730
8768.000000;0.083488
8767.000000;0.083343
8766.000000;0.083327
8765.000000;0.083376
8764.000000;0.083436
8763.000000;0.083470
8762.000000;0.083409
8761.000000;0.083212
8760.000000;0.082959
8759.000000;0.082776
8758.000000;0.082665
8757.000000;0.082514
8756.000000;0.082276
8755.000000;0.082032
8754.000000;0.081863
8753.000000;0.081771
8752.000000;0.081761
8751.000000;0.081888
8750.000000;0.082151
8749.000000;0.082416
8748.000000;0.082501
8747.000000;0.082321
8746.000000;0.081930
8745.000000;0.081476
8744.000000;0.081129
8743.000000;0.080978
8742.000000;0.080971
8741.000000;0.080978
8740.000000;0.080933
8739.000000;0.080864
8738.000000;0.080791
8737.000000;0.080662
8736.000000;0.080414
8735.000000;0.080042
8734.000000;0.079611
8733.000000;0.079259
8732.000000;0.079152
8731.000000;0.079339
8730.000000;0.079628
8729.000000;0.079725
8728.000000;0.079524
8727.000000;0.079188
8726.000000;0.078931
8725.000000;0.078825
8724.000000;0.078833
8723.000000;0.078905
8722.000000;0.078958
8721.000000;0.078882
8720.000000;0.078653
8719.000000;0.078391
8718.000000;0.078240
8717.000000;0.078238
8716.000000;0.078328
8715.000000;0.078419
8714.000000;0.078385
8713.000000;0.078104
8712.000000;0.077578
8711.000000;0.076981
8710.000000;0.076499
8709.000000;0.076167
8708.000000;0.075915
8707.000000;0.075728
8706.000000;0.075669
8705.000000;0.075752
8704.000000;0.075864
8703.000000;0.075823
8702.000000;0.075535
8701.000000;0.075110
8700.000000;0.074812
8699.000000;0.074833
8698.000000;0.075087
8697.000000;0.075275
8696.000000;0.075189
8695.000000;0.074878
8694.000000;0.074532
8693.000000;0.074280
8692.000000;0.074139
8691.000000;0.074047
8690.000000;0.073894
8689.000000;0.073598
8688.000000;0.073233
8687.000000;0.072993
8686.000000;0.072976
8685.000000;0.073055
8684.000000;0.073034
8683.000000;0.072851
8682.000000;0.072562
8681.000000;0.072231
8680.000000;0.071931
8679.000000;0.071789
8678.000000;0.071879
8677.000000;0.072070
8676.000000;0.072101
8675.000000;0.071821
8674.000000;0.071320
8673.000000;0.070824
8672.000000;0.070523
8671.000000;0.070443
8670.000000;0.070444
8669.000000;0.070341
8668.000000;0.070090
8667.000000;0.069827
8666.000000;0.069691
8665.000000;0.069632
8664.000000;0.069477
8663.000000;0.069129
8662.000000;0.068657
8661.000000;0.068214
8660.000000;0.067948
8659.000000;0.067924
8658.000000;0.068073
8657.000000;0.068223
8656.000000;0.068246
8655.000000;0.068143
8654.000000;0.067935
8653.000000;0.067560
8652.000000;0.066981
8651.000000;0.066358
8650.000000;0.065938
8649.000000;0.065789
8648.000000;0.065756
8647.000000;0.065705
8646.000000;0.065664
8645.000000;0.065676
8644.000000;0.065642
8643.000000;0.065428
8642.000000;0.065046
8641.000000;0.064628
8640.000000;0.064261
8639.000000;0.063950
8638.000000;0.063707
8637.000000;0.063585
8636.000000;0.063584
8635.000000;0.063608
8634.000000;0.063550
8633.000000;0.063400
8632.000000;0.063226
8631.000000;0.063055
8630.000000;0.062829
8629.000000;0.062485
8628.000000;0.062052
8627.000000;0.061638
8626.000000;0.061323
8625.000000;0.061080
8624.000000;0.060815
8623.000000;0.060458
8622.000000;0.060034
8621.000000;0.059657
8620.000000;0.059458
8619.000000;0.059482
8618.000000;0.059636
8617.000000;0.059754
8616.000000;0.059705
8615.000000;0.059456
8614.000000;0.059032
8613.000000;0.058485
8612.000000;0.057912
8611.000000;0.057449
8610.000000;0.057201
8609.000000;0.057161
8608.000000;0.057230
8607.000000;0.057285
8606.000000;0.057244
8605.000000;0.057080
8604.000000;0.056812
8603.000000;0.056490
8602.000000;0.056170
8601.000000;0.055913
8600.000000;0.055769
8599.000000;0.055721
8598.000000;0.055653
8597.000000;0.055443
8596.000000;0.055095
8595.000000;0.054747
8594.000000;0.054512
8593.000000;0.054356
8592.000000;0.054163
8591.000000;0.053888
8590.000000;0.053587
8589.000000;0.053336
8588.000000;0.053136
8587.000000;0.052907
8586.000000;0.052557
8585.000000;0.052068
8584.000000;0.051550
8583.000000;0.051182
8582.000000;0.051068
8581.000000;0.051167
8580.000000;0.051336
8579.000000;0.051423
8578.000000;0.051316
8577.000000;0.050986
8576.000000;0.050529
8575.000000;0.050103
8574.000000;0.049779
8573.000000;0.049471
8572.000000;0.049068
8571.000000;0.048585
8570.000000;0.048150
8569.000000;0.047859
8568.000000;0.047693
8567.000000;0.047571
8566.000000;0.047421
8565.000000;0.047211
8564.000000;0.046950
8563.000000;0.046678
8562.000000;0.046433
8561.000000;0.046217
8560.000000;0.045996
8559.000000;0.045732
8558.000000;0.045403
8557.000000;0.045038
8556.000000;0.044731
8555.000000;0.044581
8554.000000;0.044560
8553.000000;0.044499
8552.000000;0.044250
8551.000000;0.043868
8550.000000;0.043542
8549.000000;0.043370
8548.000000;0.043261
8547.000000;0.043078
8546.000000;0.042793
8545.000000;0.042456
8544.000000;0.042082
8543.000000;0.041648
8542.000000;0.041213
8541.000000;0.040930
8540.000000;0.040889
8539.000000;0.040987
8538.000000;0.041001
8537.000000;0.040803
8536.000000;0.040438
8535.000000;0.040024
8534.000000;0.039632
8533.000000;0.039291
8532.000000;0.039046
8531.000000;0.038926
8530.000000;0.038891
8529.000000;0.038850
8528.000000;0.038752
8527.000000;0.038605
8526.000000;0.038427
8525.000000;0.038216
8524.000000;0.037970
8523.000000;0.037698
8522.000000;0.037392
8521.000000;0.037023
8520.000000;0.036568
8519.000000;0.036055
8518.000000;0.035578
8517.000000;0.035248
8516.000000;0.035087
8515.000000;0.034942
8514.000000;0.034580
8513.000000;0.033930
8512.000000;0.033198
8511.000000;0.032680
8510.000000;0.032504
8509.000000;0.032599
8508.000000;0.032844
8507.000000;0.033128
8506.000000;0.033298
8505.000000;0.033202
8504.000000;0.032828
8503.000000;0.032329
8502.000000;0.031870
8501.000000;0.031529
8500.000000;0.031316
8499.000000;0.031173
8498.000000;0.030955
8497.000000;0.030545
8496.000000;0.030056
8495.000000;0.029766
8494.000000;0.029765
8493.000000;0.029799
8492.000000;0.029562
8491.000000;0.029058
8490.000000;0.028552
8489.000000;0.028234
8488.000000;0.028083
8487.000000;0.028002
8486.000000;0.027935
8485.000000;0.027819
8484.000000;0.027564
8483.000000;0.027136
8482.000000;0.026624
8481.000000;0.026170
8480.000000;0.025862
8479.000000;0.025695
8478.000000;0.025589
8477.000000;0.025436
8476.000000;0.025179
8475.000000;0.024859
8474.000000;0.024554
8473.000000;0.024286
8472.000000;0.024017
8471.000000;0.023723
8470.000000;0.023423
8469.000000;0.023142
8468.000000;0.022896
8467.000000;0.022706
8466.000000;0.022589
8465.000000;0.022508
8464.000000;0.022382
8463.000000;0.022170
8462.000000;0.021907
8461.000000;0.021620
8460.000000;0.021263
8459.000000;0.020793
8458.000000;0.020295
8457.000000;0.019964
8456.000000;0.019908
8455.000000;0.019996
8454.000000;0.019968
8453.000000;0.019696
8452.000000;0.019302
8451.000000;0.019011
8450.000000;0.018919
8449.000000;0.018950
8448.000000;0.018952
8447.000000;0.018790
8446.000000;0.018389
8445.000000;0.017801
8444.000000;0.017227
8443.000000;0.016865
8442.000000;0.016702
8441.000000;0.016519
8440.000000;0.016140
8439.000000;0.015617
8438.000000;0.015146
8437.000000;0.014867
8436.000000;0.014775
8435.000000;0.014769
8434.000000;0.014739
8433.000000;0.014635
8432.000000;0.014499
8431.000000;0.014388
8430.000000;0.014249
8429.000000;0.013929
8428.000000;0.013393
8427.000000;0.012843
8426.000000;0.012546
8425.000000;0.012550
8424.000000;0.012639
8423.000000;0.012585
8422.000000;0.012350
8421.000000;0.012056
8420.000000;0.011804
8419.000000;0.011583
8418.000000;0.011325
8417.000000;0.011012
8416.000000;0.010712
8415.000000;0.010512
8414.000000;0.010416
8413.000000;0.010349
8412.000000;0.010231
8411.000000;0.010027
8410.000000;0.009725
8409.000000;0.009317
8408.000000;0.008842
8407.000000;0.008400
8406.000000;0.008096
8405.000000;0.007965
8404.000000;0.007954
8403.000000;0.007951
8402.000000;0.007825
8401.000000;0.007509
8400.000000;0.007090
8399.000000;0.006762
8398.000000;0.006641
8397.000000;0.006655
8396.000000;0.006654
8395.000000;0.006572
8394.000000;0.006426
8393.000000;0.006202
8392.000000;0.005844
8391.000000;0.005369
8390.000000;0.004895
8389.000000;0.004525
8388.000000;0.004258
8387.000000;0.004020
8386.000000;0.003776
8385.000000;0.003559
8384.000000;0.003412
8383.000000;0.003338
8382.000000;0.003300
8381.000000;0.003273
8380.000000;0.003248
8379.000000;0.003201
8378.000000;0.003052
8377.000000;0.002729
8376.000000;0.002259
8375.000000;0.001763
8374.000000;0.001346
8373.000000;0.001030
8372.000000;0.000807
8371.000000;0.000696
8370.000000;0.000686
8369.000000;0.000653
8368.000000;0.000431
8367.000000;-0.000012
8366.000000;-0.000527
8365.000000;-0.000906
8364.000000;-0.001062
8363.000000;-0.001069
8362.000000;-0.001080
8361.000000;-0.001211
8360.000000;-0.001464
8359.000000;-0.001744
8358.000000;-0.001950
8357.000000;-0.002044
8356.000000;-0.002062
8355.000000;-0.002087
8354.000000;-0.002204
8353.000000;-0.002460
8352.000000;-0.002829
8351.000000;-0.003216
8350.000000;-0.003522
8349.000000;-0.003729
8348.000000;-0.003910
8347.000000;-0.004147
8346.000000;-0.004452
8345.000000;-0.004744
8344.000000;-0.004922
8343.000000;-0.004959
8342.000000;-0.004917
8341.000000;-0.004878
8340.000000;-0.004871
8339.000000;-0.004893
8338.000000;-0.004973
8337.000000;-0.005164
8336.000000;-0.005479
8335.000000;-0.005880
8334.000000;-0.006311
8333.000000;-0.006719
8332.000000;-0.007027
8331.000000;-0.007168
8330.000000;-0.007159
8329.000000;-0.007105
8328.000000;-0.007110
8327.000000;-0.007225
8326.000000;-0.007474
8325.000000;-0.007865
8324.000000;-0.008335
8323.000000;-0.008747
8322.000000;-0.009016
8321.000000;-0.009187
8320.000000;-0.009360
8319.000000;-0.009556
8318.000000;-0.009727
8317.000000;-0.009857
8316.000000;-0.010000
8315.000000;-0.010205
8314.000000;-0.010455
8313.000000;-0.010686
8312.000000;-0.010822
8311.000000;-0.010817
8310.000000;-0.010696
8309.000000;-0.010556
8308.000000;-0.010509
8307.000000;-0.010607
8306.000000;-0.010835
8305.000000;-0.011142
8304.000000;-0.011474
8303.000000;-0.011770
8302.000000;-0.011985
8301.000000;-0.012113
8300.000000;-0.012189
8299.000000;-0.012276
8298.000000;-0.012446
8297.000000;-0.012741
8296.000000;-0.013110
8295.000000;-0.013423
8294.000000;-0.013588
8293.000000;-0.013632
8292.000000;-0.013680
8291.000000;-0.013836
8290.000000;-0.014125
8289.000000;-0.014505
8288.000000;-0.014895
8287.000000;-0.015224
8286.000000;-0.015471
8285.000000;-0.015656
8284.000000;-0.015787
8283.000000;-0.015838
8282.000000;-0.015814
8281.000000;-0.015784
8280.000000;-0.015817
8279.000000;-0.015900
8278.000000;-0.015985
8277.000000;-0.016079
8276.000000;-0.016249
8275.000000;-0.016513
8274.000000;-0.016798
8273.000000;-0.017006
8272.000000;-0.017096
8271.000000;-0.017105
8270.000000;-0.017105
8269.000000;-0.017153
8268.000000;-0.017258
8267.000000;-0.017386
8266.000000;-0.017516
8265.000000;-0.017675
8264.000000;-0.017900
8263.000000;-0.018159
8262.000000;-0.018352
8261.000000;-0.018396
8260.000000;-0.018327
8259.000000;-0.018291
8258.000000;-0.018430
8257.000000;-0.018754
8256.000000;-0.019123
8255.000000;-0.019373
8254.000000;-0.019456
8253.000000;-0.019453
8252.000000;-0.019451
8251.000000;-0.019480
8250.000000;-0.019541
8249.000000;-0.019649
8248.000000;-0.019781
8247.000000;-0.019851
8246.000000;-0.019806
8245.000000;-0.019715
8244.000000;-0.019724
8243.000000;-0.019902
8242.000000;-0.020195
8241.000000;-0.020505
8240.000000;-0.020780
8239.000000;-0.021016
8238.000000;-0.021230
8237.000000;-0.021456
8236.000000;-0.021704
8235.000000;-0.021932
8234.000000;-0.022078
8233.000000;-0.022155
8232.000000;-0.022264
8231.000000;-0.022489
8230.000000;-0.022771
8229.000000;-0.022931
8228.000000;-0.022843
8227.000000;-0.022566
8226.000000;-0.022306
8225.000000;-0.022230
8224.000000;-0.022328
8223.000000;-0.022464
8222.000000;-0.022556
8221.000000;-0.022660
8220.000000;-0.022863
8219.000000;-0.023149
8218.000000;-0.023392
8217.000000;-0.023479
8216.000000;-0.023402
8215.000000;-0.023242
8214.000000;-0.023116
8213.000000;-0.023122
8212.000000;-0.023298
8211.000000;-0.023590
8210.000000;-0.023885
8209.000000;-0.024095
8208.000000;-0.024226
8207.000000;-0.024360
8206.000000;-0.024558
8205.000000;-0.024797
8204.000000;-0.024992
8203.000000;-0.025091
8202.000000;-0.025125
8201.000000;-0.025159
8200.000000;-0.025214
8199.000000;-0.025255
8198.000000;-0.025272
8197.000000;-0.025310
8196.000000;-0.025409
8195.000000;-0.025536
8194.000000;-0.025618
8193.000000;-0.025632
8192.000000;-0.025617
8191.000000;-0.025618
8190.000000;-0.025650
8189.000000;-0.025705
8188.000000;-0.025792
8187.000000;-0.025937
8186.000000;-0.026157
8185.000000;-0.026417
8184.000000;-0.026626
8183.000000;-0.026711
8182.000000;-0.026702
8181.000000;-0.026711
8180.000000;-0.026802
8179.000000;-0.026904
8178.000000;-0.026900
8177.000000;-0.026784
8176.000000;-0.026668
8175.000000;-0.026670
8174.000000;-0.026804
8173.000000;-0.027005
8172.000000;-0.027203
8171.000000;-0.027344
8170.000000;-0.027394
8169.000000;-0.027343
8168.000000;-0.027236
8167.000000;-0.027168
8166.000000;-0.027227
8165.000000;-0.027424
8164.000000;-0.027672
8163.000000;-0.027870
8162.000000;-0.027992
8161.000000;-0.028098
8160.000000;-0.028244
8159.000000;-0.028428
8158.000000;-0.028606
8157.000000;-0.028738
8156.000000;-0.028778
8155.000000;-0.028690
8154.000000;-0.028501
8153.000000;-0.028330
8152.000000;-0.028298
8151.000000;-0.028419
8150.000000;-0.028607
8149.000000;-0.028760
8148.000000;-0.028820
8147.000000;-0.028766
8146.000000;-0.028630
8145.000000;-0.028495
8144.000000;-0.028442
8143.000000;-0.028475
8142.000000;-0.028563
8141.000000;-0.028725
8140.000000;-0.029011
8139.000000;-0.029374
8138.000000;-0.029654
8137.000000;-0.029727
8136.000000;-0.029633
8135.000000;-0.029511
8134.000000;-0.029452
8133.000000;-0.029479
8132.000000;-0.029601
8131.000000;-0.029810
8130.000000;-0.030016
8129.000000;-0.030082
8128.000000;-0.029961
8127.000000;-0.029752
8126.000000;-0.029589
8125.000000;-0.029513
8124.000000;-0.029487
8123.000000;-0.029479
8122.000000;-0.029515
8121.000000;-0.029635
8120.000000;-0.029842
8119.000000;-0.030099
8118.000000;-0.030356
8117.000000;-0.030572
8116.000000;-0.030709
8115.000000;-0.030716
8114.000000;-0.030551
8113.000000;-0.030248
8112.000000;-0.029960
8111.000000;-0.029871
8110.000000;-0.030034
8109.000000;-0.030312
8108.000000;-0.030520
8107.000000;-0.030608
8106.000000;-0.030663
8105.000000;-0.030753
8104.000000;-0.030859
8103.000000;-0.030950
8102.000000;-0.031056
8101.000000;-0.031207
8100.000000;-0.031329
8099.000000;-0.031292
8098.000000;-0.031059
8097.000000;-0.030752
8096.000000;-0.030553
8095.000000;-0.030539
8094.000000;-0.030629
8093.000000;-0.030684
8092.000000;-0.030658
8091.000000;-0.030638
8090.000000;-0.030722
8089.000000;-0.030892
8088.000000;-0.031033
8087.000000;-0.031078
8086.000000;-0.031075
8085.000000;-0.031096
8084.000000;-0.031134
8083.000000;-0.031137
8082.000000;-0.031108
8081.000000;-0.031095
8080.000000;-0.031111
8079.000000;-0.031129
8078.000000;-0.031145
8077.000000;-0.031203
8076.000000;-0.031326
8075.000000;-0.031474
8074.000000;-0.031577
8073.000000;-0.031595
8072.000000;-0.031524
8071.000000;-0.031394
8070.000000;-0.031271
8069.000000;-0.031227
8068.000000;-0.031287
8067.000000;-0.031420
8066.000000;-0.031583
8065.000000;-0.031741
8064.000000;-0.031844
8063.000000;-0.031830
8062.000000;-0.031695
8061.000000;-0.031531
8060.000000;-0.031454
8059.000000;-0.031498
8058.000000;-0.031588
8057.000000;-0.031621
8056.000000;-0.031562
8055.000000;-0.031482
8054.000000;-0.031484
8053.000000;-0.031583
8052.000000;-0.031679
8051.000000;-0.031659
8050.000000;-0.031531
8049.000000;-0.031422
8048.000000;-0.031438
8047.000000;-0.031563
8046.000000;-0.031695
8045.000000;-0.031744
8044.000000;-0.031690
8043.000000;-0.031575
8042.000000;-0.031487
8041.000000;-0.031498
8040.000000;-0.031613
8039.000000;-0.031762
8038.000000;-0.031869
8037.000000;-0.031907
8036.000000;-0.031891
8035.000000;-0.031849
8034.000000;-0.031836
8033.000000;-0.031918
8032.000000;-0.032118
8031.000000;-0.032372
8030.000000;-0.032565
8029.000000;-0.032610
8028.000000;-0.032486
8027.000000;-0.032241
8026.000000;-0.031976
8025.000000;-0.031790
8024.000000;-0.031708
8023.000000;-0.031682
8022.000000;-0.031675
8021.000000;-0.031721
8020.000000;-0.031852
8019.000000;-0.032005
8018.000000;-0.032067
8017.000000;-0.032013
8016.000000;-0.031941
8015.000000;-0.031946
8014.000000;-0.032012
8013.000000;-0.032060
8012.000000;-0.032056
8011.000000;-0.032022
8010.000000;-0.031984
8009.000000;-0.031936
8008.000000;-0.031874
8007.000000;-0.031823
8006.000000;-0.031824
8005.000000;-0.031908
8004.000000;-0.032081
8003.000000;-0.032303
8002.000000;-0.032494
8001.000000;-0.032575
8000.000000;-0.032526
7999.000000;-0.032378
7998.000000;-0.032170
7997.000000;-0.031940
7996.000000;-0.031758
7995.000000;-0.031716
7994.000000;-0.031845
7993.000000;-0.032068
7992.000000;-0.032268
7991.000000;-0.032385
7990.000000;-0.032422
7989.000000;-0.032381
7988.000000;-0.032268
7987.000000;-0.032146
7986.000000;-0.032094
7985.000000;-0.032107
7984.000000;-0.032095
7983.000000;-0.032013
7982.000000;-0.031937
7981.000000;-0.031959
7980.000000;-0.032057
7979.000000;-0.032133
7978.000000;-0.032143
7977.000000;-0.032133
7976.000000;-0.032139
7975.000000;-0.032129
7974.000000;-0.032065
7973.000000;-0.031976
7972.000000;-0.031942
7971.000000;-0.031997
7970.000000;-0.032080
7969.000000;-0.032085
7968.000000;-0.031975
7967.000000;-0.031844
7966.000000;-0.031835
7965.000000;-0.031987
7964.000000;-0.032183
7963.000000;-0.032279
7962.000000;-0.032235
7961.000000;-0.032105
7960.000000;-0.031946
7959.000000;-0.031797
7958.000000;-0.031707
7957.000000;-0.031720
7956.000000;-0.031812
7955.000000;-0.031896
7954.000000;-0.031898
7953.000000;-0.031808
7952.000000;-0.031691
7951.000000;-0.031644
7950.000000;-0.031728
7949.000000;-0.031891
7948.000000;-0.031996
7947.000000;-0.031969
7946.000000;-0.031914
7945.000000;-0.032000
7944.000000;-0.032249
7943.000000;-0.032497
7942.000000;-0.032580
7941.000000;-0.032498
7940.000000;-0.032384
7939.000000;-0.032359
7938.000000;-0.032435
7937.000000;-0.032526
7936.000000;-0.032529
7935.000000;-0.032414
7934.000000;-0.032253
7933.000000;-0.032141
7932.000000;-0.032101
7931.000000;-0.032084
7930.000000;-0.032054
7929.000000;-0.032029
7928.000000;-0.032043
7927.000000;-0.032094
7926.000000;-0.032149
7925.000000;-0.032162
7924.000000;-0.032113
7923.000000;-0.032041
7922.000000;-0.032019
7921.000000;-0.032052
7920.000000;-0.032042
7919.000000;-0.031916
7918.000000;-0.031760
7917.000000;-0.031743
7916.000000;-0.031919
7915.000000;-0.032171
7914.000000;-0.032360
7913.000000;-0.032439
7912.000000;-0.032412
7911.000000;-0.032303
7910.000000;-0.032179
7909.000000;-0.032129
7908.000000;-0.032148
7907.000000;-0.032122
7906.000000;-0.031989
7905.000000;-0.031825
7904.000000;-0.031740
7903.000000;-0.031737
7902.000000;-0.031760
7901.000000;-0.031805
7900.000000;-0.031904
7899.000000;-0.032037
7898.000000;-0.032134
7897.000000;-0.032164
7896.000000;-0.032154
7895.000000;-0.032127
7894.000000;-0.032075
7893.000000;-0.031991
7892.000000;-0.031881
7891.000000;-0.031752
7890.000000;-0.031629
7889.000000;-0.031562
7888.000000;-0.031577
7887.000000;-0.031640
7886.000000;-0.031705
7885.000000;-0.031784
7884.000000;-0.031899
7883.000000;-0.031995
7882.000000;-0.031964
7881.000000;-0.031770
7880.000000;-0.031510
7879.000000;-0.031331
7878.000000;-0.031312
7877.000000;-0.031425
7876.000000;-0.031582
7875.000000;-0.031703
7874.000000;-0.031766
7873.000000;-0.031810
7872.000000;-0.031879
7871.000000;-0.031952
7870.000000;-0.031950
7869.000000;-0.031819
7868.000000;-0.031603
7867.000000;-0.031416
7866.000000;-0.031349
7865.000000;-0.031400
7864.000000;-0.031493
7863.000000;-0.031569
7862.000000;-0.031619
7861.000000;-0.031651
7860.000000;-0.031650
7859.000000;-0.031603
7858.000000;-0.031540
7857.000000;-0.031505
7856.000000;-0.031506
7855.000000;-0.031522
7854.000000;-0.031554
7853.000000;-0.031626
7852.000000;-0.031744
7851.000000;-0.031867
7850.000000;-0.031948
7849.000000;-0.031948
7848.000000;-0.031844
7847.000000;-0.031659
7846.000000;-0.031486
7845.000000;-0.031425
7844.000000;-0.031461
7843.000000;-0.031465
7842.000000;-0.031361
7841.000000;-0.031216
7840.000000;-0.031154
7839.000000;-0.031215
7838.000000;-0.031352
7837.000000;-0.031496
7836.000000;-0.031600
7835.000000;-0.031638
7834.000000;-0.031621
7833.000000;-0.031592
7832.000000;-0.031560
7831.000000;-0.031476
7830.000000;-0.031315
7829.000000;-0.031149
7828.000000;-0.031072
7827.000000;-0.031089
7826.000000;-0.031125
7825.000000;-0.031146
7824.000000;-0.031190
7823.000000;-0.031279
7822.000000;-0.031352
7821.000000;-0.031334
7820.000000;-0.031226
7819.000000;-0.031109
7818.000000;-0.031067
7817.000000;-0.031120
7816.000000;-0.031230
7815.000000;-0.031346
7814.000000;-0.031439
7813.000000;-0.031504
7812.000000;-0.031526
7811.000000;-0.031491
7810.000000;-0.031414
7809.000000;-0.031337
7808.000000;-0.031287
7807.000000;-0.031258
7806.000000;-0.031233
7805.000000;-0.031204
7804.000000;-0.031154
7803.000000;-0.031078
7802.000000;-0.031013
7801.000000;-0.031025
7800.000000;-0.031119
7799.000000;-0.031218
7798.000000;-0.031249
7797.000000;-0.031228
7796.000000;-0.031220
7795.000000;-0.031250
7794.000000;-0.031298
7793.000000;-0.031354
7792.000000;-0.031410
7791.000000;-0.031423
7790.000000;-0.031334
7789.000000;-0.031151
7788.000000;-0.030971
7787.000000;-0.030904
7786.000000;-0.030988
7785.000000;-0.031165
7784.000000;-0.031331
7783.000000;-0.031402
7782.000000;-0.031359
7781.000000;-0.031248
7780.000000;-0.031119
7779.000000;-0.030980
7778.000000;-0.030825
7777.000000;-0.030688
7776.000000;-0.030644
7775.000000;-0.030736
7774.000000;-0.030923
7773.000000;-0.031101
7772.000000;-0.031174
7771.000000;-0.031126
7770.000000;-0.031029
7769.000000;-0.030962
7768.000000;-0.030933
7767.000000;-0.030888
7766.000000;-0.030806
7765.000000;-0.030725
7764.000000;-0.030673
7763.000000;-0.030634
7762.000000;-0.030603
7761.000000;-0.030620
7760.000000;-0.030701
7759.000000;-0.030780
7758.000000;-0.030776
7757.000000;-0.030704
7756.000000;-0.030663
7755.000000;-0.030719
7754.000000;-0.030844
7753.000000;-0.030955
7752.000000;-0.030980
7751.000000;-0.030890
7750.000000;-0.030717
7749.000000;-0.030546
7748.000000;-0.030456
7747.000000;-0.030467
7746.000000;-0.030541
7745.000000;-0.030628
7744.000000;-0.030680
7743.000000;-0.030641
7742.000000;-0.030488
7741.000000;-0.030268
7740.000000;-0.030085
7739.000000;-0.030027
7738.000000;-0.030111
7737.000000;-0.030288
7736.000000;-0.030469
7735.000000;-0.030577
7734.000000;-0.030585
7733.000000;-0.030528
7732.000000;-0.030450
7731.000000;-0.030375
7730.000000;-0.030321
7729.000000;-0.030314
7728.000000;-0.030351
7727.000000;-0.030388
7726.000000;-0.030396
7725.000000;-0.030407
7724.000000;-0.030464
7723.000000;-0.030549
7722.000000;-0.030606
7721.000000;-0.030619
7720.000000;-0.030606
7719.000000;-0.030570
7718.000000;-0.030494
7717.000000;-0.030410
7716.000000;-0.030386
7715.000000;-0.030440
7714.000000;-0.030507
7713.000000;-0.030520
7712.000000;-0.030486
7711.000000;-0.030463
7710.000000;-0.030496
7709.000000;-0.030582
7708.000000;-0.030680
7707.000000;-0.030721
7706.000000;-0.030656
7705.000000;-0.030513
7704.000000;-0.030389
7703.000000;-0.030361
7702.000000;-0.030426
7701.000000;-0.030516
7700.000000;-0.030570
7699.000000;-0.030573
7698.000000;-0.030540
7697.000000;-0.030500
7696.000000;-0.030486
7695.000000;-0.030516
7694.000000;-0.030569
7693.000000;-0.030596
7692.000000;-0.030552
7691.000000;-0.030452
7690.000000;-0.030358
7689.000000;-0.030318
7688.000000;-0.030310
7687.000000;-0.030287
7686.000000;-0.030263
7685.000000;-0.030296
7684.000000;-0.030387
7683.000000;-0.030439
7682.000000;-0.030375
7681.000000;-0.030245
7680.000000;-0.030160
7679.000000;-0.030145
7678.000000;-0.030130
7677.000000;-0.030082
7676.000000;-0.030082
7675.000000;-0.030218
7674.000000;-0.030449
7673.000000;-0.030618
7672.000000;-0.030579
7671.000000;-0.030330
7670.000000;-0.030011
7669.000000;-0.029798
7668.000000;-0.029766
7667.000000;-0.029863
7666.000000;-0.029985
7665.000000;-0.030069
7664.000000;-0.030097
7663.000000;-0.030057
7662.000000;-0.029952
7661.000000;-0.029837
7660.000000;-0.029803
7659.000000;-0.029885
7658.000000;-0.030031
7657.000000;-0.030150
7656.000000;-0.030202
7655.000000;-0.030215
7654.000000;-0.030241
7653.000000;-0.030307
7652.000000;-0.030380
7651.000000;-0.030395
7650.000000;-0.030317
7649.000000;-0.030181
7648.000000;-0.030064
7647.000000;-0.030017
7646.000000;-0.030035
7645.000000;-0.030075
7644.000000;-0.030100
7643.000000;-0.030100
7642.000000;-0.030092
7641.000000;-0.030106
7640.000000;-0.030147
7639.000000;-0.030179
7638.000000;-0.030150
7637.000000;-0.030054
7636.000000;-0.029938
7635.000000;-0.029864
7634.000000;-0.029855
7633.000000;-0.029895
7632.000000;-0.029956
7631.000000;-0.030027
7630.000000;-0.030101
7629.000000;-0.030159
7628.000000;-0.030166
7627.000000;-0.030104
7626.000000;-0.030000
7625.000000;-0.029901
7624.000000;-0.029831
7623.000000;-0.029789
7622.000000;-0.029769
7621.000000;-0.029766
7620.000000;-0.029757
7619.000000;-0.029714
7618.000000;-0.029649
7617.000000;-0.029603
7616.000000;-0.029580
7615.000000;-0.029532
7614.000000;-0.029435
7613.000000;-0.029338
7612.000000;-0.029317
7611.000000;-0.029395
7610.000000;-0.029539
7609.000000;-0.029684
7608.000000;-0.029754
7607.000000;-0.029700
7606.000000;-0.029550
7605.000000;-0.029405
7604.000000;-0.029341
7603.000000;-0.029337
7602.000000;-0.029330
7601.000000;-0.029297
7600.000000;-0.029259
7599.000000;-0.029235
7598.000000;-0.029238
7597.000000;-0.029276
7596.000000;-0.029328
7595.000000;-0.029343
7594.000000;-0.029310
7593.000000;-0.029291
7592.000000;-0.029340
7591.000000;-0.029420
7590.000000;-0.029456
7589.000000;-0.029429
7588.000000;-0.029371
7587.000000;-0.029294
7586.000000;-0.029198
7585.000000;-0.029124
7584.000000;-0.029138
7583.000000;-0.029242
7582.000000;-0.029365
7581.000000;-0.029449
7580.000000;-0.029478
7579.000000;-0.029451
7578.000000;-0.029370
7577.000000;-0.029272
7576.000000;-0.029202
7575.000000;-0.029163
7574.000000;-0.029123
7573.000000;-0.029080
7572.000000;-0.029066
7571.000000;-0.029077
7570.000000;-0.029073
7569.000000;-0.029034
7568.000000;-0.028986
7567.000000;-0.028953
7566.000000;-0.028945
7565.000000;-0.028984
7564.000000;-0.029096
7563.000000;-0.029247
7562.000000;-0.029347
7561.000000;-0.029324
7560.000000;-0.029189
7559.000000;-0.029005
7558.000000;-0.028842
7557.000000;-0.028763
7556.000000;-0.028792
7555.000000;-0.028881
7554.000000;-0.028957
7553.000000;-0.029007
7552.000000;-0.029072
7551.000000;-0.029161
7550.000000;-0.029230
7549.000000;-0.029257
7548.000000;-0.029280
7547.000000;-0.029325
7546.000000;-0.029344
7545.000000;-0.029278
7544.000000;-0.029141
7543.000000;-0.029015
7542.000000;-0.028970
7541.000000;-0.029020
7540.000000;-0.029132
7539.000000;-0.029253
7538.000000;-0.029335
7537.000000;-0.029350
7536.000000;-0.029306
7535.000000;-0.029227
7534.000000;-0.029147
7533.000000;-0.029095
7532.000000;-0.029064
7531.000000;-0.029016
7530.000000;-0.028938
7529.000000;-0.028878
7528.000000;-0.028881
7527.000000;-0.028918
7526.000000;-0.028922
7525.000000;-0.028896
7524.000000;-0.028904
7523.000000;-0.028957
7522.000000;-0.028981
7521.000000;-0.028932
7520.000000;-0.028872
7519.000000;-0.028895
7518.000000;-0.029001
7517.000000;-0.029110
7516.000000;-0.029157
7515.000000;-0.029141
7514.000000;-0.029082
7513.000000;-0.028990
7512.000000;-0.028891
7511.000000;-0.028833
7510.000000;-0.028856
7509.000000;-0.028944
7508.000000;-0.029024
7507.000000;-0.029030
7506.000000;-0.028968
7505.000000;-0.028910
7504.000000;-0.028913
7503.000000;-0.028973
7502.000000;-0.029043
7501.000000;-0.029085
7500.000000;-0.029074
7499.000000;-0.029010
7498.000000;-0.028935
7497.000000;-0.028916
7496.000000;-0.028966
7495.000000;-0.029000
7494.000000;-0.028924
7493.000000;-0.028749
7492.000000;-0.028567
7491.000000;-0.028469
7490.000000;-0.028391
7489.000000;-0.028482
7488.000000;-0.028590
7487.000000;-0.028633
7486.000000;-0.028610
7485.000000;-0.028606
7484.000000;-0.028690
7483.000000;-0.028795
7482.000000;-0.028794
7481.000000;-0.028666
7480.000000;-0.028513
7479.000000;-0.028429
7478.000000;-0.028422
7477.000000;-0.028465
7476.000000;-0.028550
7475.000000;-0.028650
7474.000000;-0.028707
7473.000000;-0.028695
7472.000000;-0.028649
7471.000000;-0.028627
7470.000000;-0.028662
7469.000000;-0.028750
7468.000000;-0.028842
7467.000000;-0.028867
7466.000000;-0.028805
7465.000000;-0.028716
7464.000000;-0.028660
7463.000000;-0.028624
7462.000000;-0.028582
7461.000000;-0.028569
7460.000000;-0.028612
7459.000000;-0.028646
7458.000000;-0.028599
7457.000000;-0.028519
7456.000000;-0.028503
7455.000000;-0.028539
7454.000000;-0.028529
7453.000000;-0.028459
7452.000000;-0.028409
7451.000000;-0.028402
7450.000000;-0.028375
7449.000000;-0.028323
7448.000000;-0.028329
7447.000000;-0.028434
7446.000000;-0.028559
7445.000000;-0.028619
7444.000000;-0.028602
7443.000000;-0.028521
7442.000000;-0.028386
7441.000000;-0.028261
7440.000000;-0.028226
7439.000000;-0.028251
7438.000000;-0.028214
7437.000000;-0.028092
7436.000000;-0.028012
7435.000000;-0.028068
7434.000000;-0.028195
7433.000000;-0.028286
7432.000000;-0.028342
7431.000000;-0.028414
7430.000000;-0.028483
7429.000000;-0.028488
7428.000000;-0.028411
7427.000000;-0.028288
7426.000000;-0.028188
7425.000000;-0.028177
7424.000000;-0.028233
7423.000000;-0.028178
7422.000000;-0.027828
7421.000000;-0.027251
7420.000000;-0.026790
7419.000000;-0.026703
7418.000000;-0.026858
7417.000000;-0.026878
7416.000000;-0.026580
7415.000000;-0.026155
7414.000000;-0.025930
7413.000000;-0.026036
7412.000000;-0.026337
7411.000000;-0.026605
7410.000000;-0.026714
7409.000000;-0.026674
7408.000000;-0.026513
7407.000000;-0.026211
7406.000000;-0.025854
7405.000000;-0.025706
7404.000000;-0.025916
7403.000000;-0.026214
7402.000000;-0.026114
7401.000000;-0.025489
7400.000000;-0.024761
7399.000000;-0.024465
7398.000000;-0.024705
7397.000000;-0.025109
7396.000000;-0.025169
7395.000000;-0.024636
7394.000000;-0.023784
7393.000000;-0.023239
7392.000000;-0.023271
7391.000000;-0.023460
7390.000000;-0.023334
7389.000000;-0.022994
7388.000000;-0.022751
7387.000000;-0.022457
7386.000000;-0.021706
7385.000000;-0.020575
7384.000000;-0.019559
7383.000000;-0.018824
7382.000000;-0.018127
7381.000000;-0.017525
7380.000000;-0.017382
7379.000000;-0.017464
7378.000000;-0.016747
7377.000000;-0.014738
7376.000000;-0.012633
7375.000000;-0.012335
7374.000000;-0.014197
7373.000000;-0.016354
7372.000000;-0.016588
7371.000000;-0.014547
7370.000000;-0.012003
7369.000000;-0.011181
7368.000000;-0.012830
7367.000000;-0.015567
7366.000000;-0.017079
7365.000000;-0.016289
7364.000000;-0.014296
7363.000000;-0.013074
7362.000000;-0.013632
7361.000000;-0.015547
7360.000000;-0.017582
7359.000000;-0.018379
7358.000000;-0.017076
7357.000000;-0.014052
7356.000000;-0.011280
7355.000000;-0.011002
7354.000000;-0.013365
7353.000000;-0.015890
7352.000000;-0.015911
7351.000000;-0.013169
7350.000000;-0.009749
7349.000000;-0.008101
7348.000000;-0.009056
7347.000000;-0.011177
7346.000000;-0.011759
7345.000000;-0.009265
7344.000000;-0.004937
7343.000000;-0.001371
7342.000000;0.000522
7341.000000;0.002076
7340.000000;0.004164
7339.000000;0.005628
7338.000000;0.005214
7337.000000;0.003787
7336.000000;0.003106
7335.000000;0.003177
7334.000000;0.002219
7333.000000;-0.000845
7332.000000;-0.004841
7331.000000;-0.007578
7330.000000;-0.007788
7329.000000;-0.006027
7328.000000;-0.004536
7327.000000;-0.005522
7326.000000;-0.008397
7325.000000;-0.009747
7324.000000;-0.007412
7323.000000;-0.003587
7322.000000;-0.002307
7321.000000;-0.004494
7320.000000;-0.007324
7319.000000;-0.008118
7318.000000;-0.007240
7317.000000;-0.006930
7316.000000;-0.008609
7315.000000;-0.011729
7314.000000;-0.014526
7313.000000;-0.015559
7312.000000;-0.014956
7311.000000;-0.014248
7310.000000;-0.014425
7309.000000;-0.014280
7308.000000;-0.012104
7307.000000;-0.008820
7306.000000;-0.007474
7305.000000;-0.009123
7304.000000;-0.011095
7303.000000;-0.010326
7302.000000;-0.007041
7301.000000;-0.004208
7300.000000;-0.004311
7299.000000;-0.007312
7298.000000;-0.010878
7297.000000;-0.012059
7296.000000;-0.009485
7295.000000;-0.005058
7294.000000;-0.002945
7293.000000;-0.005454
7292.000000;-0.010133
7291.000000;-0.011978
7290.000000;-0.009347
7289.000000;-0.004776
7288.000000;-0.003528
7287.000000;-0.005393
7286.000000;-0.011879
7285.000000;-0.026476
7284.000000;-0.025897
7283.000000;-0.026477
7282.000000;-0.026027
7281.000000;-0.026020
7280.000000;-0.026336
7279.000000;-0.026061
7278.000000;-0.022934
7277.000000;-0.023174
7276.000000;-0.022805
7275.000000;-0.022743
7274.000000;-0.022562
7273.000000;-0.022524
7272.000000;-0.022583
7271.000000;-0.022648
7270.000000;-0.022464
7269.000000;-0.021978
7268.000000;-0.021507
7267.000000;-0.021500
7266.000000;-0.021930
7265.000000;-0.022078
7264.000000;-0.021253
7263.000000;-0.019738
7262.000000;-0.018720
7261.000000;-0.019062
7260.000000;-0.020319
7259.000000;-0.021278
7258.000000;-0.021260
7257.000000;-0.020582
7256.000000;-0.019852
7255.000000;-0.019224
7254.000000;-0.018549
7253.000000;-0.017966
7252.000000;-0.017853
7251.000000;-0.018207
7250.000000;-0.018507
7249.000000;-0.018378
7248.000000;-0.018058
7247.000000;-0.017816
7246.000000;-0.017151
7245.000000;-0.014927
7244.000000;-0.010792
7243.000000;-0.006473
7242.000000;-0.004488
7241.000000;-0.005128
7240.000000;-0.005792
7239.000000;-0.004112
7238.000000;-0.000892
7237.000000;0.000933
7236.000000;0.000092
7235.000000;-0.001209
7234.000000;0.000141
7233.000000;0.004196
7232.000000;0.007487
7231.000000;0.006914
7230.000000;0.003477
7229.000000;0.001179
7228.000000;0.002430
7227.000000;0.005394
7226.000000;0.005987
7225.000000;0.002553
7224.000000;-0.002217
7223.000000;-0.004518
7222.000000;-0.003424
7221.000000;-0.001301
7220.000000;-0.001198
7219.000000;-0.004157
7218.000000;-0.008418
7217.000000;-0.011084
7216.000000;-0.010859
7215.000000;-0.009200
7214.000000;-0.008616
7213.000000;-0.010086
7212.000000;-0.012460
7211.000000;-0.014083
7210.000000;-0.014421
7209.000000;-0.014075
7208.000000;-0.013695
7207.000000;-0.013313
7206.000000;-0.012764
7205.000000;-0.012217
7204.000000;-0.012060
7203.000000;-0.012410
7202.000000;-0.012837
7201.000000;-0.012697
7200.000000;-0.011979
7199.000000;-0.011574
7198.000000;-0.012315
7197.000000;-0.013863
7196.000000;-0.015090
7195.000000;-0.015487
7194.000000;-0.015657
7193.000000;-0.016329
7192.000000;-0.017409
7191.000000;-0.018360
7190.000000;-0.019069
7189.000000;-0.019832
7188.000000;-0.020673
7187.000000;-0.021188
7186.000000;-0.021068
7185.000000;-0.020216
7184.000000;-0.018474
7183.000000;-0.015852
7182.000000;-0.013186
7181.000000;-0.011834
7180.000000;-0.012001
7179.000000;-0.012054
7178.000000;-0.010316
7177.000000;-0.007291
7176.000000;-0.005348
7175.000000;-0.006243
7174.000000;-0.009306
7173.000000;-0.012177
7172.000000;-0.013045
7171.000000;-0.012006
7170.000000;-0.010530
7169.000000;-0.010090
7168.000000;-0.011054
7167.000000;-0.012539
7166.000000;-0.013310
7165.000000;-0.012728
7164.000000;-0.010904
7163.000000;-0.008193
7162.000000;-0.005281
7161.000000;-0.003521
7160.000000;-0.003853
7159.000000;-0.005238
7158.000000;-0.005386
7157.000000;-0.003586
7156.000000;-0.001880
7155.000000;-0.002842
7154.000000;-0.006588
7153.000000;-0.010766
7152.000000;-0.013280
7151.000000;-0.014206
7150.000000;-0.014930
7149.000000;-0.016313
7148.000000;-0.018018
7147.000000;-0.019102
7146.000000;-0.019120
7145.000000;-0.018612
7144.000000;-0.018276
7143.000000;-0.017778
7142.000000;-0.015993
7141.000000;-0.012581
7140.000000;-0.008976
7139.000000;-0.007323
7138.000000;-0.008067
7137.000000;-0.009190
7136.000000;-0.008463
7135.000000;-0.006158
7134.000000;-0.004728
7133.000000;-0.005911
7132.000000;-0.008877
7131.000000;-0.011520
7130.000000;-0.012831
7129.000000;-0.013503
7128.000000;-0.014654
7127.000000;-0.016570
7126.000000;-0.018691
7125.000000;-0.020325
7124.000000;-0.021125
7123.000000;-0.021269
7122.000000;-0.021225
7121.000000;-0.021041
7120.000000;-0.020014
7119.000000;-0.017626
7118.000000;-0.014793
7117.000000;-0.013339
7116.000000;-0.013740
7115.000000;-0.014190
7114.000000;-0.012723
7113.000000;-0.009833
7112.000000;-0.008104
7111.000000;-0.009194
7110.000000;-0.011913
7109.000000;-0.013716
7108.000000;-0.013488
7107.000000;-0.012341
7106.000000;-0.012114
7105.000000;-0.013595
7104.000000;-0.016043
7103.000000;-0.018006
7102.000000;-0.018572
7101.000000;-0.018134
7100.000000;-0.017839
7099.000000;-0.018185
7098.000000;-0.018561
7097.000000;-0.018126
7096.000000;-0.016857
7095.000000;-0.015640
7094.000000;-0.015285
7093.000000;-0.015569
7092.000000;-0.015557
7091.000000;-0.014850
7090.000000;-0.014170
7089.000000;-0.014563
7088.000000;-0.016149
7087.000000;-0.017940
7086.000000;-0.018935
7085.000000;-0.019098
7084.000000;-0.019146
7083.000000;-0.019613
7082.000000;-0.020440
7081.000000;-0.021374
7080.000000;-0.022312
7079.000000;-0.023129
7078.000000;-0.023512
7077.000000;-0.023265
7076.000000;-0.022639
7075.000000;-0.022138
7074.000000;-0.021943
7073.000000;-0.021697
7072.000000;-0.021083
7071.000000;-0.020296
7070.000000;-0.019700
7069.000000;-0.019269
7068.000000;-0.018735
7067.000000;-0.018116
7066.000000;-0.017836
7065.000000;-0.018246
7064.000000;-0.019203
7063.000000;-0.020224
7062.000000;-0.020932
7061.000000;-0.021323
7060.000000;-0.021663
7059.000000;-0.022196
7058.000000;-0.022929
7057.000000;-0.023647
7056.000000;-0.024088
7055.000000;-0.024214
7054.000000;-0.024265
7053.000000;-0.024428
7052.000000;-0.024596
7051.000000;-0.024505
7050.000000;-0.024002
7049.000000;-0.023233
7048.000000;-0.022606
7047.000000;-0.022424
7046.000000;-0.022546
7045.000000;-0.022513
7044.000000;-0.022080
7043.000000;-0.021532
7042.000000;-0.021396
7041.000000;-0.021849
7040.000000;-0.022560
7039.000000;-0.023097
7038.000000;-0.023341
7037.000000;-0.023467
7036.000000;-0.023661
7035.000000;-0.023976
7034.000000;-0.024385
7033.000000;-0.024800
7032.000000;-0.025107
7031.000000;-0.025264
7030.000000;-0.025331
7029.000000;-0.025377
7028.000000;-0.025424
7027.000000;-0.025451
7026.000000;-0.025402
7025.000000;-0.025199
7024.000000;-0.024843
7023.000000;-0.024519
7022.000000;-0.024480
7021.000000;-0.024749
7020.000000;-0.025064
7019.000000;-0.025190
7018.000000;-0.025195
7017.000000;-0.025302
7016.000000;-0.025574
7015.000000;-0.025855
7014.000000;-0.025993
7013.000000;-0.025993
7012.000000;-0.025965
7011.000000;-0.026014
7010.000000;-0.026170
7009.000000;-0.026387
7008.000000;-0.026572
7007.000000;-0.026669
7006.000000;-0.026710
7005.000000;-0.026723
7004.000000;-0.026655
7003.000000;-0.026479
7002.000000;-0.026300
7001.000000;-0.026243
7000.000000;-0.026289
6999.000000;-0.026315
6998.000000;-0.026292
6997.000000;-0.026316
6996.000000;-0.026442
6995.000000;-0.026596
6994.000000;-0.026701
6993.000000;-0.026798
6992.000000;-0.026971
6991.000000;-0.027206
6990.000000;-0.027394
6989.000000;-0.027448
6988.000000;-0.027389
6987.000000;-0.027326
6986.000000;-0.027337
6985.000000;-0.027375
6984.000000;-0.027292
6983.000000;-0.026987
6982.000000;-0.026568
6981.000000;-0.026324
6980.000000;-0.026449
6979.000000;-0.026816
6978.000000;-0.027112
6977.000000;-0.027161
6976.000000;-0.027086
6975.000000;-0.027114
6974.000000;-0.027288
6973.000000;-0.027452
6972.000000;-0.027498
6971.000000;-0.027522
6970.000000;-0.027638
6969.000000;-0.027770
6968.000000;-0.027778
6967.000000;-0.027717
6966.000000;-0.027785
6965.000000;-0.028044
6964.000000;-0.028334
6963.000000;-0.028497
6962.000000;-0.028558
6961.000000;-0.028627
6960.000000;-0.028723
6959.000000;-0.028782
6958.000000;-0.028770
6957.000000;-0.028698
6956.000000;-0.028586
6955.000000;-0.028507
6954.000000;-0.028549
6953.000000;-0.028672
6952.000000;-0.028727
6951.000000;-0.028661
6950.000000;-0.028595
6949.000000;-0.028642
6948.000000;-0.028764
6947.000000;-0.028882
6946.000000;-0.029012
6945.000000;-0.029169
6944.000000;-0.029265
6943.000000;-0.029246
6942.000000;-0.029242
6941.000000;-0.029414
6940.000000;-0.029687
6939.000000;-0.029813
6938.000000;-0.029712
6937.000000;-0.029578
6936.000000;-0.029590
6935.000000;-0.029680
6934.000000;-0.029669
6933.000000;-0.029514
6932.000000;-0.029351
6931.000000;-0.029348
6930.000000;-0.029558
6929.000000;-0.029872
6928.000000;-0.030093
6927.000000;-0.030123
6926.000000;-0.030066
6925.000000;-0.030109
6924.000000;-0.030320
6923.000000;-0.030600
6922.000000;-0.030805
6921.000000;-0.030843
6920.000000;-0.030662
6919.000000;-0.030249
6918.000000;-0.029744
6917.000000;-0.029443
6916.000000;-0.029514
6915.000000;-0.029765
6914.000000;-0.029845
6913.000000;-0.029659
6912.000000;-0.029480
6911.000000;-0.029640
6910.000000;-0.030167
6909.000000;-0.030752
6908.000000;-0.031064
6907.000000;-0.031067
6906.000000;-0.031010
6905.000000;-0.031143
6904.000000;-0.031486
6903.000000;-0.031861
6902.000000;-0.032102
6901.000000;-0.032190
6900.000000;-0.032209
6899.000000;-0.032214
6898.000000;-0.032193
6897.000000;-0.032111
6896.000000;-0.031938
6895.000000;-0.031673
6894.000000;-0.031402
6893.000000;-0.031250
6892.000000;-0.031258
6891.000000;-0.031339
6890.000000;-0.031378
6889.000000;-0.031347
6888.000000;-0.031307
6887.000000;-0.031341
6886.000000;-0.031501
6885.000000;-0.031774
6884.000000;-0.032060
6883.000000;-0.032242
6882.000000;-0.032307
6881.000000;-0.032351
6880.000000;-0.032460
6879.000000;-0.032616
6878.000000;-0.032750
6877.000000;-0.032846
6876.000000;-0.032950
6875.000000;-0.033078
6874.000000;-0.033201
6873.000000;-0.033270
6872.000000;-0.033279
6871.000000;-0.033277
6870.000000;-0.033298
6869.000000;-0.033301
6868.000000;-0.033215
6867.000000;-0.033061
6866.000000;-0.032983
6865.000000;-0.033103
6864.000000;-0.033364
6863.000000;-0.033587
6862.000000;-0.033668
6861.000000;-0.033657
6860.000000;-0.033667
6859.000000;-0.033747
6858.000000;-0.033873
6857.000000;-0.034011
6856.000000;-0.034147
6855.000000;-0.034283
6854.000000;-0.034423
6853.000000;-0.034550
6852.000000;-0.034615
6851.000000;-0.034579
6850.000000;-0.034455
6849.000000;-0.034316
6848.000000;-0.034243
6847.000000;-0.034259
6846.000000;-0.034303
6845.000000;-0.034292
6844.000000;-0.034218
6843.000000;-0.034163
6842.000000;-0.034212
6841.000000;-0.034352
6840.000000;-0.034491
6839.000000;-0.034567
6838.000000;-0.034600
6837.000000;-0.034625
6836.000000;-0.034615
6835.000000;-0.034554
6834.000000;-0.034517
6833.000000;-0.034594
6832.000000;-0.034749
6831.000000;-0.034854
6830.000000;-0.034854
6829.000000;-0.034832
6828.000000;-0.034873
6827.000000;-0.034938
6826.000000;-0.034950
6825.000000;-0.034926
6824.000000;-0.034951
6823.000000;-0.035034
6822.000000;-0.035095
6821.000000;-0.035090
6820.000000;-0.035074
6819.000000;-0.035105
6818.000000;-0.035161
6817.000000;-0.035196
6816.000000;-0.035219
6815.000000;-0.035272
6814.000000;-0.035353
6813.000000;-0.035421
6812.000000;-0.035457
6811.000000;-0.035483
6810.000000;-0.035526
6809.000000;-0.035589
6808.000000;-0.035667
6807.000000;-0.035739
6806.000000;-0.035771
6805.000000;-0.035773
6804.000000;-0.035812
6803.000000;-0.035902
6802.000000;-0.035923
6801.000000;-0.035741
6800.000000;-0.035419
6799.000000;-0.035213
6798.000000;-0.035291
6797.000000;-0.035519
6796.000000;-0.035615
6795.000000;-0.035472
6794.000000;-0.035244
6793.000000;-0.035156
6792.000000;-0.035290
6791.000000;-0.035563
6790.000000;-0.035812
6789.000000;-0.035915
6788.000000;-0.035887
6787.000000;-0.035866
6786.000000;-0.035983
6785.000000;-0.036234
6784.000000;-0.036498
6783.000000;-0.036677
6782.000000;-0.036781
6781.000000;-0.036870
6780.000000;-0.036982
6779.000000;-0.037114
6778.000000;-0.037227
6777.000000;-0.037277
6776.000000;-0.037263
6775.000000;-0.037255
6774.000000;-0.037306
6773.000000;-0.037368
6772.000000;-0.037352
6771.000000;-0.037264
6770.000000;-0.037205
6769.000000;-0.037219
6768.000000;-0.037237
6767.000000;-0.037203
6766.000000;-0.037173
6765.000000;-0.037219
6764.000000;-0.037309
6763.000000;-0.037358
6762.000000;-0.037361
6761.000000;-0.037386
6760.000000;-0.037464
6759.000000;-0.037562
6758.000000;-0.037626
6757.000000;-0.037618
6756.000000;-0.037539
6755.000000;-0.037469
6754.000000;-0.037527
6753.000000;-0.037731
6752.000000;-0.037936
6751.000000;-0.037972
6750.000000;-0.037858
6749.000000;-0.037774
6748.000000;-0.037842
6747.000000;-0.038007
6746.000000;-0.038140
6745.000000;-0.038188
6744.000000;-0.038199
6743.000000;-0.038256
6742.000000;-0.038382
6741.000000;-0.038524
6740.000000;-0.038598
6739.000000;-0.038594
6738.000000;-0.038601
6737.000000;-0.038698
6736.000000;-0.038858
6735.000000;-0.038978
6734.000000;-0.039000
6733.000000;-0.038964
6732.000000;-0.038946
6731.000000;-0.038978
6730.000000;-0.039042
6729.000000;-0.039088
6728.000000;-0.039068
6727.000000;-0.038989
6726.000000;-0.038926
6725.000000;-0.038947
6724.000000;-0.039033
6723.000000;-0.039115
6722.000000;-0.039169
6721.000000;-0.039223
6720.000000;-0.039288
6719.000000;-0.039330
6718.000000;-0.039339
6717.000000;-0.039353
6716.000000;-0.039399
6715.000000;-0.039453
6714.000000;-0.039487
6713.000000;-0.039521
6712.000000;-0.039586
6711.000000;-0.039670
6710.000000;-0.039734
6709.000000;-0.039764
6708.000000;-0.039776
6707.000000;-0.039791
6706.000000;-0.039803
6705.000000;-0.039803
6704.000000;-0.039869
6703.000000;-0.039982
6702.000000;-0.040100
6701.000000;-0.040215
6700.000000;-0.040295
6699.000000;-0.040355
6698.000000;-0.040396
6697.000000;-0.040549
6696.000000;-0.040584
6695.000000;-0.040507
6694.000000;-0.040444
6693.000000;-0.040403
6692.000000;-0.040419
6691.000000;-0.040452
6690.000000;-0.040473
6689.000000;-0.040479
6688.000000;-0.040496
6687.000000;-0.040542
6686.000000;-0.040621
6685.000000;-0.040714
6684.000000;-0.040781
6683.000000;-0.040791
6682.000000;-0.040750
6681.000000;-0.040708
6680.000000;-0.040704
6679.000000;-0.040736
6678.000000;-0.040768
6677.000000;-0.040781
6676.000000;-0.040787
6675.000000;-0.040822
6674.000000;-0.040910
6673.000000;-0.041038
6672.000000;-0.041157
6671.000000;-0.041221
6670.000000;-0.041222
6669.000000;-0.041190
6668.000000;-0.041168
6667.000000;-0.041181
6666.000000;-0.041226
6665.000000;-0.041276
6664.000000;-0.041308
6663.000000;-0.041326
6662.000000;-0.041365
6661.000000;-0.041436
6660.000000;-0.041507
6659.000000;-0.041536
6658.000000;-0.041514
6657.000000;-0.041470
6656.000000;-0.041425
6655.000000;-0.041388
6654.000000;-0.041368
6653.000000;-0.041384
6652.000000;-0.041441
6651.000000;-0.041530
6650.000000;-0.041634
6649.000000;-0.041737
6648.000000;-0.041820
6647.000000;-0.041868
6646.000000;-0.041884
6645.000000;-0.041880
6644.000000;-0.041862
6643.000000;-0.041834
6642.000000;-0.041809
6641.000000;-0.041797
6640.000000;-0.041797
6639.000000;-0.041806
6638.000000;-0.041836
6637.000000;-0.041902
6636.000000;-0.041988
6635.000000;-0.042054
6634.000000;-0.042078
6633.000000;-0.042070
6632.000000;-0.042051
6631.000000;-0.042034
6630.000000;-0.042021
6629.000000;-0.042018
6628.000000;-0.042031
6627.000000;-0.042062
6626.000000;-0.042104
6625.000000;-0.042149
6624.000000;-0.042190
6623.000000;-0.042227
6622.000000;-0.042259
6621.000000;-0.042284
6620.000000;-0.042304
6619.000000;-0.042339
6618.000000;-0.042393
6617.000000;-0.042435
6616.000000;-0.042429
6615.000000;-0.042380
6614.000000;-0.042337
6613.000000;-0.042332
6612.000000;-0.042354
6611.000000;-0.042388
6610.000000;-0.042440
6609.000000;-0.042508
6608.000000;-0.042565
6607.000000;-0.042587
6606.000000;-0.042593
6605.000000;-0.042612
6604.000000;-0.042643
6603.000000;-0.042676
6602.000000;-0.042713
6601.000000;-0.042762
6600.000000;-0.042800
6599.000000;-0.042811
6598.000000;-0.042811
6597.000000;-0.042830
6596.000000;-0.042863
6595.000000;-0.042880
6594.000000;-0.042880
6593.000000;-0.042886
6592.000000;-0.042902
6591.000000;-0.042912
6590.000000;-0.042908
6589.000000;-0.042907
6588.000000;-0.042914
6587.000000;-0.042920
6586.000000;-0.042917
6585.000000;-0.042920
6584.000000;-0.042940
6583.000000;-0.042975
6582.000000;-0.043019
6581.000000;-0.043076
6580.000000;-0.043146
6579.000000;-0.043216
6578.000000;-0.043268
6577.000000;-0.043290
6576.000000;-0.043280
6575.000000;-0.043252
6574.000000;-0.043232
6573.000000;-0.043236
6572.000000;-0.043262
6571.000000;-0.043298
6570.000000;-0.043343
6569.000000;-0.043389
6568.000000;-0.043419
6567.000000;-0.043428
6566.000000;-0.043431
6565.000000;-0.043446
6564.000000;-0.043470
6563.000000;-0.043493
6562.000000;-0.043518
6561.000000;-0.043555
6560.000000;-0.043596
6559.000000;-0.043620
6558.000000;-0.043615
6557.000000;-0.043586
6556.000000;-0.043545
6555.000000;-0.043511
6554.000000;-0.043502
6553.000000;-0.043518
6552.000000;-0.043538
6551.000000;-0.043552
6550.000000;-0.043580
6549.000000;-0.043641
6548.000000;-0.043724
6547.000000;-0.043797
6546.000000;-0.043839
6545.000000;-0.043852
6544.000000;-0.043839
6543.000000;-0.043808
6542.000000;-0.043773
6541.000000;-0.043742
6540.000000;-0.043713
6539.000000;-0.043690
6538.000000;-0.043684
6537.000000;-0.043691
6536.000000;-0.043679
6535.000000;-0.043636
6534.000000;-0.043597
6533.000000;-0.043611
6532.000000;-0.043682
6531.000000;-0.043768
6530.000000;-0.043832
6529.000000;-0.043865
6528.000000;-0.043873
6527.000000;-0.043866
6526.000000;-0.043871
6525.000000;-0.043909
6524.000000;-0.043974
6523.000000;-0.044044
6522.000000;-0.044104
6521.000000;-0.044149
6520.000000;-0.044177
6519.000000;-0.044194
6518.000000;-0.044207
6517.000000;-0.044212
6516.000000;-0.044196
6515.000000;-0.044166
6514.000000;-0.044156
6513.000000;-0.044186
6512.000000;-0.044233
6511.000000;-0.044272
6510.000000;-0.044309
6509.000000;-0.044352
6508.000000;-0.044369
6507.000000;-0.044328
6506.000000;-0.044249
6505.000000;-0.044186
6504.000000;-0.044160
6503.000000;-0.044146
6502.000000;-0.044127
6501.000000;-0.044106
6500.000000;-0.044083
6499.000000;-0.044044
6498.000000;-0.043993
6497.000000;-0.043962
6496.000000;-0.043974
6495.000000;-0.044027
6494.000000;-0.044098
6493.000000;-0.044163
6492.000000;-0.044199
6491.000000;-0.044202
6490.000000;-0.044196
6489.000000;-0.044207
6488.000000;-0.044234
6487.000000;-0.044261
6486.000000;-0.044283
6485.000000;-0.044306
6484.000000;-0.044328
6483.000000;-0.044339
6482.000000;-0.044344
6481.000000;-0.044353
6480.000000;-0.044363
6479.000000;-0.044367
6478.000000;-0.044379
6477.000000;-0.044407
6476.000000;-0.044439
6475.000000;-0.044456
6474.000000;-0.044464
6473.000000;-0.044478
6472.000000;-0.044492
6471.000000;-0.044489
6470.000000;-0.044481
6469.000000;-0.044496
6468.000000;-0.044529
6467.000000;-0.044545
6466.000000;-0.044529
6465.000000;-0.044505
6464.000000;-0.044486
6463.000000;-0.044461
6462.000000;-0.044422
6461.000000;-0.044387
6460.000000;-0.044373
6459.000000;-0.044372
6458.000000;-0.044368
6457.000000;-0.044359
6456.000000;-0.044358
6455.000000;-0.044371
6454.000000;-0.044392
6453.000000;-0.044402
6452.000000;-0.044385
6451.000000;-0.044350
6450.000000;-0.044338
6449.000000;-0.044380
6448.000000;-0.044460
6447.000000;-0.044527
6446.000000;-0.044559
6445.000000;-0.044573
6444.000000;-0.044596
6443.000000;-0.044628
6442.000000;-0.044646
6441.000000;-0.044630
6440.000000;-0.044573
6439.000000;-0.044492
6438.000000;-0.044428
6437.000000;-0.044416
6436.000000;-0.044452
6435.000000;-0.044502
6434.000000;-0.044538
6433.000000;-0.044551
6432.000000;-0.044548
6431.000000;-0.044541
6430.000000;-0.044539
6429.000000;-0.044537
6428.000000;-0.044522
6427.000000;-0.044491
6426.000000;-0.044469
6425.000000;-0.044479
6424.000000;-0.044516
6423.000000;-0.044548
6422.000000;-0.044564
6421.000000;-0.044571
6420.000000;-0.044577
6419.000000;-0.044572
6418.000000;-0.044547
6417.000000;-0.044504
6416.000000;-0.044462
6415.000000;-0.044448
6414.000000;-0.044480
6413.000000;-0.044553
6412.000000;-0.044639
6411.000000;-0.044706
6410.000000;-0.044736
6409.000000;-0.044724
6408.000000;-0.044675
6407.000000;-0.044614
6406.000000;-0.044577
6405.000000;-0.044572
6404.000000;-0.044571
6403.000000;-0.044548
6402.000000;-0.044515
6401.000000;-0.044499
6400.000000;-0.044499
6399.000000;-0.044495
6398.000000;-0.044478
6397.000000;-0.044463
6396.000000;-0.044470
6395.000000;-0.044505
6394.000000;-0.044549
6393.000000;-0.044562
6392.000000;-0.044510
6391.000000;-0.044411
6390.000000;-0.044324
6389.000000;-0.044294
6388.000000;-0.044308
6387.000000;-0.044334
6386.000000;-0.044361
6385.000000;-0.044384
6384.000000;-0.044384
6383.000000;-0.044349
6382.000000;-0.044303
6381.000000;-0.044276
6380.000000;-0.044264
6379.000000;-0.044247
6378.000000;-0.044236
6377.000000;-0.044252
6376.000000;-0.044293
6375.000000;-0.044329
6374.000000;-0.044352
6373.000000;-0.044379
6372.000000;-0.044416
6371.000000;-0.044452
6370.000000;-0.044482
6369.000000;-0.044508
6368.000000;-0.044525
6367.000000;-0.044523
6366.000000;-0.044502
6365.000000;-0.044477
6364.000000;-0.044456
6363.000000;-0.044446
6362.000000;-0.044452
6361.000000;-0.044474
6360.000000;-0.044485
6359.000000;-0.044462
6358.000000;-0.044411
6357.000000;-0.044358
6356.000000;-0.044308
6355.000000;-0.044259
6354.000000;-0.044219
6353.000000;-0.044197
6352.000000;-0.044189
6351.000000;-0.044189
6350.000000;-0.044210
6349.000000;-0.044263
6348.000000;-0.044319
6347.000000;-0.044333
6346.000000;-0.044307
6345.000000;-0.044283
6344.000000;-0.044287
6343.000000;-0.044291
6342.000000;-0.044258
6341.000000;-0.044185
6340.000000;-0.044104
6339.000000;-0.044052
6338.000000;-0.044043
6337.000000;-0.044066
6336.000000;-0.044090
6335.000000;-0.044096
6334.000000;-0.044089
6333.000000;-0.044085
6332.000000;-0.044083
6331.000000;-0.044079
6330.000000;-0.044077
6329.000000;-0.044078
6328.000000;-0.044073
6327.000000;-0.044062
6326.000000;-0.044063
6325.000000;-0.044090
6324.000000;-0.044123
6323.000000;-0.044134
6322.000000;-0.044122
6321.000000;-0.044101
6320.000000;-0.044074
6319.000000;-0.044037
6318.000000;-0.044004
6317.000000;-0.043993
6316.000000;-0.044003
6315.000000;-0.044011
6314.000000;-0.044000
6313.000000;-0.043975
6312.000000;-0.043949
6311.000000;-0.043938
6310.000000;-0.043948
6309.000000;-0.043966
6308.000000;-0.043964
6307.000000;-0.043937
6306.000000;-0.043913
6305.000000;-0.043909
6304.000000;-0.043914
6303.000000;-0.043918
6302.000000;-0.043943
6301.000000;-0.043999
6300.000000;-0.044049
6299.000000;-0.044047
6298.000000;-0.043997
6297.000000;-0.043940
6296.000000;-0.043893
6295.000000;-0.043849
6294.000000;-0.043816
6293.000000;-0.043815
6292.000000;-0.043842
6291.000000;-0.043864
6290.000000;-0.043872
6289.000000;-0.043885
6288.000000;-0.043914
6287.000000;-0.043955
6286.000000;-0.044009
6285.000000;-0.044078
6284.000000;-0.044143
6283.000000;-0.044168
6282.000000;-0.044147
6281.000000;-0.044103
6280.000000;-0.044047
6279.000000;-0.043967
6278.000000;-0.043868
6277.000000;-0.043788
6276.000000;-0.043758
6275.000000;-0.043768
6274.000000;-0.043780
6273.000000;-0.043771
6272.000000;-0.043744
6271.000000;-0.043726
6270.000000;-0.043739
6269.000000;-0.043771
6268.000000;-0.043784
6267.000000;-0.043755
6266.000000;-0.043701
6265.000000;-0.043651
6264.000000;-0.043611
6263.000000;-0.043573
6262.000000;-0.043549
6261.000000;-0.043561
6260.000000;-0.043603
6259.000000;-0.043641
6258.000000;-0.043661
6257.000000;-0.043671
6256.000000;-0.043676
6255.000000;-0.043667
6254.000000;-0.043639
6253.000000;-0.043603
6252.000000;-0.043568
6251.000000;-0.043539
6250.000000;-0.043518
6249.000000;-0.043499
6248.000000;-0.043463
6247.000000;-0.043402
6246.000000;-0.043347
6245.000000;-0.043339
6244.000000;-0.043374
6243.000000;-0.043409
6242.000000;-0.043409
6241.000000;-0.043377
6240.000000;-0.043338
6239.000000;-0.043314
6238.000000;-0.043317
6237.000000;-0.043336
6236.000000;-0.043345
6235.000000;-0.043313
6234.000000;-0.043241
6233.000000;-0.043157
6232.000000;-0.043099
6231.000000;-0.043094
6230.000000;-0.043148
6229.000000;-0.043228
6228.000000;-0.043279
6227.000000;-0.043276
6226.000000;-0.043244
6225.000000;-0.043218
6224.000000;-0.043200
6223.000000;-0.043182
6222.000000;-0.043181
6221.000000;-0.043216
6220.000000;-0.043269
6219.000000;-0.043302
6218.000000;-0.043299
6217.000000;-0.043271
6216.000000;-0.043216
6215.000000;-0.043134
6214.000000;-0.043054
6213.000000;-0.043023
6212.000000;-0.043050
6211.000000;-0.043098
6210.000000;-0.043139
6209.000000;-0.043171
6208.000000;-0.043201
6207.000000;-0.043229
6206.000000;-0.043255
6205.000000;-0.043280
6204.000000;-0.043292
6203.000000;-0.043275
6202.000000;-0.043236
6201.000000;-0.043207
6200.000000;-0.043210
6199.000000;-0.043235
6198.000000;-0.043260
6197.000000;-0.043261
6196.000000;-0.043226
6195.000000;-0.043165
6194.000000;-0.043112
6193.000000;-0.043090
6192.000000;-0.043086
6191.000000;-0.043070
6190.000000;-0.043038
6189.000000;-0.043016
6188.000000;-0.043022
6187.000000;-0.043051
6186.000000;-0.043089
6185.000000;-0.043114
6184.000000;-0.043106
6183.000000;-0.043061
6182.000000;-0.043005
6181.000000;-0.042969
6180.000000;-0.042951
6179.000000;-0.042935
6178.000000;-0.042920
6177.000000;-0.042916
6176.000000;-0.042918
6175.000000;-0.042915
6174.000000;-0.042911
6173.000000;-0.042919
6172.000000;-0.042941
6171.000000;-0.042966
6170.000000;-0.042983
6169.000000;-0.042977
6168.000000;-0.042931
6167.000000;-0.042859
6166.000000;-0.042816
6165.000000;-0.042848
6164.000000;-0.042937
6163.000000;-0.043027
6162.000000;-0.043090
6161.000000;-0.043135
6160.000000;-0.043160
6159.000000;-0.043150
6158.000000;-0.043112
6157.000000;-0.043075
6156.000000;-0.043052
6155.000000;-0.043027
6154.000000;-0.042993
6153.000000;-0.042951
6152.000000;-0.042893
6151.000000;-0.042807
6150.000000;-0.042717
6149.000000;-0.042666
6148.000000;-0.042674
6147.000000;-0.042714
6146.000000;-0.042751
6145.000000;-0.042764
6144.000000;-0.042744
6143.000000;-0.042701
6142.000000;-0.042669
6141.000000;-0.042679
6140.000000;-0.042719
6139.000000;-0.042755
6138.000000;-0.042778
6137.000000;-0.042802
6136.000000;-0.042831
6135.000000;-0.042847
6134.000000;-0.042842
6133.000000;-0.042826
6132.000000;-0.042804
6131.000000;-0.042778
6130.000000;-0.042772
6129.000000;-0.042805
6128.000000;-0.042859
6127.000000;-0.042890
6126.000000;-0.042881
6125.000000;-0.042857
6124.000000;-0.042840
6123.000000;-0.042828
6122.000000;-0.042821
6121.000000;-0.042827
6120.000000;-0.042833
6119.000000;-0.042811
6118.000000;-0.042756
6117.000000;-0.042701
6116.000000;-0.042671
6115.000000;-0.042663
6114.000000;-0.042665
6113.000000;-0.042683
6112.000000;-0.042715
6111.000000;-0.042746
6110.000000;-0.042767
6109.000000;-0.042794
6108.000000;-0.042836
6107.000000;-0.042873
6106.000000;-0.042876
6105.000000;-0.042842
6104.000000;-0.042801
6103.000000;-0.042777
6102.000000;-0.042767
6101.000000;-0.042748
6100.000000;-0.042704
6099.000000;-0.042645
6098.000000;-0.042606
6097.000000;-0.042618
6096.000000;-0.042672
6095.000000;-0.042732
6094.000000;-0.042770
6093.000000;-0.042773
6092.000000;-0.042745
6091.000000;-0.042703
6090.000000;-0.042674
6089.000000;-0.042673
6088.000000;-0.042683
6087.000000;-0.042674
6086.000000;-0.042635
6085.000000;-0.042588
6084.000000;-0.042557
6083.000000;-0.042558
6082.000000;-0.042595
6081.000000;-0.042653
6080.000000;-0.042708
6079.000000;-0.042748
6078.000000;-0.042774
6077.000000;-0.042788
6076.000000;-0.042771
6075.000000;-0.042715
6074.000000;-0.042648
6073.000000;-0.042611
6072.000000;-0.042604
6071.000000;-0.042607
6070.000000;-0.042618
6069.000000;-0.042658
6068.000000;-0.042727
6067.000000;-0.042800
6066.000000;-0.042858
6065.000000;-0.042901
6064.000000;-0.042938
6063.000000;-0.042965
6062.000000;-0.042976
6061.000000;-0.042964
6060.000000;-0.042925
6059.000000;-0.042865
6058.000000;-0.042808
6057.000000;-0.042778
6056.000000;-0.042768
6055.000000;-0.042752
6054.000000;-0.042720
6053.000000;-0.042687
6052.000000;-0.042675
6051.000000;-0.042693
6050.000000;-0.042737
6049.000000;-0.042784
6048.000000;-0.042802
6047.000000;-0.042784
6046.000000;-0.042761
6045.000000;-0.042769
6044.000000;-0.042808
6043.000000;-0.042852
6042.000000;-0.042891
6041.000000;-0.042931
6040.000000;-0.042967
6039.000000;-0.042988
6038.000000;-0.043000
6037.000000;-0.043020
6036.000000;-0.043052
6035.000000;-0.043088
6034.000000;-0.043122
6033.000000;-0.043152
6032.000000;-0.043162
6031.000000;-0.043137
6030.000000;-0.043089
6029.000000;-0.043039
6028.000000;-0.042993
6027.000000;-0.042948
6026.000000;-0.042919
6025.000000;-0.042927
6024.000000;-0.042969
6023.000000;-0.043015
6022.000000;-0.043043
6021.000000;-0.043054
6020.000000;-0.043064
6019.000000;-0.043095
6018.000000;-0.043156
6017.000000;-0.043221
6016.000000;-0.043231
6015.000000;-0.043166
6014.000000;-0.043074
6013.000000;-0.043029
6012.000000;-0.043056
6011.000000;-0.043129
6010.000000;-0.043207
6009.000000;-0.043260
6008.000000;-0.043267
6007.000000;-0.043234
6006.000000;-0.043201
6005.000000;-0.043203
6004.000000;-0.043233
6003.000000;-0.043263
6002.000000;-0.043290
6001.000000;-0.043322
6000.000000;-0.043347
5999.000000;-0.043342
5998.000000;-0.043316
5997.000000;-0.043294
5996.000000;-0.043284
5995.000000;-0.043275
5994.000000;-0.043274
5993.000000;-0.043299
5992.000000;-0.043340
5991.000000;-0.043370
5990.000000;-0.043378
5989.000000;-0.043380
5988.000000;-0.043383
5987.000000;-0.043381
5986.000000;-0.043381
5985.000000;-0.043401
5984.000000;-0.043446
5983.000000;-0.043501
5982.000000;-0.043553
5981.000000;-0.043593
5980.000000;-0.043606
5979.000000;-0.043585
5978.000000;-0.043560
5977.000000;-0.043567
5976.000000;-0.043605
5975.000000;-0.043640
5974.000000;-0.043650
5973.000000;-0.043643
5972.000000;-0.043634
5971.000000;-0.043643
5970.000000;-0.043695
5969.000000;-0.043794
5968.000000;-0.043899
5967.000000;-0.043952
5966.000000;-0.043943
5965.000000;-0.043912
5964.000000;-0.043897
5963.000000;-0.043907
5962.000000;-0.043940
5961.000000;-0.043987
5960.000000;-0.044023
5959.000000;-0.044025
5958.000000;-0.044005
5957.000000;-0.043992
5956.000000;-0.043996
5955.000000;-0.044004
5954.000000;-0.044018
5953.000000;-0.044056
5952.000000;-0.044115
5951.000000;-0.044162
5950.000000;-0.044168
5949.000000;-0.044131
5948.000000;-0.044069
5947.000000;-0.044009
5946.000000;-0.043983
5945.000000;-0.044003
5944.000000;-0.044043
5943.000000;-0.044068
5942.000000;-0.044078
5941.000000;-0.044098
5940.000000;-0.044132
5939.000000;-0.044159
5938.000000;-0.044168
5937.000000;-0.044175
5936.000000;-0.044196
5935.000000;-0.044238
5934.000000;-0.044302
5933.000000;-0.044380
5932.000000;-0.044445
5931.000000;-0.044476
5930.000000;-0.044487
5929.000000;-0.044511
5928.000000;-0.044553
5927.000000;-0.044595
5926.000000;-0.044628
5925.000000;-0.044660
5924.000000;-0.044686
5923.000000;-0.044693
5922.000000;-0.044683
5921.000000;-0.044670
5920.000000;-0.044656
5919.000000;-0.044646
5918.000000;-0.044661
5917.000000;-0.044718
5916.000000;-0.044795
5915.000000;-0.044852
5914.000000;-0.044878
5913.000000;-0.044891
5912.000000;-0.044904
5911.000000;-0.044926
5910.000000;-0.044978
5909.000000;-0.045066
5908.000000;-0.045151
5907.000000;-0.045175
5906.000000;-0.045143
5905.000000;-0.045114
5904.000000;-0.045140
5903.000000;-0.045212
5902.000000;-0.045298
5901.000000;-0.045376
5900.000000;-0.045436
5899.000000;-0.045481
5898.000000;-0.045525
5897.000000;-0.045572
5896.000000;-0.045600
5895.000000;-0.045587
5894.000000;-0.045557
5893.000000;-0.045554
5892.000000;-0.045586
5891.000000;-0.045621
5890.000000;-0.045647
5889.000000;-0.045675
5888.000000;-0.045708
5887.000000;-0.045730
5886.000000;-0.045739
5885.000000;-0.045753
5884.000000;-0.045778
5883.000000;-0.045793
5882.000000;-0.045796
5881.000000;-0.045809
5880.000000;-0.045845
5879.000000;-0.045890
5878.000000;-0.045926
5877.000000;-0.045955
5876.000000;-0.045985
5875.000000;-0.046013
5874.000000;-0.046040
5873.000000;-0.046073
5872.000000;-0.046105
5871.000000;-0.046120
5870.000000;-0.046117
5869.000000;-0.046118
5868.000000;-0.046140
5867.000000;-0.046181
5866.000000;-0.046240
5865.000000;-0.046317
5864.000000;-0.046396
5863.000000;-0.046456
5862.000000;-0.046492
5861.000000;-0.046521
5860.000000;-0.046559
5859.000000;-0.046602
5858.000000;-0.046639
5857.000000;-0.046660
5856.000000;-0.046663
5855.000000;-0.046664
5854.000000;-0.046691
5853.000000;-0.046748
5852.000000;-0.046804
5851.000000;-0.046828
5850.000000;-0.046832
5849.000000;-0.046848
5848.000000;-0.046879
5847.000000;-0.046904
5846.000000;-0.046925
5845.000000;-0.046969
5844.000000;-0.047047
5843.000000;-0.047134
5842.000000;-0.047204
5841.000000;-0.047249
5840.000000;-0.047276
5839.000000;-0.047300
5838.000000;-0.047340
5837.000000;-0.047401
5836.000000;-0.047469
5835.000000;-0.047535
5834.000000;-0.047609
5833.000000;-0.047692
5832.000000;-0.047749
5831.000000;-0.047757
5830.000000;-0.047747
5829.000000;-0.047780
5828.000000;-0.047870
5827.000000;-0.047984
5826.000000;-0.048088
5825.000000;-0.048167
5824.000000;-0.048213
5823.000000;-0.048224
5822.000000;-0.048219
5821.000000;-0.048222
5820.000000;-0.048236
5819.000000;-0.048252
5818.000000;-0.048276
5817.000000;-0.048315
5816.000000;-0.048355
5815.000000;-0.048391
5814.000000;-0.048449
5813.000000;-0.048544
5812.000000;-0.048639
5811.000000;-0.048686
5810.000000;-0.048687
5809.000000;-0.048684
5808.000000;-0.048686
5807.000000;-0.048672
5806.000000;-0.048649
5805.000000;-0.048659
5804.000000;-0.048724
5803.000000;-0.048826
5802.000000;-0.048945
5801.000000;-0.049074
5800.000000;-0.049195
5799.000000;-0.049280
5798.000000;-0.049323
5797.000000;-0.049347
5796.000000;-0.049373
5795.000000;-0.049409
5794.000000;-0.049469
5793.000000;-0.049560
5792.000000;-0.049660
5791.000000;-0.049739
5790.000000;-0.049798
5789.000000;-0.049866
5788.000000;-0.049952
5787.000000;-0.050035
5786.000000;-0.050104
5785.000000;-0.050161
5784.000000;-0.050207
5783.000000;-0.050240
5782.000000;-0.050273
5781.000000;-0.050325
5780.000000;-0.050391
5779.000000;-0.050464
5778.000000;-0.050560
5777.000000;-0.050689
5776.000000;-0.050813
5775.000000;-0.050877
5774.000000;-0.050886
5773.000000;-0.050896
5772.000000;-0.050955
5771.000000;-0.051059
5770.000000;-0.051185
5769.000000;-0.051306
5768.000000;-0.051388
5767.000000;-0.051416
5766.000000;-0.051426
5765.000000;-0.051470
5764.000000;-0.051556
5763.000000;-0.051649
5762.000000;-0.051720
5761.000000;-0.051765
5760.000000;-0.051785
5759.000000;-0.051786
5758.000000;-0.051797
5757.000000;-0.051848
5756.000000;-0.051931
5755.000000;-0.052016
5754.000000;-0.052103
5753.000000;-0.052210
5752.000000;-0.052331
5751.000000;-0.052429
5750.000000;-0.052494
5749.000000;-0.052548
5748.000000;-0.052609
5747.000000;-0.052678
5746.000000;-0.052758
5745.000000;-0.052852
5744.000000;-0.052940
5743.000000;-0.053000
5742.000000;-0.053044
5741.000000;-0.053105
5740.000000;-0.053186
5739.000000;-0.053268
5738.000000;-0.053360
5737.000000;-0.053476
5736.000000;-0.053590
5735.000000;-0.053654
5734.000000;-0.053666
5733.000000;-0.053678
5732.000000;-0.053733
5731.000000;-0.053830
5730.000000;-0.053960
5729.000000;-0.054110
5728.000000;-0.054245
5727.000000;-0.054326
5726.000000;-0.054362
5725.000000;-0.054400
5724.000000;-0.054458
5723.000000;-0.054516
5722.000000;-0.054565
5721.000000;-0.054627
5720.000000;-0.054711
5719.000000;-0.054794
5718.000000;-0.054858
5717.000000;-0.054915
5716.000000;-0.054984
5715.000000;-0.055073
5714.000000;-0.055181
5713.000000;-0.055303
5712.000000;-0.055411
5711.000000;-0.055475
5710.000000;-0.055502
5709.000000;-0.055529
5708.000000;-0.055581
5707.000000;-0.055646
5706.000000;-0.055722
5705.000000;-0.055818
5704.000000;-0.055933
5703.000000;-0.056048
5702.000000;-0.056161
5701.000000;-0.056275
5700.000000;-0.056373
5699.000000;-0.056426
5698.000000;-0.056450
5697.000000;-0.056501
5696.000000;-0.056627
5695.000000;-0.056796
5694.000000;-0.056974
5693.000000;-0.057057
5692.000000;-0.057117
5691.000000;-0.057196
5690.000000;-0.057275
5689.000000;-0.057387
5688.000000;-0.057494
5687.000000;-0.057568
5686.000000;-0.057604
5685.000000;-0.057637
5684.000000;-0.057696
5683.000000;-0.057791
5682.000000;-0.057926
5681.000000;-0.058091
5680.000000;-0.058254
5679.000000;-0.058384
5678.000000;-0.058480
5677.000000;-0.058555
5676.000000;-0.058603
5675.000000;-0.058625
5674.000000;-0.058659
5673.000000;-0.058749
5672.000000;-0.058887
5671.000000;-0.059027
5670.000000;-0.059139
5669.000000;-0.059233
5668.000000;-0.059323
5667.000000;-0.059415
5666.000000;-0.059504
5665.000000;-0.059578
5664.000000;-0.059619
5663.000000;-0.059635
5662.000000;-0.059663
5661.000000;-0.059720
5660.000000;-0.059787
5659.000000;-0.059852
5658.000000;-0.059950
5657.000000;-0.060098
5656.000000;-0.060253
5655.000000;-0.060367
5654.000000;-0.060457
5653.000000;-0.060580
5652.000000;-0.060740
5651.000000;-0.060889
5650.000000;-0.061007
5649.000000;-0.061110
5648.000000;-0.061203
5647.000000;-0.061275
5646.000000;-0.061330
5645.000000;-0.061396
5644.000000;-0.061487
5643.000000;-0.061601
5642.000000;-0.061733
5641.000000;-0.061871
5640.000000;-0.061978
5639.000000;-0.062028
5638.000000;-0.062049
5637.000000;-0.062093
5636.000000;-0.062166
5635.000000;-0.062243
5634.000000;-0.062316
5633.000000;-0.062398
5632.000000;-0.062493
5631.000000;-0.062600
5630.000000;-0.062731
5629.000000;-0.062885
5628.000000;-0.063020
5627.000000;-0.063101
5626.000000;-0.063153
5625.000000;-0.063214
5624.000000;-0.063276
5623.000000;-0.063307
5622.000000;-0.063328
5621.000000;-0.063391
5620.000000;-0.063501
5619.000000;-0.063616
5618.000000;-0.063726
5617.000000;-0.063848
5616.000000;-0.063977
5615.000000;-0.064095
5614.000000;-0.064213
5613.000000;-0.064353
5612.000000;-0.064496
5611.000000;-0.064599
5610.000000;-0.064672
5609.000000;-0.064761
5608.000000;-0.064872
5607.000000;-0.064969
5606.000000;-0.065027
5605.000000;-0.065050
5604.000000;-0.065040
5603.000000;-0.065003
5602.000000;-0.064980
5601.000000;-0.065016
5600.000000;-0.065121
5599.000000;-0.065272
5598.000000;-0.065451
5597.000000;-0.065627
5596.000000;-0.065755
5595.000000;-0.065824
5594.000000;-0.065894
5593.000000;-0.066019
5592.000000;-0.066190
5591.000000;-0.066375
5590.000000;-0.066579
5589.000000;-0.066792
5588.000000;-0.066943
5587.000000;-0.066986
5586.000000;-0.066985
5585.000000;-0.067039
5584.000000;-0.067155
5583.000000;-0.067272
5582.000000;-0.067376
5581.000000;-0.067501
5580.000000;-0.067631
5579.000000;-0.067720
5578.000000;-0.067772
5577.000000;-0.067836
5576.000000;-0.067923
5575.000000;-0.068005
5574.000000;-0.068089
5573.000000;-0.068197
5572.000000;-0.068306
5571.000000;-0.068386
5570.000000;-0.068469
5569.000000;-0.068599
5568.000000;-0.068717
5567.000000;-0.068728
5566.000000;-0.068668
5565.000000;-0.068679
5564.000000;-0.068808
5563.000000;-0.068964
5562.000000;-0.069083
5561.000000;-0.069223
5560.000000;-0.069427
5559.000000;-0.069625
5558.000000;-0.069736
5557.000000;-0.069772
5556.000000;-0.069780
5555.000000;-0.069732
5554.000000;-0.069586
5553.000000;-0.069400
5552.000000;-0.069275
5551.000000;-0.069223
5550.000000;-0.069163
5549.000000;-0.069065
5548.000000;-0.069015
5547.000000;-0.069105
5546.000000;-0.069335
5545.000000;-0.069632
5544.000000;-0.069944
5543.000000;-0.070286
5542.000000;-0.070680
5541.000000;-0.071060
5540.000000;-0.071273
5539.000000;-0.071212
5538.000000;-0.070954
5537.000000;-0.070709
5536.000000;-0.070572
5535.000000;-0.070434
5534.000000;-0.070202
5533.000000;-0.070009
5532.000000;-0.070079
5531.000000;-0.070426
5530.000000;-0.070833
5529.000000;-0.071140
5528.000000;-0.071423
5527.000000;-0.071816
5526.000000;-0.072269
5525.000000;-0.072550
5524.000000;-0.072493
5523.000000;-0.072205
5522.000000;-0.071949
5521.000000;-0.071832
5520.000000;-0.071681
5519.000000;-0.071295
5518.000000;-0.070798
5517.000000;-0.070584
5516.000000;-0.070811
5515.000000;-0.071199
5514.000000;-0.071431
5513.000000;-0.071574
5512.000000;-0.071912
5511.000000;-0.072370
5510.000000;-0.072481
5509.000000;-0.072028
5508.000000;-0.071366
5507.000000;-0.070912
5506.000000;-0.070592
5505.000000;-0.070124
5504.000000;-0.069677
5503.000000;-0.069789
5502.000000;-0.070523
5501.000000;-0.071244
5500.000000;-0.071503
5499.000000;-0.071686
5498.000000;-0.072391
5497.000000;-0.073342
5496.000000;-0.073373
5495.000000;-0.071869
5494.000000;-0.069702
5493.000000;-0.068114
5492.000000;-0.067071
5491.000000;-0.065393
5490.000000;-0.062715
5489.000000;-0.060456
5488.000000;-0.060149
5487.000000;-0.061496
5486.000000;-0.062936
5485.000000;-0.063822
5484.000000;-0.065041
5483.000000;-0.067401
5482.000000;-0.070407
5481.000000;-0.073036
5480.000000;-0.074931
5479.000000;-0.075997
5478.000000;-0.075582
5477.000000;-0.073374
5476.000000;-0.070475
5475.000000;-0.068500
5474.000000;-0.067551
5473.000000;-0.066162
5472.000000;-0.063801
5471.000000;-0.062036
5470.000000;-0.062382
5469.000000;-0.064139
5468.000000;-0.065473
5467.000000;-0.065868
5466.000000;-0.066368
5465.000000;-0.067657
5464.000000;-0.068886
5463.000000;-0.068806
5462.000000;-0.067383
5461.000000;-0.065737
5460.000000;-0.064811
5459.000000;-0.064456
5458.000000;-0.064031
5457.000000;-0.063709
5456.000000;-0.064421
5455.000000;-0.066476
5454.000000;-0.068927
5453.000000;-0.070555
5452.000000;-0.071153
5451.000000;-0.071553
5450.000000;-0.072344
5449.000000;-0.072717
5448.000000;-0.071169
5447.000000;-0.067522
5446.000000;-0.063661
5445.000000;-0.061409
5444.000000;-0.059926
5443.000000;-0.057032
5442.000000;-0.053023
5441.000000;-0.050906
5440.000000;-0.052312
5439.000000;-0.055014
5438.000000;-0.055786
5437.000000;-0.054629
5436.000000;-0.054324
5435.000000;-0.056413
5434.000000;-0.059384
5433.000000;-0.060689
5432.000000;-0.059395
5431.000000;-0.056859
5430.000000;-0.055240
5429.000000;-0.055376
5428.000000;-0.056113
5427.000000;-0.055913
5426.000000;-0.055063
5425.000000;-0.055621
5424.000000;-0.058942
5423.000000;-0.064055
5422.000000;-0.068810
5421.000000;-0.072207
5420.000000;-0.075065
5419.000000;-0.078521
5418.000000;-0.082165
5417.000000;-0.083888
5416.000000;-0.082081
5415.000000;-0.077624
5414.000000;-0.072848
5413.000000;-0.068678
5412.000000;-0.063919
5411.000000;-0.058053
5410.000000;-0.053130
5409.000000;-0.051419
5408.000000;-0.052397
5407.000000;-0.053852
5406.000000;-0.055376
5405.000000;-0.058612
5404.000000;-0.064128
5403.000000;-0.070213
5402.000000;-0.075091
5401.000000;-0.078753
5400.000000;-0.081788
5399.000000;-0.083973
5398.000000;-0.084892
5397.000000;-0.084281
5396.000000;-0.081887
5395.000000;-0.078012
5394.000000;-0.073987
5393.000000;-0.071336
5392.000000;-0.070080
5391.000000;-0.069053
5390.000000;-0.068047
5389.000000;-0.067983
5388.000000;-0.069087
5387.000000;-0.070368
5386.000000;-0.071285
5385.000000;-0.072440
5384.000000;-0.074054
5383.000000;-0.075305
5382.000000;-0.075904
5381.000000;-0.076736
5380.000000;-0.077793
5379.000000;-0.077545
5378.000000;-0.075530
5377.000000;-0.073503
5376.000000;-0.072882
5375.000000;-0.072634
5374.000000;-0.071242
5373.000000;-0.069542
5372.000000;-0.069638
5371.000000;-0.071892
5370.000000;-0.074873
5369.000000;-0.077776
5368.000000;-0.081090
5367.000000;-0.084797
5366.000000;-0.087741
5365.000000;-0.089251
5364.000000;-0.089957
5363.000000;-0.090485
5362.000000;-0.090605
5361.000000;-0.090187
5360.000000;-0.089842
5359.000000;-0.090235
5358.000000;-0.091083
5357.000000;-0.091142
5356.000000;-0.089381
5355.000000;-0.086013
5354.000000;-0.082413
5353.000000;-0.079755
5352.000000;-0.077628
5351.000000;-0.074756
5350.000000;-0.071382
5349.000000;-0.069498
5348.000000;-0.069569
5347.000000;-0.068968
5346.000000;-0.065669
5345.000000;-0.061724
5344.000000;-0.060651
5343.000000;-0.062159
5342.000000;-0.062146
5341.000000;-0.058533
5340.000000;-0.054223
5339.000000;-0.052865
5338.000000;-0.054154
5337.000000;-0.055255
5336.000000;-0.055222
5335.000000;-0.055704
5334.000000;-0.058192
5333.000000;-0.062409
5332.000000;-0.067063
5331.000000;-0.070780
5330.000000;-0.072702
5329.000000;-0.073369
5328.000000;-0.074448
5327.000000;-0.076884
5326.000000;-0.079499
5325.000000;-0.080348
5324.000000;-0.079617
5323.000000;-0.079766
5322.000000;-0.082276
5321.000000;-0.085894
5320.000000;-0.088760
5319.000000;-0.090747
5318.000000;-0.092845
5317.000000;-0.095267
5316.000000;-0.097266
5315.000000;-0.098268
5314.000000;-0.098429
5313.000000;-0.098263
5312.000000;-0.098222
5311.000000;-0.098259
5310.000000;-0.097709
5309.000000;-0.096231
5308.000000;-0.094518
5307.000000;-0.093463
5306.000000;-0.092837
5305.000000;-0.091727
5304.000000;-0.090220
5303.000000;-0.089487
5302.000000;-0.090047
5301.000000;-0.091069
5300.000000;-0.091780
5299.000000;-0.092559
5298.000000;-0.094011
5297.000000;-0.095809
5296.000000;-0.097199
5295.000000;-0.098064
5294.000000;-0.098548
5293.000000;-0.098145
5292.000000;-0.096430
5291.000000;-0.094191
5290.000000;-0.092703
5289.000000;-0.091974
5288.000000;-0.090663
5287.000000;-0.088235
5286.000000;-0.086083
5285.000000;-0.085747
5284.000000;-0.086827
5283.000000;-0.087607
5282.000000;-0.087550
5281.000000;-0.087894
5280.000000;-0.089601
5279.000000;-0.091875
5278.000000;-0.093296
5277.000000;-0.093703
5276.000000;-0.094129
5275.000000;-0.095262
5274.000000;-0.096735
5273.000000;-0.097783
5272.000000;-0.098043
5271.000000;-0.097677
5270.000000;-0.097041
5269.000000;-0.096396
5268.000000;-0.095483
5267.000000;-0.093371
5266.000000;-0.089572
5265.000000;-0.085025
5264.000000;-0.081222
5263.000000;-0.078469
5262.000000;-0.075911
5261.000000;-0.073387
5260.000000;-0.072139
5259.000000;-0.073049
5258.000000;-0.074985
5257.000000;-0.076143
5256.000000;-0.076495
5255.000000;-0.077560
5254.000000;-0.079898
5253.000000;-0.082153
5252.000000;-0.082698
5251.000000;-0.081391
5250.000000;-0.079355
5249.000000;-0.077664
5248.000000;-0.076476
5247.000000;-0.074973
5246.000000;-0.072596
5245.000000;-0.070227
5244.000000;-0.069552
5243.000000;-0.071065
5242.000000;-0.073293
5241.000000;-0.074817
5240.000000;-0.076341
5239.000000;-0.079546
5238.000000;-0.084259
5237.000000;-0.088390
5236.000000;-0.090689
5235.000000;-0.091970
5234.000000;-0.093192
5233.000000;-0.093936
5232.000000;-0.093535
5231.000000;-0.092480
5230.000000;-0.091704
5229.000000;-0.090975
5228.000000;-0.089241
5227.000000;-0.086480
5226.000000;-0.084046
5225.000000;-0.082852
5224.000000;-0.082213
5223.000000;-0.081199
5222.000000;-0.080241
5221.000000;-0.080486
5220.000000;-0.082042
5219.000000;-0.083906
5218.000000;-0.085476
5217.000000;-0.087119
5216.000000;-0.089250
5215.000000;-0.091646
5214.000000;-0.093845
5213.000000;-0.095566
5212.000000;-0.096430
5211.000000;-0.096034
5210.000000;-0.094349
5209.000000;-0.091540
5208.000000;-0.087769
5207.000000;-0.083568
5206.000000;-0.079950
5205.000000;-0.077572
5204.000000;-0.076205
5203.000000;-0.075641
5202.000000;-0.076478
5201.000000;-0.079124
5200.000000;-0.082567
5199.000000;-0.085321
5198.000000;-0.087256
5197.000000;-0.089389
5196.000000;-0.092009
5195.000000;-0.094070
5194.000000;-0.094827
5193.000000;-0.094950
5192.000000;-0.095350
5191.000000;-0.095950
5190.000000;-0.096269
5189.000000;-0.096339
5188.000000;-0.096364
5187.000000;-0.096093
5186.000000;-0.095328
5185.000000;-0.094555
5184.000000;-0.094294
5183.000000;-0.094231
5182.000000;-0.093824
5181.000000;-0.093398
5180.000000;-0.093734
5179.000000;-0.094782
5178.000000;-0.095717
5177.000000;-0.096236
5176.000000;-0.096928
5175.000000;-0.098164
5174.000000;-0.099391
5173.000000;-0.099912
5172.000000;-0.099814
5171.000000;-0.099678
5170.000000;-0.099783
5169.000000;-0.099994
5168.000000;-0.100153
5167.000000;-0.100207
5166.000000;-0.100112
5165.000000;-0.099899
5164.000000;-0.099720
5163.000000;-0.099640
5162.000000;-0.099529
5161.000000;-0.099329
5160.000000;-0.099220
5159.000000;-0.099319
5158.000000;-0.099415
5157.000000;-0.099274
5156.000000;-0.099046
5155.000000;-0.099087
5154.000000;-0.099439
5153.000000;-0.099853
5152.000000;-0.100264
5151.000000;-0.100841
5150.000000;-0.101573
5149.000000;-0.102185
5148.000000;-0.102568
5147.000000;-0.102938
5146.000000;-0.103465
5145.000000;-0.103970
5144.000000;-0.104161
5143.000000;-0.104013
5142.000000;-0.103766
5141.000000;-0.103635
5140.000000;-0.103626
5139.000000;-0.103674
5138.000000;-0.103800
5137.000000;-0.104081
5136.000000;-0.104478
5135.000000;-0.104818
5134.000000;-0.104991
5133.000000;-0.105070
5132.000000;-0.105195
5131.000000;-0.105385
5130.000000;-0.105563
5129.000000;-0.105721
5128.000000;-0.105926
5127.000000;-0.106178
5126.000000;-0.106391
5125.000000;-0.106517
5124.000000;-0.106621
5123.000000;-0.106760
5122.000000;-0.106866
5121.000000;-0.106858
5120.000000;-0.106779
5119.000000;-0.106728
5118.000000;-0.106717
5117.000000;-0.106701
5116.000000;-0.106704
5115.000000;-0.106798
5114.000000;-0.106987
5113.000000;-0.107194
5112.000000;-0.107377
5111.000000;-0.107560
5110.000000;-0.107768
5109.000000;-0.107980
5108.000000;-0.108176
5107.000000;-0.108349
5106.000000;-0.108484
5105.000000;-0.108583
5104.000000;-0.108692
5103.000000;-0.108831
5102.000000;-0.108948
5101.000000;-0.108990
5100.000000;-0.108994
5099.000000;-0.109026
5098.000000;-0.109083
5097.000000;-0.109116
5096.000000;-0.109119
5095.000000;-0.109129
5094.000000;-0.109158
5093.000000;-0.109201
5092.000000;-0.109276
5091.000000;-0.109402
5090.000000;-0.109552
5089.000000;-0.109679
5088.000000;-0.109788
5087.000000;-0.109913
5086.000000;-0.110046
5085.000000;-0.110156
5084.000000;-0.110255
5083.000000;-0.110389
5082.000000;-0.110559
5081.000000;-0.110717
5080.000000;-0.110828
5079.000000;-0.110895
5078.000000;-0.110944
5077.000000;-0.111001
5076.000000;-0.111095
5075.000000;-0.111219
5074.000000;-0.111325
5073.000000;-0.111374
5072.000000;-0.111387
5071.000000;-0.111409
5070.000000;-0.111456
5069.000000;-0.111529
5068.000000;-0.111644
5067.000000;-0.111809
5066.000000;-0.111975
5065.000000;-0.112087
5064.000000;-0.112145
5063.000000;-0.112197
5062.000000;-0.112259
5061.000000;-0.112320
5060.000000;-0.112382
5059.000000;-0.112458
5058.000000;-0.112527
5057.000000;-0.112556
5056.000000;-0.112558
5055.000000;-0.112580
5054.000000;-0.112636
5053.000000;-0.112696
5052.000000;-0.112746
5051.000000;-0.112806
5050.000000;-0.112882
5049.000000;-0.112959
5048.000000;-0.113031
5047.000000;-0.113126
5046.000000;-0.113260
5045.000000;-0.113416
5044.000000;-0.113567
5043.000000;-0.113700
5042.000000;-0.113810
5041.000000;-0.113896
5040.000000;-0.113970
5039.000000;-0.114043
5038.000000;-0.114115
5037.000000;-0.114177
5036.000000;-0.114225
5035.000000;-0.114257
5034.000000;-0.114265
5033.000000;-0.114258
5032.000000;-0.114275
5031.000000;-0.114348
5030.000000;-0.114478
5029.000000;-0.114648
5028.000000;-0.114841
5027.000000;-0.115026
5026.000000;-0.115149
5025.000000;-0.115194
5024.000000;-0.115207
5023.000000;-0.115243
5022.000000;-0.115304
5021.000000;-0.115368
5020.000000;-0.115444
5019.000000;-0.115553
5018.000000;-0.115676
5017.000000;-0.115774
5016.000000;-0.115838
5015.000000;-0.115899
5014.000000;-0.115974
5013.000000;-0.116056
5012.000000;-0.116134
5011.000000;-0.116199
5010.000000;-0.116237
5009.000000;-0.116240
5008.000000;-0.116236
5007.000000;-0.116262
5006.000000;-0.116332
5005.000000;-0.116436
5004.000000;-0.116569
5003.000000;-0.116719
5002.000000;-0.116845
5001.000000;-0.116914
5000.000000;-0.116953
4999.000000;-0.117000
4998.000000;-0.117092
4997.000000;-0.117203
4996.000000;-0.117273
4995.000000;-0.117346
4994.000000;-0.117398
4993.000000;-0.117435
4992.000000;-0.117487
4991.000000;-0.117586
4990.000000;-0.117715
4989.000000;-0.117835
4988.000000;-0.117941
4987.000000;-0.118054
4986.000000;-0.118165
4985.000000;-0.118246
4984.000000;-0.118299
4983.000000;-0.118354
4982.000000;-0.118419
4981.000000;-0.118477
4980.000000;-0.118524
4979.000000;-0.118582
4978.000000;-0.118657
4977.000000;-0.118727
4976.000000;-0.118781
4975.000000;-0.118836
4974.000000;-0.118908
4973.000000;-0.118989
4972.000000;-0.119054
4971.000000;-0.119087
4970.000000;-0.119097
4969.000000;-0.119109
4968.000000;-0.119161
4967.000000;-0.119265
4966.000000;-0.119397
4965.000000;-0.119529
4964.000000;-0.119652
4963.000000;-0.119764
4962.000000;-0.119858
4961.000000;-0.119930
4960.000000;-0.119995
4959.000000;-0.120063
4958.000000;-0.120118
4957.000000;-0.120141
4956.000000;-0.120150
4955.000000;-0.120181
4954.000000;-0.120250
4953.000000;-0.120356
4952.000000;-0.120501
4951.000000;-0.120669
4950.000000;-0.120806
4949.000000;-0.120866
4948.000000;-0.120865
4947.000000;-0.120867
4946.000000;-0.120916
4945.000000;-0.121011
4944.000000;-0.121127
4943.000000;-0.121237
4942.000000;-0.121319
4941.000000;-0.121376
4940.000000;-0.121446
4939.000000;-0.121565
4938.000000;-0.121723
4937.000000;-0.121882
4936.000000;-0.122012
4935.000000;-0.122098
4934.000000;-0.122127
4933.000000;-0.122110
4932.000000;-0.122093
4931.000000;-0.122122
4930.000000;-0.122199
4929.000000;-0.122298
4928.000000;-0.122404
4927.000000;-0.122515
4926.000000;-0.122622
4925.000000;-0.122719
4924.000000;-0.122824
4923.000000;-0.122955
4922.000000;-0.123090
4921.000000;-0.123191
4920.000000;-0.123257
4919.000000;-0.123324
4918.000000;-0.123411
4917.000000;-0.123499
4916.000000;-0.123578
4915.000000;-0.123661
4914.000000;-0.123762
4913.000000;-0.123880
4912.000000;-0.124006
4911.000000;-0.124125
4910.000000;-0.124218
4909.000000;-0.124277
4908.000000;-0.124327
4907.000000;-0.124394
4906.000000;-0.124476
4905.000000;-0.124553
4904.000000;-0.124623
4903.000000;-0.124705
4902.000000;-0.124805
4901.000000;-0.124917
4900.000000;-0.125043
4899.000000;-0.125178
4898.000000;-0.125297
4897.000000;-0.125372
4896.000000;-0.125413
4895.000000;-0.125456
4894.000000;-0.125532
4893.000000;-0.125645
4892.000000;-0.125789
4891.000000;-0.125950
4890.000000;-0.126100
4889.000000;-0.126215
4888.000000;-0.126297
4887.000000;-0.126366
4886.000000;-0.126438
4885.000000;-0.126529
4884.000000;-0.126651
4883.000000;-0.126797
4882.000000;-0.126936
4881.000000;-0.127039
4880.000000;-0.127111
4879.000000;-0.127170
4878.000000;-0.127214
4877.000000;-0.127241
4876.000000;-0.127277
4875.000000;-0.127347
4874.000000;-0.127437
4873.000000;-0.127513
4872.000000;-0.127568
4871.000000;-0.127621
4870.000000;-0.127684
4869.000000;-0.127765
4868.000000;-0.127888
4867.000000;-0.128065
4866.000000;-0.128265
4865.000000;-0.128430
4864.000000;-0.128533
4863.000000;-0.128597
4862.000000;-0.128668
4861.000000;-0.128767
4860.000000;-0.128886
4859.000000;-0.128996
4858.000000;-0.129064
4857.000000;-0.129090
4856.000000;-0.129111
4855.000000;-0.129162
4854.000000;-0.129246
4853.000000;-0.129345
4852.000000;-0.129456
4851.000000;-0.129570
4850.000000;-0.129654
4849.000000;-0.129690
4848.000000;-0.129703
4847.000000;-0.129740
4846.000000;-0.129814
4845.000000;-0.129908
4844.000000;-0.130001
4843.000000;-0.130078
4842.000000;-0.130118
4841.000000;-0.130121
4840.000000;-0.130132
4839.000000;-0.130216
4838.000000;-0.130384
4837.000000;-0.130585
4836.000000;-0.130763
4835.000000;-0.130892
4834.000000;-0.130968
4833.000000;-0.131005
4832.000000;-0.131036
4831.000000;-0.131099
4830.000000;-0.131205
4829.000000;-0.131329
4828.000000;-0.131439
4827.000000;-0.131516
4826.000000;-0.131560
4825.000000;-0.131597
4824.000000;-0.131669
4823.000000;-0.131798
4822.000000;-0.131961
4821.000000;-0.132116
4820.000000;-0.132235
4819.000000;-0.132305
4818.000000;-0.132319
4817.000000;-0.132296
4816.000000;-0.132292
4815.000000;-0.132357
4814.000000;-0.132477
4813.000000;-0.132593
4812.000000;-0.132659
4811.000000;-0.132681
4810.000000;-0.132692
4809.000000;-0.132735
4808.000000;-0.132849
4807.000000;-0.133033
4806.000000;-0.133228
4805.000000;-0.133354
4804.000000;-0.133386
4803.000000;-0.133361
4802.000000;-0.133343
4801.000000;-0.133370
4800.000000;-0.133451
4799.000000;-0.133567
4798.000000;-0.133685
4797.000000;-0.133787
4796.000000;-0.133880
4795.000000;-0.133974
4794.000000;-0.134069
4793.000000;-0.134176
4792.000000;-0.134329
4791.000000;-0.134543
4790.000000;-0.134771
4789.000000;-0.134939
4788.000000;-0.135007
4787.000000;-0.134991
4786.000000;-0.134925
4785.000000;-0.134855
4784.000000;-0.134829
4783.000000;-0.134870
4782.000000;-0.134949
4781.000000;-0.135012
4780.000000;-0.135031
4779.000000;-0.135016
4778.000000;-0.134994
4777.000000;-0.134999
4776.000000;-0.135065
4775.000000;-0.135183
4774.000000;-0.135294
4773.000000;-0.135341
4772.000000;-0.135334
4771.000000;-0.135337
4770.000000;-0.135394
4769.000000;-0.135503
4768.000000;-0.135643
4767.000000;-0.135785
4766.000000;-0.135885
4765.000000;-0.135910
4764.000000;-0.135877
4763.000000;-0.135854
4762.000000;-0.135887
4761.000000;-0.135981
4760.000000;-0.136117
4759.000000;-0.136275
4758.000000;-0.136427
4757.000000;-0.136542
4756.000000;-0.136610
4755.000000;-0.136642
4754.000000;-0.136657
4753.000000;-0.136675
4752.000000;-0.136720
4751.000000;-0.136799
4750.000000;-0.136882
4749.000000;-0.136931
4748.000000;-0.136956
4747.000000;-0.137015
4746.000000;-0.137145
4745.000000;-0.137320
4744.000000;-0.137471
4743.000000;-0.137536
4742.000000;-0.137506
4741.000000;-0.137427
4740.000000;-0.137374
4739.000000;-0.137392
4738.000000;-0.137463
4737.000000;-0.137550
4736.000000;-0.137638
4735.000000;-0.137726
4734.000000;-0.137800
4733.000000;-0.137842
4732.000000;-0.137872
4731.000000;-0.137925
4730.000000;-0.138011
4729.000000;-0.138102
4728.000000;-0.138175
4727.000000;-0.138239
4726.000000;-0.138312
4725.000000;-0.138398
4724.000000;-0.138496
4723.000000;-0.138596
4722.000000;-0.138672
4721.000000;-0.138705
4720.000000;-0.138705
4719.000000;-0.138696
4718.000000;-0.138689
4717.000000;-0.138678
4716.000000;-0.138680
4715.000000;-0.138730
4714.000000;-0.138841
4713.000000;-0.138976
4712.000000;-0.139083
4711.000000;-0.139123
4710.000000;-0.139096
4709.000000;-0.139038
4708.000000;-0.139009
4707.000000;-0.139046
4706.000000;-0.139133
4705.000000;-0.139212
4704.000000;-0.139239
4703.000000;-0.139210
4702.000000;-0.139157
4701.000000;-0.139128
4700.000000;-0.139180
4699.000000;-0.139325
4698.000000;-0.139516
4697.000000;-0.139677
4696.000000;-0.139785
4695.000000;-0.139869
4694.000000;-0.139956
4693.000000;-0.140030
4692.000000;-0.140067
4691.000000;-0.140062
4690.000000;-0.140033
4689.000000;-0.139996
4688.000000;-0.139961
4687.000000;-0.139925
4686.000000;-0.139879
4685.000000;-0.139826
4684.000000;-0.139794
4683.000000;-0.139800
4682.000000;-0.139823
4681.000000;-0.139821
4680.000000;-0.139782
4679.000000;-0.139737
4678.000000;-0.139715
4677.000000;-0.139729
4676.000000;-0.139776
4675.000000;-0.139850
4674.000000;-0.139924
4673.000000;-0.139961
4672.000000;-0.139945
4671.000000;-0.139896
4670.000000;-0.139842
4669.000000;-0.139813
4668.000000;-0.139828
4667.000000;-0.139887
4666.000000;-0.139958
4665.000000;-0.140007
4664.000000;-0.140032
4663.000000;-0.140055
4662.000000;-0.140080
4661.000000;-0.140091
4660.000000;-0.140078
4659.000000;-0.140049
4658.000000;-0.140002
4657.000000;-0.139922
4656.000000;-0.139805
4655.000000;-0.139682
4654.000000;-0.139592
4653.000000;-0.139557
4652.000000;-0.139566
4651.000000;-0.139593
4650.000000;-0.139606
4649.000000;-0.139587
4648.000000;-0.139545
4647.000000;-0.139503
4646.000000;-0.139472
4645.000000;-0.139457
4644.000000;-0.139454
4643.000000;-0.139446
4642.000000;-0.139396
4641.000000;-0.139272
4640.000000;-0.139090
4639.000000;-0.138906
4638.000000;-0.138771
4637.000000;-0.138695
4636.000000;-0.138668
4635.000000;-0.138674
4634.000000;-0.138701
4633.000000;-0.138738
4632.000000;-0.138779
4631.000000;-0.138821
4630.000000;-0.138850
4629.000000;-0.138852
4628.000000;-0.138819
4627.000000;-0.138750
4626.000000;-0.138645
4625.000000;-0.138513
4624.000000;-0.138379
4623.000000;-0.138266
4622.000000;-0.138179
4621.000000;-0.138112
4620.000000;-0.138059
4619.000000;-0.138004
4618.000000;-0.137920
4617.000000;-0.137792
4616.000000;-0.137638
4615.000000;-0.137492
4614.000000;-0.137368
4613.000000;-0.137259
4612.000000;-0.137155
4611.000000;-0.137040
4610.000000;-0.136889
4609.000000;-0.136693
4608.000000;-0.136484
4607.000000;-0.136309
4606.000000;-0.136192
4605.000000;-0.136123
4604.000000;-0.136080
4603.000000;-0.136033
4602.000000;-0.135945
4601.000000;-0.135798
4600.000000;-0.135621
4599.000000;-0.135466
4598.000000;-0.135343
4597.000000;-0.135215
4596.000000;-0.135057
4595.000000;-0.134879
4594.000000;-0.134702
4593.000000;-0.134533
4592.000000;-0.134369
4591.000000;-0.134221
4590.000000;-0.134095
4589.000000;-0.133986
4588.000000;-0.133872
4587.000000;-0.133725
4586.000000;-0.133516
4585.000000;-0.133239
4584.000000;-0.132931
4583.000000;-0.132644
4582.000000;-0.132399
4581.000000;-0.132168
4580.000000;-0.131909
4579.000000;-0.131609
4578.000000;-0.131288
4577.000000;-0.130974
4576.000000;-0.130671
4575.000000;-0.130358
4574.000000;-0.130002
4573.000000;-0.129595
4572.000000;-0.129165
4571.000000;-0.128743
4570.000000;-0.128339
4569.000000;-0.127949
4568.000000;-0.127579
4567.000000;-0.127230
4566.000000;-0.126887
4565.000000;-0.126541
4564.000000;-0.126196
4563.000000;-0.125854
4562.000000;-0.125490
4561.000000;-0.125081
4560.000000;-0.124633
4559.000000;-0.124169
4558.000000;-0.123690
4557.000000;-0.123170
4556.000000;-0.122601
4555.000000;-0.122006
4554.000000;-0.121407
4553.000000;-0.120817
4552.000000;-0.120248
4551.000000;-0.119709
4550.000000;-0.119180
4549.000000;-0.118617
4548.000000;-0.117998
4547.000000;-0.117343
4546.000000;-0.116687
4545.000000;-0.116050
4544.000000;-0.115439
4543.000000;-0.114851
4542.000000;-0.114277
4541.000000;-0.113711
4540.000000;-0.113153
4539.000000;-0.112609
4538.000000;-0.112073
4537.000000;-0.111536
4536.000000;-0.110997
4535.000000;-0.110454
4534.000000;-0.109907
4533.000000;-0.109366
4532.000000;-0.108855
4531.000000;-0.108392
4530.000000;-0.107967
4529.000000;-0.107553
4528.000000;-0.107142
4527.000000;-0.106741
4526.000000;-0.106343
4525.000000;-0.105933
4524.000000;-0.105511
4523.000000;-0.105101
4522.000000;-0.104722
4521.000000;-0.104382
4520.000000;-0.104078
4519.000000;-0.103793
4518.000000;-0.103498
4517.000000;-0.103173
4516.000000;-0.102846
4515.000000;-0.102568
4514.000000;-0.102365
4513.000000;-0.102208
4512.000000;-0.102039
4511.000000;-0.101800
4510.000000;-0.101462
4509.000000;-0.101052
4508.000000;-0.100652
4507.000000;-0.100349
4506.000000;-0.100166
4505.000000;-0.100055
4504.000000;-0.099946
4503.000000;-0.099791
4502.000000;-0.099572
4501.000000;-0.099298
4500.000000;-0.099004
4499.000000;-0.098718
4498.000000;-0.098433
4497.000000;-0.098117
4496.000000;-0.097757
4495.000000;-0.097366
4494.000000;-0.096966
4493.000000;-0.096576
4492.000000;-0.096233
4491.000000;-0.095967
4490.000000;-0.095766
4489.000000;-0.095565
4488.000000;-0.095300
4487.000000;-0.094955
4486.000000;-0.094551
4485.000000;-0.094120
4484.000000;-0.093693
4483.000000;-0.093298
4482.000000;-0.092938
4481.000000;-0.092584
4480.000000;-0.092193
4479.000000;-0.091743
4478.000000;-0.091247
4477.000000;-0.090742
4476.000000;-0.090274
4475.000000;-0.089868
4474.000000;-0.089509
4473.000000;-0.089156
4472.000000;-0.088768
4471.000000;-0.088334
4470.000000;-0.087878
4469.000000;-0.087442
4468.000000;-0.087048
4467.000000;-0.086675
4466.000000;-0.086272
4465.000000;-0.085796
4464.000000;-0.085248
4463.000000;-0.084651
4462.000000;-0.084032
4461.000000;-0.083413
4460.000000;-0.082816
4459.000000;-0.082246
4458.000000;-0.081683
4457.000000;-0.081105
4456.000000;-0.080516
4455.000000;-0.079936
4454.000000;-0.079380
4453.000000;-0.078858
4452.000000;-0.078380
4451.000000;-0.077943
4450.000000;-0.077511
4449.000000;-0.077041
4448.000000;-0.076515
4447.000000;-0.075947
4446.000000;-0.075358
4445.000000;-0.074753
4444.000000;-0.074138
4443.000000;-0.073528
4442.000000;-0.072934
4441.000000;-0.072359
4440.000000;-0.071797
4439.000000;-0.071237
4438.000000;-0.070673
4437.000000;-0.070112
4436.000000;-0.069554
4435.000000;-0.068977
4434.000000;-0.068368
4433.000000;-0.067747
4432.000000;-0.067145
4431.000000;-0.066553
4430.000000;-0.065927
4429.000000;-0.065258
4428.000000;-0.064601
4427.000000;-0.063998
4426.000000;-0.063419
4425.000000;-0.062799
4424.000000;-0.062106
4423.000000;-0.061356
4422.000000;-0.060574
4421.000000;-0.059780
4420.000000;-0.058995
4419.000000;-0.058227
4418.000000;-0.057458
4417.000000;-0.056680
4416.000000;-0.055919
4415.000000;-0.055205
4414.000000;-0.054528
4413.000000;-0.053851
4412.000000;-0.053166
4411.000000;-0.052488
4410.000000;-0.051802
4409.000000;-0.051056
4408.000000;-0.050220
4407.000000;-0.049332
4406.000000;-0.048471
4405.000000;-0.047693
4404.000000;-0.046987
4403.000000;-0.046290
4402.000000;-0.045542
4401.000000;-0.044732
4400.000000;-0.043897
4399.000000;-0.043068
4398.000000;-0.042247
4397.000000;-0.041437
4396.000000;-0.040634
4395.000000;-0.039800
4394.000000;-0.038863
4393.000000;-0.037806
4392.000000;-0.036709
4391.000000;-0.035674
4390.000000;-0.034728
4389.000000;-0.033826
4388.000000;-0.032921
4387.000000;-0.031986
4386.000000;-0.030998
4385.000000;-0.029948
4384.000000;-0.028885
4383.000000;-0.027876
4382.000000;-0.026940
4381.000000;-0.026031
4380.000000;-0.025079
4379.000000;-0.024034
4378.000000;-0.022887
4377.000000;-0.021683
4376.000000;-0.020508
4375.000000;-0.019409
4374.000000;-0.018365
4373.000000;-0.017328
4372.000000;-0.016282
4371.000000;-0.015206
4370.000000;-0.014039
4369.000000;-0.012733
4368.000000;-0.011351
4367.000000;-0.010034
4366.000000;-0.008862
4365.000000;-0.007788
4364.000000;-0.006705
4363.000000;-0.005535
4362.000000;-0.004265
4361.000000;-0.002943
4360.000000;-0.001643
4359.000000;-0.000401
4358.000000;0.000825
4357.000000;0.002109
4356.000000;0.003485
4355.000000;0.004945
4354.000000;0.006472
4353.000000;0.008020
4352.000000;0.009493
4351.000000;0.010813
4350.000000;0.012022
4349.000000;0.013251
4348.000000;0.014601
4347.000000;0.016075
4346.000000;0.017632
4345.000000;0.019233
4344.000000;0.020814
4343.000000;0.022309
4342.000000;0.023715
4341.000000;0.025118
4340.000000;0.026607
4339.000000;0.028195
4338.000000;0.029832
4337.000000;0.031453
4336.000000;0.033014
4335.000000;0.034503
4334.000000;0.035961
4333.000000;0.037457
4332.000000;0.039040
4331.000000;0.040726
4330.000000;0.042506
4329.000000;0.044335
4328.000000;0.046122
4327.000000;0.047783
4326.000000;0.049334
4325.000000;0.050870
4324.000000;0.052457
4323.000000;0.054083
4322.000000;0.055726
4321.000000;0.057400
4320.000000;0.059105
4319.000000;0.060796
4318.000000;0.062443
4317.000000;0.064088
4316.000000;0.065800
4315.000000;0.067595
4314.000000;0.069444
4313.000000;0.071311
4312.000000;0.073155
4311.000000;0.074925
4310.000000;0.076609
4309.000000;0.078287
4308.000000;0.080079
4307.000000;0.082034
4306.000000;0.084065
4305.000000;0.086033
4304.000000;0.087861
4303.000000;0.089587
4302.000000;0.091301
4301.000000;0.093067
4300.000000;0.094908
4299.000000;0.096842
4298.000000;0.098902
4297.000000;0.101072
4296.000000;0.103255
4295.000000;0.105341
4294.000000;0.107314
4293.000000;0.109270
4292.000000;0.111319
4291.000000;0.113473
4290.000000;0.115646
4289.000000;0.117730
4288.000000;0.119688
4287.000000;0.121591
4286.000000;0.123562
4285.000000;0.125677
4284.000000;0.127928
4283.000000;0.130252
4282.000000;0.132583
4281.000000;0.134846
4280.000000;0.136974
4279.000000;0.138972
4278.000000;0.140949
4277.000000;0.143024
4276.000000;0.145207
4275.000000;0.147426
4274.000000;0.149656
4273.000000;0.151949
4272.000000;0.154334
4271.000000;0.156757
4270.000000;0.159143
4269.000000;0.161496
4268.000000;0.163893
4267.000000;0.166408
4266.000000;0.169041
4265.000000;0.171713
4264.000000;0.174315
4263.000000;0.176770
4262.000000;0.179075
4261.000000;0.181301
4260.000000;0.183570
4259.000000;0.186007
4258.000000;0.188632
4257.000000;0.191297
4256.000000;0.193782
4255.000000;0.196036
4254.000000;0.198256
4253.000000;0.200678
4252.000000;0.203329
4251.000000;0.206056
4250.000000;0.208753
4249.000000;0.211427
4248.000000;0.214070
4247.000000;0.216613
4246.000000;0.219042
4245.000000;0.221471
4244.000000;0.224004
4243.000000;0.226614
4242.000000;0.229216
4241.000000;0.231811
4240.000000;0.234476
4239.000000;0.237241
4238.000000;0.240067
4237.000000;0.242918
4236.000000;0.245814
4235.000000;0.248785
4234.000000;0.251829
4233.000000;0.254918
4232.000000;0.258019
4231.000000;0.261094
4230.000000;0.264120
4229.000000;0.267122
4228.000000;0.270166
4227.000000;0.273295
4226.000000;0.276478
4225.000000;0.279636
4224.000000;0.282709
4223.000000;0.285692
4222.000000;0.288634
4221.000000;0.291631
4220.000000;0.294810
4219.000000;0.298236
4218.000000;0.301819
4217.000000;0.305355
4216.000000;0.308728
4215.000000;0.312027
4214.000000;0.315401
4213.000000;0.318845
4212.000000;0.322210
4211.000000;0.325409
4210.000000;0.328527
4209.000000;0.331708
4208.000000;0.335037
4207.000000;0.338533
4206.000000;0.342166
4205.000000;0.345850
4204.000000;0.349504
4203.000000;0.353158
4202.000000;0.356914
4201.000000;0.360760
4200.000000;0.364538
4199.000000;0.368158
4198.000000;0.371768
4197.000000;0.375608
4196.000000;0.379753
4195.000000;0.384082
4194.000000;0.388419
4193.000000;0.392634
4192.000000;0.396679
4191.000000;0.400628
4190.000000;0.404663
4189.000000;0.408903
4188.000000;0.413259
4187.000000;0.417513
4186.000000;0.421551
4185.000000;0.425471
4184.000000;0.429486
4183.000000;0.433767
4182.000000;0.438320
4181.000000;0.442961
4180.000000;0.447441
4179.000000;0.451668
4178.000000;0.455780
4177.000000;0.459964
4176.000000;0.464264
4175.000000;0.468607
4174.000000;0.472948
4173.000000;0.477339
4172.000000;0.481855
4171.000000;0.486516
4170.000000;0.491253
4169.000000;0.495959
4168.000000;0.500611
4167.000000;0.505330
4166.000000;0.510216
4165.000000;0.515136
4164.000000;0.519835
4163.000000;0.524285
4162.000000;0.528747
4161.000000;0.533394
4160.000000;0.538097
4159.000000;0.542688
4158.000000;0.547293
4157.000000;0.552179
4156.000000;0.557396
4155.000000;0.562761
4154.000000;0.568114
4153.000000;0.573398
4152.000000;0.578549
4151.000000;0.583527
4150.000000;0.588437
4149.000000;0.593459
4148.000000;0.598601
4147.000000;0.603647
4146.000000;0.608374
4145.000000;0.612806
4144.000000;0.617255
4143.000000;0.622114
4142.000000;0.627500
4141.000000;0.633054
4140.000000;0.638238
4139.000000;0.642939
4138.000000;0.647603
4137.000000;0.652656
4136.000000;0.657987
4135.000000;0.663161
4134.000000;0.667985
4133.000000;0.672620
4132.000000;0.677235
4131.000000;0.681821
4130.000000;0.686347
4129.000000;0.690873
4128.000000;0.695467
4127.000000;0.700153
4126.000000;0.704925
4125.000000;0.709709
4124.000000;0.714342
4123.000000;0.718713
4122.000000;0.722882
4121.000000;0.726966
4120.000000;0.730947
4119.000000;0.734729
4118.000000;0.738344
4117.000000;0.742009
4116.000000;0.745986
4115.000000;0.750411
4114.000000;0.755158
4113.000000;0.759838
4112.000000;0.764098
4111.000000;0.768003
4110.000000;0.771938
4109.000000;0.776037
4108.000000;0.779917
4107.000000;0.783132
4106.000000;0.785673
4105.000000;0.787846
4104.000000;0.789903
4103.000000;0.792083
4102.000000;0.794781
4101.000000;0.798244
4100.000000;0.802115
4099.000000;0.805629
4098.000000;0.808304
4097.000000;0.810226
4096.000000;0.811680
4095.000000;0.812855
4094.000000;0.814007
4093.000000;0.815545
4092.000000;0.817679
4091.000000;0.820077
4090.000000;0.822054
4089.000000;0.823132
4088.000000;0.823417
4087.000000;0.823513
4086.000000;0.824043
4085.000000;0.825107
4084.000000;0.826128
4083.000000;0.826369
4082.000000;0.825756
4081.000000;0.825087
4080.000000;0.825262
4079.000000;0.826319
4078.000000;0.827400
4077.000000;0.827717
4076.000000;0.827335
4075.000000;0.826890
4074.000000;0.826742
4073.000000;0.826623
4072.000000;0.826050
4071.000000;0.824879
4070.000000;0.823370
4069.000000;0.821806
4068.000000;0.820184
4067.000000;0.818288
4066.000000;0.815996
4065.000000;0.813462
4064.000000;0.811040
4063.000000;0.809072
4062.000000;0.807730
4061.000000;0.806892
4060.000000;0.806046
4059.000000;0.804484
4058.000000;0.801864
4057.000000;0.798615
4056.000000;0.795594
4055.000000;0.793267
4054.000000;0.791390
4053.000000;0.789459
4052.000000;0.787207
4051.000000;0.784556
4050.000000;0.781381
4049.000000;0.777618
4048.000000;0.773480
4047.000000;0.769375
4046.000000;0.765686
4045.000000;0.762722
4044.000000;0.760664
4043.000000;0.759268
4042.000000;0.757710
4041.000000;0.755040
4040.000000;0.750978
4039.000000;0.746202
4038.000000;0.741787
4037.000000;0.738336
4036.000000;0.735599
4035.000000;0.732818
4034.000000;0.729466
4033.000000;0.725640
4032.000000;0.721751
4031.000000;0.718016
4030.000000;0.714427
4029.000000;0.711056
4028.000000;0.708022
4027.000000;0.705139
4026.000000;0.701932
4025.000000;0.698124
4024.000000;0.693828
4023.000000;0.689214
4022.000000;0.684365
4021.000000;0.679619
4020.000000;0.675598
4019.000000;0.672540
4018.000000;0.669851
4017.000000;0.666698
4016.000000;0.662938
4015.000000;0.659156
4014.000000;0.655857
4013.000000;0.652936
4012.000000;0.649879
4011.000000;0.646294
4010.000000;0.642228
4009.000000;0.638137
4008.000000;0.634509
4007.000000;0.631378
4006.000000;0.628299
4005.000000;0.624846
4004.000000;0.621026
4003.000000;0.617114
4002.000000;0.613290
4001.000000;0.609622
4000.000000;0.606206
3999.000000;0.603039
3998.000000;0.599831
3997.000000;0.596183
3996.000000;0.591978
3995.000000;0.587491
3994.000000;0.583151
3993.000000;0.579283
3992.000000;0.575954
3991.000000;0.572977
3990.000000;0.570107
3989.000000;0.567262
3988.000000;0.564439
3987.000000;0.561431
3986.000000;0.557919
3985.000000;0.553944
3984.000000;0.550020
3983.000000;0.546598
3982.000000;0.543605
3981.000000;0.540653
3980.000000;0.537482
3979.000000;0.534010
3978.000000;0.530201
3977.000000;0.526175
3976.000000;0.522300
3975.000000;0.518919
3974.000000;0.515998
3973.000000;0.513193
3972.000000;0.510178
3971.000000;0.506815
3970.000000;0.503170
3969.000000;0.499534
3968.000000;0.496267
3967.000000;0.493446
3966.000000;0.490752
3965.000000;0.487838
3964.000000;0.484677
3963.000000;0.481438
3962.000000;0.478234
3961.000000;0.475148
3960.000000;0.472282
3959.000000;0.469587
3958.000000;0.466831
3957.000000;0.463944
3956.000000;0.461177
3955.000000;0.458648
3954.000000;0.455942
3953.000000;0.452489
3952.000000;0.448256
3951.000000;0.443763
3950.000000;0.439509
3949.000000;0.435705
3948.000000;0.432433
3947.000000;0.429655
3946.000000;0.426995
3945.000000;0.423887
3944.000000;0.420153
3943.000000;0.416273
3942.000000;0.412912
3941.000000;0.410248
3940.000000;0.407844
3939.000000;0.405088
3938.000000;0.401739
3937.000000;0.398008
3936.000000;0.394161
3935.000000;0.390171
3934.000000;0.385927
3933.000000;0.381687
3932.000000;0.378048
3931.000000;0.375324
3930.000000;0.373123
3929.000000;0.370659
3928.000000;0.367414
3927.000000;0.363476
3926.000000;0.359425
3925.000000;0.355897
3924.000000;0.353056
3923.000000;0.350353
3922.000000;0.347024
3921.000000;0.342933
3920.000000;0.338708
3919.000000;0.334943
3918.000000;0.331567
3917.000000;0.328221
3916.000000;0.324953
3915.000000;0.322148
3914.000000;0.319912
3913.000000;0.317870
3912.000000;0.315554
3911.000000;0.312764
3910.000000;0.309578
3909.000000;0.306190
3908.000000;0.302696
3907.000000;0.298939
3906.000000;0.294729
3905.000000;0.290324
3904.000000;0.286406
3903.000000;0.283342
3902.000000;0.280742
3901.000000;0.278043
3900.000000;0.275285
3899.000000;0.272913
3898.000000;0.270941
3897.000000;0.268799
3896.000000;0.266042
3895.000000;0.262784
3894.000000;0.259378
3893.000000;0.256083
3892.000000;0.253172
3891.000000;0.250934
3890.000000;0.249276
3889.000000;0.247586
3888.000000;0.245299
3887.000000;0.242511
3886.000000;0.239825
3885.000000;0.237622
3884.000000;0.235698
3883.000000;0.233606
3882.000000;0.231126
3881.000000;0.228440
3880.000000;0.225951
3879.000000;0.223878
3878.000000;0.222023
3877.000000;0.219976
3876.000000;0.217559
3875.000000;0.214997
3874.000000;0.212605
3873.000000;0.210431
3872.000000;0.208281
3871.000000;0.205949
3870.000000;0.203395
3869.000000;0.200828
3868.000000;0.198549
3867.000000;0.196593
3866.000000;0.194626
3865.000000;0.192343
3864.000000;0.189845
3863.000000;0.187462
3862.000000;0.185354
3861.000000;0.183454
3860.000000;0.181676
3859.000000;0.179999
3858.000000;0.178295
3857.000000;0.176234
3856.000000;0.173514
3855.000000;0.170197
3854.000000;0.166744
3853.000000;0.163716
3852.000000;0.161435
3851.000000;0.159882
3850.000000;0.158741
3849.000000;0.157551
3848.000000;0.156105
3847.000000;0.154409
3846.000000;0.152416
3845.000000;0.150190
3844.000000;0.147950
3843.000000;0.145813
3842.000000;0.143679
3841.000000;0.141446
3840.000000;0.139210
3839.000000;0.137115
3838.000000;0.135147
3837.000000;0.133165
3836.000000;0.131059
3835.000000;0.128811
3834.000000;0.126476
3833.000000;0.124164
3832.000000;0.121963
3831.000000;0.119844
3830.000000;0.117748
3829.000000;0.115707
3828.000000;0.113758
3827.000000;0.111779
3826.000000;0.109586
3825.000000;0.107241
3824.000000;0.105052
3823.000000;0.103147
3822.000000;0.101296
3821.000000;0.099293
3820.000000;0.097251
3819.000000;0.095335
3818.000000;0.093390
3817.000000;0.091109
3816.000000;0.088574
3815.000000;0.086167
3814.000000;0.083956
3813.000000;0.081706
3812.000000;0.079391
3811.000000;0.077268
3810.000000;0.075413
3809.000000;0.073478
3808.000000;0.071111
3807.000000;0.068409
3806.000000;0.065774
3805.000000;0.063511
3804.000000;0.061579
3803.000000;0.059662
3802.000000;0.057488
3801.000000;0.055100
3800.000000;0.052738
3799.000000;0.050482
3798.000000;0.048138
3797.000000;0.045619
3796.000000;0.043293
3795.000000;0.041494
3794.000000;0.039946
3793.000000;0.038072
3792.000000;0.035695
3791.000000;0.033141
3790.000000;0.030716
3789.000000;0.028361
3788.000000;0.025892
3787.000000;0.023275
3786.000000;0.020604
3785.000000;0.017986
3784.000000;0.015517
3783.000000;0.013193
3782.000000;0.010853
3781.000000;0.008373
3780.000000;0.005901
3779.000000;0.003683
3778.000000;0.001685
3777.000000;-0.000368
3776.000000;-0.002566
3775.000000;-0.004697
3774.000000;-0.006614
3773.000000;-0.008514
3772.000000;-0.010718
3771.000000;-0.013310
3770.000000;-0.016141
3769.000000;-0.019041
3768.000000;-0.021864
3767.000000;-0.024505
3766.000000;-0.027020
3765.000000;-0.029624
3764.000000;-0.032458
3763.000000;-0.035389
3762.000000;-0.038129
3761.000000;-0.040522
3760.000000;-0.042684
3759.000000;-0.044868
3758.000000;-0.047231
3757.000000;-0.049721
3756.000000;-0.052199
3755.000000;-0.054637
3754.000000;-0.057155
3753.000000;-0.059836
3752.000000;-0.062607
3751.000000;-0.065345
3750.000000;-0.068076
3749.000000;-0.070941
3748.000000;-0.073987
3747.000000;-0.077081
3746.000000;-0.079996
3745.000000;-0.082595
3744.000000;-0.084993
3743.000000;-0.087428
3742.000000;-0.089997
3741.000000;-0.092568
3740.000000;-0.094896
3739.000000;-0.096919
3738.000000;-0.098988
3737.000000;-0.101515
3736.000000;-0.104437
3735.000000;-0.107329
3734.000000;-0.109960
3733.000000;-0.112548
3732.000000;-0.115426
3731.000000;-0.118599
3730.000000;-0.121739
3729.000000;-0.124619
3728.000000;-0.127336
3727.000000;-0.130076
3726.000000;-0.132879
3725.000000;-0.135674
3724.000000;-0.138399
3723.000000;-0.141038
3722.000000;-0.143603
3721.000000;-0.146145
3720.000000;-0.148768
3719.000000;-0.151565
3718.000000;-0.154518
3717.000000;-0.157528
3716.000000;-0.160522
3715.000000;-0.163517
3714.000000;-0.166584
3713.000000;-0.169788
3712.000000;-0.173154
3711.000000;-0.176625
3710.000000;-0.180042
3709.000000;-0.183221
3708.000000;-0.186135
3707.000000;-0.188945
3706.000000;-0.191836
3705.000000;-0.194904
3704.000000;-0.198149
3703.000000;-0.201398
3702.000000;-0.204374
3701.000000;-0.207008
3700.000000;-0.209661
3699.000000;-0.212834
3698.000000;-0.216609
3697.000000;-0.220511
3696.000000;-0.224052
3695.000000;-0.227227
3694.000000;-0.230314
3693.000000;-0.233394
3692.000000;-0.236354
3691.000000;-0.239239
3690.000000;-0.242248
3689.000000;-0.245380
3688.000000;-0.248393
3687.000000;-0.251207
3686.000000;-0.254125
3685.000000;-0.257471
3684.000000;-0.261177
3683.000000;-0.264929
3682.000000;-0.268489
3681.000000;-0.271731
3680.000000;-0.274676
3679.000000;-0.277516
3678.000000;-0.280410
3677.000000;-0.283285
3676.000000;-0.286068
3675.000000;-0.289058
3674.000000;-0.292704
3673.000000;-0.296953
3672.000000;-0.301207
3671.000000;-0.304947
3670.000000;-0.308175
3669.000000;-0.311334
3668.000000;-0.314736
3667.000000;-0.318258
3666.000000;-0.321734
3665.000000;-0.325199
3664.000000;-0.328721
3663.000000;-0.332349
3662.000000;-0.336054
3661.000000;-0.339682
3660.000000;-0.343071
3659.000000;-0.346246
3658.000000;-0.349455
3657.000000;-0.352934
3656.000000;-0.356682
3655.000000;-0.360512
3654.000000;-0.364218
3653.000000;-0.367686
3652.000000;-0.370933
3651.000000;-0.374121
3650.000000;-0.377471
3649.000000;-0.381028
3648.000000;-0.384558
3647.000000;-0.387856
3646.000000;-0.391083
3645.000000;-0.394525
3644.000000;-0.398093
3643.000000;-0.401403
3642.000000;-0.404296
3641.000000;-0.407028
3640.000000;-0.410025
3639.000000;-0.413558
3638.000000;-0.417569
3637.000000;-0.421730
3636.000000;-0.425694
3635.000000;-0.429314
3634.000000;-0.432637
3633.000000;-0.435790
3632.000000;-0.438981
3631.000000;-0.442474
3630.000000;-0.446344
3629.000000;-0.450297
3628.000000;-0.453982
3627.000000;-0.457443
3626.000000;-0.461023
3625.000000;-0.464857
3624.000000;-0.468586
3623.000000;-0.471809
3622.000000;-0.474631
3621.000000;-0.477364
3620.000000;-0.480133
3619.000000;-0.483062
3618.000000;-0.486402
3617.000000;-0.490183
3616.000000;-0.494032
3615.000000;-0.497584
3614.000000;-0.500811
3613.000000;-0.503800
3612.000000;-0.506479
3611.000000;-0.508843
3610.000000;-0.511229
3609.000000;-0.513954
3608.000000;-0.516797
3607.000000;-0.519289
3606.000000;-0.521454
3605.000000;-0.523840
3604.000000;-0.526823
3603.000000;-0.530180
3602.000000;-0.533432
3601.000000;-0.536322
3600.000000;-0.538854
3599.000000;-0.541142
3598.000000;-0.543334
3597.000000;-0.545498
3596.000000;-0.547501
3595.000000;-0.549176
3594.000000;-0.550664
3593.000000;-0.552351
3592.000000;-0.554376
3591.000000;-0.556420
3590.000000;-0.558073
3589.000000;-0.559305
3588.000000;-0.560485
3587.000000;-0.562008
3586.000000;-0.563963
3585.000000;-0.566117
3584.000000;-0.568151
3583.000000;-0.569851
3582.000000;-0.571158
3581.000000;-0.572166
3580.000000;-0.573046
3579.000000;-0.573923
3578.000000;-0.574851
3577.000000;-0.575825
3576.000000;-0.576785
3575.000000;-0.577667
3574.000000;-0.578453
3573.000000;-0.579152
3572.000000;-0.579741
3571.000000;-0.580179
3570.000000;-0.580475
3569.000000;-0.580692
3568.000000;-0.580854
3567.000000;-0.580860
3566.000000;-0.580463
3565.000000;-0.579477
3564.000000;-0.578118
3563.000000;-0.577033
3562.000000;-0.576752
3561.000000;-0.577135
3560.000000;-0.577514
3559.000000;-0.577358
3558.000000;-0.576743
3557.000000;-0.576132
3556.000000;-0.575824
3555.000000;-0.575692
3554.000000;-0.575351
3553.000000;-0.574455
3552.000000;-0.572910
3551.000000;-0.570963
3550.000000;-0.569084
3549.000000;-0.567656
3548.000000;-0.566717
3547.000000;-0.565969
3546.000000;-0.564980
3545.000000;-0.563406
3544.000000;-0.561216
3543.000000;-0.558820
3542.000000;-0.556801
3541.000000;-0.555377
3540.000000;-0.554201
3539.000000;-0.552813
3538.000000;-0.551191
3537.000000;-0.549689
3536.000000;-0.548505
3535.000000;-0.547368
3534.000000;-0.545789
3533.000000;-0.543546
3532.000000;-0.540907
3531.000000;-0.538397
3530.000000;-0.536312
3529.000000;-0.534463
3528.000000;-0.532449
3527.000000;-0.530133
3526.000000;-0.527720
3525.000000;-0.525422
3524.000000;-0.523238
3523.000000;-0.521094
3522.000000;-0.518987
3521.000000;-0.516906
3520.000000;-0.514828
3519.000000;-0.512851
3518.000000;-0.511104
3517.000000;-0.509400
3516.000000;-0.507268
3515.000000;-0.504543
3514.000000;-0.501693
3513.000000;-0.499288
3512.000000;-0.497328
3511.000000;-0.495358
3510.000000;-0.493102
3509.000000;-0.490671
3508.000000;-0.488224
3507.000000;-0.485762
3506.000000;-0.483279
3505.000000;-0.480869
3504.000000;-0.478608
3503.000000;-0.476493
3502.000000;-0.474483
3501.000000;-0.472468
3500.000000;-0.470225
3499.000000;-0.467580
3498.000000;-0.464674
3497.000000;-0.461907
3496.000000;-0.459567
3495.000000;-0.457564
3494.000000;-0.455555
3493.000000;-0.453258
3492.000000;-0.450680
3491.000000;-0.448111
3490.000000;-0.445832
3489.000000;-0.443777
3488.000000;-0.441579
3487.000000;-0.439026
3486.000000;-0.436325
3485.000000;-0.433792
3484.000000;-0.431420
3483.000000;-0.428992
3482.000000;-0.426549
3481.000000;-0.424463
3480.000000;-0.422963
3479.000000;-0.421746
3478.000000;-0.420164
3477.000000;-0.417776
3476.000000;-0.414730
3475.000000;-0.411646
3474.000000;-0.409081
3473.000000;-0.407025
3472.000000;-0.404978
3471.000000;-0.402579
3470.000000;-0.400011
3469.000000;-0.397708
3468.000000;-0.395771
3467.000000;-0.393895
3466.000000;-0.391798
3465.000000;-0.389585
3464.000000;-0.387627
3463.000000;-0.386161
3462.000000;-0.385012
3461.000000;-0.383689
3460.000000;-0.381808
3459.000000;-0.379436
3458.000000;-0.376944
3457.000000;-0.374546
3456.000000;-0.372172
3455.000000;-0.369788
3454.000000;-0.367573
3453.000000;-0.365660
3452.000000;-0.363935
3451.000000;-0.362270
3450.000000;-0.360699
3449.000000;-0.359174
3448.000000;-0.357412
3447.000000;-0.355263
3446.000000;-0.353018
3445.000000;-0.351020
3444.000000;-0.349143
3443.000000;-0.346971
3442.000000;-0.344411
3441.000000;-0.341800
3440.000000;-0.339468
3439.000000;-0.337492
3438.000000;-0.335824
3437.000000;-0.334309
3436.000000;-0.332610
3435.000000;-0.330510
3434.000000;-0.328335
3433.000000;-0.326725
3432.000000;-0.325897
3431.000000;-0.325432
3430.000000;-0.324837
3429.000000;-0.323951
3428.000000;-0.322698
3427.000000;-0.320850
3426.000000;-0.318344
3425.000000;-0.315620
3424.000000;-0.313298
3423.000000;-0.311574
3422.000000;-0.310126
3421.000000;-0.308566
3420.000000;-0.306797
3419.000000;-0.304949
3418.000000;-0.303120
3417.000000;-0.301263
3416.000000;-0.299310
3415.000000;-0.297381
3414.000000;-0.295765
3413.000000;-0.294585
3412.000000;-0.293525
3411.000000;-0.292080
3410.000000;-0.290143
3409.000000;-0.288203
3408.000000;-0.286847
3407.000000;-0.286161
3406.000000;-0.285653
3405.000000;-0.284690
3404.000000;-0.282956
3403.000000;-0.280642
3402.000000;-0.278303
3401.000000;-0.276481
3400.000000;-0.275307
3399.000000;-0.274414
3398.000000;-0.273291
3397.000000;-0.271741
3396.000000;-0.269994
3395.000000;-0.268405
3394.000000;-0.267046
3393.000000;-0.265630
3392.000000;-0.263883
3391.000000;-0.261937
3390.000000;-0.260239
3389.000000;-0.259033
3388.000000;-0.258058
3387.000000;-0.256833
3386.000000;-0.255143
3385.000000;-0.253150
3384.000000;-0.251129
3383.000000;-0.249268
3382.000000;-0.247669
3381.000000;-0.246370
3380.000000;-0.245345
3379.000000;-0.244541
3378.000000;-0.243881
3377.000000;-0.243186
3376.000000;-0.242170
3375.000000;-0.240672
3374.000000;-0.238878
3373.000000;-0.237184
3372.000000;-0.235847
3371.000000;-0.234850
3370.000000;-0.234063
3369.000000;-0.233401
3368.000000;-0.232781
3367.000000;-0.232013
3366.000000;-0.230814
3365.000000;-0.228993
3364.000000;-0.226719
3363.000000;-0.224578
3362.000000;-0.223149
3361.000000;-0.222400
3360.000000;-0.221695
3359.000000;-0.220561
3358.000000;-0.219260
3357.000000;-0.218359
3356.000000;-0.217909
3355.000000;-0.217385
3354.000000;-0.216404
3353.000000;-0.215140
3352.000000;-0.213934
3351.000000;-0.212779
3350.000000;-0.211414
3349.000000;-0.209792
3348.000000;-0.208214
3347.000000;-0.206956
3346.000000;-0.205937
3345.000000;-0.204858
3344.000000;-0.203626
3343.000000;-0.202490
3342.000000;-0.201656
3341.000000;-0.200892
3340.000000;-0.199725
3339.000000;-0.198067
3338.000000;-0.196410
3337.000000;-0.195302
3336.000000;-0.194819
3335.000000;-0.194667
3334.000000;-0.194569
3333.000000;-0.194336
3332.000000;-0.193776
3331.000000;-0.192820
3330.000000;-0.191657
3329.000000;-0.190499
3328.000000;-0.189283
3327.000000;-0.187866
3326.000000;-0.186404
3325.000000;-0.185232
3324.000000;-0.184371
3323.000000;-0.183493
3322.000000;-0.182405
3321.000000;-0.181285
3320.000000;-0.180321
3319.000000;-0.179408
3318.000000;-0.178394
3317.000000;-0.177423
3316.000000;-0.176790
3315.000000;-0.176517
3314.000000;-0.176245
3313.000000;-0.175582
3312.000000;-0.174478
3311.000000;-0.173210
3310.000000;-0.172046
3309.000000;-0.170998
3308.000000;-0.169964
3307.000000;-0.169006
3306.000000;-0.168304
3305.000000;-0.167800
3304.000000;-0.167142
3303.000000;-0.166106
3302.000000;-0.164887
3301.000000;-0.163751
3300.000000;-0.162613
3299.000000;-0.161240
3298.000000;-0.159764
3297.000000;-0.158625
3296.000000;-0.158015
3295.000000;-0.157683
3294.000000;-0.157305
3293.000000;-0.156777
3292.000000;-0.156093
3291.000000;-0.155251
3290.000000;-0.154400
3289.000000;-0.153809
3288.000000;-0.153529
3287.000000;-0.153260
3286.000000;-0.152724
3285.000000;-0.151983
3284.000000;-0.151237
3283.000000;-0.150449
3282.000000;-0.149419
3281.000000;-0.148137
3280.000000;-0.146849
3279.000000;-0.145746
3278.000000;-0.144765
3277.000000;-0.143783
3276.000000;-0.142920
3275.000000;-0.142465
3274.000000;-0.142479
3273.000000;-0.142563
3272.000000;-0.142172
3271.000000;-0.141158
3270.000000;-0.139882
3269.000000;-0.138753
3268.000000;-0.137819
3267.000000;-0.136904
3266.000000;-0.135968
3265.000000;-0.135131
3264.000000;-0.134416
3263.000000;-0.133694
3262.000000;-0.132883
3261.000000;-0.132062
3260.000000;-0.131364
3259.000000;-0.130865
3258.000000;-0.130570
3257.000000;-0.130391
3256.000000;-0.130167
3255.000000;-0.129787
3254.000000;-0.129264
3253.000000;-0.128600
3252.000000;-0.127671
3251.000000;-0.126401
3250.000000;-0.124991
3249.000000;-0.123819
3248.000000;-0.123103
3247.000000;-0.122796
3246.000000;-0.122724
3245.000000;-0.122652
3244.000000;-0.122277
3243.000000;-0.121391
3242.000000;-0.120135
3241.000000;-0.118948
3240.000000;-0.118211
3239.000000;-0.118003
3238.000000;-0.118127
3237.000000;-0.118243
3236.000000;-0.118020
3235.000000;-0.117375
3234.000000;-0.116564
3233.000000;-0.115909
3232.000000;-0.115420
3231.000000;-0.114855
3230.000000;-0.114100
3229.000000;-0.113289
3228.000000;-0.112555
3227.000000;-0.111870
3226.000000;-0.111184
3225.000000;-0.110554
3224.000000;-0.110030
3223.000000;-0.109545
3222.000000;-0.108959
3221.000000;-0.108196
3220.000000;-0.107312
3219.000000;-0.106505
3218.000000;-0.105993
3217.000000;-0.105792
3216.000000;-0.105654
3215.000000;-0.105323
3214.000000;-0.104771
3213.000000;-0.104083
3212.000000;-0.103238
3211.000000;-0.102212
3210.000000;-0.101186
3209.000000;-0.100400
3208.000000;-0.099849
3207.000000;-0.099371
3206.000000;-0.098976
3205.000000;-0.098794
3204.000000;-0.098696
3203.000000;-0.098309
3202.000000;-0.097473
3201.000000;-0.096444
3200.000000;-0.095563
3199.000000;-0.094978
3198.000000;-0.094728
3197.000000;-0.094820
3196.000000;-0.095049
3195.000000;-0.095010
3194.000000;-0.094468
3193.000000;-0.093566
3192.000000;-0.092564
3191.000000;-0.091562
3190.000000;-0.090614
3189.000000;-0.089872
3188.000000;-0.089396
3187.000000;-0.088995
3186.000000;-0.088463
3185.000000;-0.087902
3184.000000;-0.087594
3183.000000;-0.087590
3182.000000;-0.087584
3181.000000;-0.087197
3180.000000;-0.086307
3179.000000;-0.085126
3178.000000;-0.084045
3177.000000;-0.083347
3176.000000;-0.083034
3175.000000;-0.082934
3174.000000;-0.082943
3173.000000;-0.083036
3172.000000;-0.083076
3171.000000;-0.082808
3170.000000;-0.082145
3169.000000;-0.081309
3168.000000;-0.080597
3167.000000;-0.080086
3166.000000;-0.079635
3165.000000;-0.079049
3164.000000;-0.078186
3163.000000;-0.077077
3162.000000;-0.076024
3161.000000;-0.075439
3160.000000;-0.075446
3159.000000;-0.075719
3158.000000;-0.075797
3157.000000;-0.075491
3156.000000;-0.074927
3155.000000;-0.074343
3154.000000;-0.073941
3153.000000;-0.073801
3152.000000;-0.073752
3151.000000;-0.073421
3150.000000;-0.072562
3149.000000;-0.071331
3148.000000;-0.070156
3147.000000;-0.069349
3146.000000;-0.068936
3145.000000;-0.068773
3144.000000;-0.068707
3143.000000;-0.068636
3142.000000;-0.068514
3141.000000;-0.068335
3140.000000;-0.068078
3139.000000;-0.067681
3138.000000;-0.067112
3137.000000;-0.066414
3136.000000;-0.065658
3135.000000;-0.064892
3134.000000;-0.064145
3133.000000;-0.063442
3132.000000;-0.062809
3131.000000;-0.062326
3130.000000;-0.062161
3129.000000;-0.062416
3128.000000;-0.062894
3127.000000;-0.063133
3126.000000;-0.062731
3125.000000;-0.061625
3124.000000;-0.060117
3123.000000;-0.058735
3122.000000;-0.058011
3121.000000;-0.058121
3120.000000;-0.058651
3119.000000;-0.058878
3118.000000;-0.058427
3117.000000;-0.057542
3116.000000;-0.056698
3115.000000;-0.056124
3114.000000;-0.055833
3113.000000;-0.055853
3112.000000;-0.056145
3111.000000;-0.056412
3110.000000;-0.056291
3109.000000;-0.055762
3108.000000;-0.055157
3107.000000;-0.054719
3106.000000;-0.054335
3105.000000;-0.053767
3104.000000;-0.053004
3103.000000;-0.052273
3102.000000;-0.051765
3101.000000;-0.051457
3100.000000;-0.051191
3099.000000;-0.050833
3098.000000;-0.050355
3097.000000;-0.049790
3096.000000;-0.049189
3095.000000;-0.048617
3094.000000;-0.048148
3093.000000;-0.047794
3092.000000;-0.047469
3091.000000;-0.047082
3090.000000;-0.046642
3089.000000;-0.046221
3088.000000;-0.045850
3087.000000;-0.045523
3086.000000;-0.045268
3085.000000;-0.045078
3084.000000;-0.044804
3083.000000;-0.044286
3082.000000;-0.043616
3081.000000;-0.043123
3080.000000;-0.043001
3079.000000;-0.043069
3078.000000;-0.042968
3077.000000;-0.042509
3076.000000;-0.041779
3075.000000;-0.041016
3074.000000;-0.040436
3073.000000;-0.040055
3072.000000;-0.039655
3071.000000;-0.038999
3070.000000;-0.038138
3069.000000;-0.037336
3068.000000;-0.036686
3067.000000;-0.036004
3066.000000;-0.035220
3065.000000;-0.034623
3064.000000;-0.034547
3063.000000;-0.034948
3062.000000;-0.035504
3061.000000;-0.035963
3060.000000;-0.036185
3059.000000;-0.035974
3058.000000;-0.035188
3057.000000;-0.034001
3056.000000;-0.032833
3055.000000;-0.031983
3054.000000;-0.031473
3053.000000;-0.031199
3052.000000;-0.031003
3051.000000;-0.030654
3050.000000;-0.030019
3049.000000;-0.029351
3048.000000;-0.029150
3047.000000;-0.029599
3046.000000;-0.030276
3045.000000;-0.030514
3044.000000;-0.029947
3043.000000;-0.028678
3042.000000;-0.027108
3041.000000;-0.025746
3040.000000;-0.025038
3039.000000;-0.025135
3038.000000;-0.025789
3037.000000;-0.026510
3036.000000;-0.026883
3035.000000;-0.026766
3034.000000;-0.026257
3033.000000;-0.025543
3032.000000;-0.024754
3031.000000;-0.023944
3030.000000;-0.023210
3029.000000;-0.022732
3028.000000;-0.022614
3027.000000;-0.022715
3026.000000;-0.022738
3025.000000;-0.022491
3024.000000;-0.021972
3023.000000;-0.021270
3022.000000;-0.020517
3021.000000;-0.019904
3020.000000;-0.019533
3019.000000;-0.019233
3018.000000;-0.018713
3017.000000;-0.017977
3016.000000;-0.017383
3015.000000;-0.017184
3014.000000;-0.017192
3013.000000;-0.017027
3012.000000;-0.016557
3011.000000;-0.015916
3010.000000;-0.015254
3009.000000;-0.014652
3008.000000;-0.014201
3007.000000;-0.013908
3006.000000;-0.013588
3005.000000;-0.013041
3004.000000;-0.012342
3003.000000;-0.011742
3002.000000;-0.011309
3001.000000;-0.010868
3000.000000;-0.010330
2999.000000;-0.009870
2998.000000;-0.009695
2997.000000;-0.009791
2996.000000;-0.009969
2995.000000;-0.010017
2994.000000;-0.009733
2993.000000;-0.008980
2992.000000;-0.007894
2991.000000;-0.006923
2990.000000;-0.006487
2989.000000;-0.006572
2988.000000;-0.006778
2987.000000;-0.006718
2986.000000;-0.006295
2985.000000;-0.005648
2984.000000;-0.004971
2983.000000;-0.004422
2982.000000;-0.004077
2981.000000;-0.003871
2980.000000;-0.003607
2979.000000;-0.003103
2978.000000;-0.002363
2977.000000;-0.001590
2976.000000;-0.000999
2975.000000;-0.000616
2974.000000;-0.000297
2973.000000;0.000065
2972.000000;0.000441
2971.000000;0.000799
2970.000000;0.001207
2969.000000;0.001697
2968.000000;0.002112
2967.000000;0.002280
2966.000000;0.002296
2965.000000;0.002440
2964.000000;0.002817
2963.000000;0.003271
2962.000000;0.003722
2961.000000;0.004328
2960.000000;0.005175
2959.000000;0.006013
2958.000000;0.006542
2957.000000;0.006841
2956.000000;0.007272
2955.000000;0.007971
2954.000000;0.008655
2953.000000;0.008973
2952.000000;0.008874
2951.000000;0.008586
2950.000000;0.008352
2949.000000;0.008257
2948.000000;0.008247
2947.000000;0.008266
2946.000000;0.008383
2945.000000;0.008760
2944.000000;0.009494
2943.000000;0.010517
2942.000000;0.011659
2941.000000;0.012706
2940.000000;0.013379
2939.000000;0.013462
2938.000000;0.013119
2937.000000;0.012949
2936.000000;0.013467
2935.000000;0.014559
2934.000000;0.015633
2933.000000;0.016280
2932.000000;0.016596
2931.000000;0.016871
2930.000000;0.017211
2929.000000;0.017540
2928.000000;0.017790
2927.000000;0.017982
2926.000000;0.018182
2925.000000;0.018450
2924.000000;0.018771
2923.000000;0.019050
2922.000000;0.019270
2921.000000;0.019588
2920.000000;0.020135
2919.000000;0.020784
2918.000000;0.021310
2917.000000;0.021760
2916.000000;0.022384
2915.000000;0.023203
2914.000000;0.023905
2913.000000;0.024298
2912.000000;0.024601
2911.000000;0.025132
2910.000000;0.025905
2909.000000;0.026677
2908.000000;0.027210
2907.000000;0.027368
2906.000000;0.027171
2905.000000;0.026917
2904.000000;0.027030
2903.000000;0.027577
2902.000000;0.028122
2901.000000;0.028319
2900.000000;0.028435
2899.000000;0.029010
2898.000000;0.030114
2897.000000;0.031289
2896.000000;0.032160
2895.000000;0.032747
2894.000000;0.033188
2893.000000;0.033501
2892.000000;0.033727
2891.000000;0.034026
2890.000000;0.034485
2889.000000;0.035031
2888.000000;0.035609
2887.000000;0.036256
2886.000000;0.036887
2885.000000;0.037267
2884.000000;0.037357
2883.000000;0.037491
2882.000000;0.038014
2881.000000;0.038859
2880.000000;0.039686
2879.000000;0.040313
2878.000000;0.040791
2877.000000;0.041151
2876.000000;0.041345
2875.000000;0.041464
2874.000000;0.041743
2873.000000;0.042230
2872.000000;0.042655
2871.000000;0.042766
2870.000000;0.042665
2869.000000;0.042644
2868.000000;0.042820
2867.000000;0.043136
2866.000000;0.043638
2865.000000;0.044480
2864.000000;0.045593
2863.000000;0.046631
2862.000000;0.047403
2861.000000;0.048170
2860.000000;0.049242
2859.000000;0.050421
2858.000000;0.051138
2857.000000;0.051128
2856.000000;0.050707
2855.000000;0.050325
2854.000000;0.050142
2853.000000;0.050158
2852.000000;0.050497
2851.000000;0.051265
2850.000000;0.052274
2849.000000;0.053162
2848.000000;0.053778
2847.000000;0.054263
2846.000000;0.054771
2845.000000;0.055301
2844.000000;0.055822
2843.000000;0.056356
2842.000000;0.056884
2841.000000;0.057303
2840.000000;0.057543
2839.000000;0.057655
2838.000000;0.057751
2837.000000;0.057954
2836.000000;0.058388
2835.000000;0.059088
2834.000000;0.059874
2833.000000;0.060425
2832.000000;0.060583
2831.000000;0.060516
2830.000000;0.060514
2829.000000;0.060704
2828.000000;0.061003
2827.000000;0.061310
2826.000000;0.061649
2825.000000;0.062152
2824.000000;0.062939
2823.000000;0.063981
2822.000000;0.065062
2821.000000;0.065914
2820.000000;0.066451
2819.000000;0.066821
2818.000000;0.067190
2817.000000;0.067543
2816.000000;0.067749
2815.000000;0.067778
2814.000000;0.067745
2813.000000;0.067763
2812.000000;0.067856
2811.000000;0.068065
2810.000000;0.068542
2809.000000;0.069426
2808.000000;0.070656
2807.000000;0.071987
2806.000000;0.073191
2805.000000;0.074198
2804.000000;0.074998
2803.000000;0.075507
2802.000000;0.075625
2801.000000;0.075447
2800.000000;0.075296
2799.000000;0.075468
2798.000000;0.075963
2797.000000;0.076526
2796.000000;0.076961
2795.000000;0.077331
2794.000000;0.077815
2793.000000;0.078442
2792.000000;0.079059
2791.000000;0.079529
2790.000000;0.079896
2789.000000;0.080298
2788.000000;0.080785
2787.000000;0.081283
2786.000000;0.081686
2785.000000;0.081941
2784.000000;0.082046
2783.000000;0.082061
2782.000000;0.082132
2781.000000;0.082429
2780.000000;0.083026
2779.000000;0.083872
2778.000000;0.084892
2777.000000;0.086017
2776.000000;0.087102
2775.000000;0.087928
2774.000000;0.088380
2773.000000;0.088548
2772.000000;0.088604
2771.000000;0.088633
2770.000000;0.088671
2769.000000;0.088791
2768.000000;0.089027
2767.000000;0.089299
2766.000000;0.089556
2765.000000;0.089941
2764.000000;0.090629
2763.000000;0.091528
2762.000000;0.092361
2761.000000;0.093026
2760.000000;0.093683
2759.000000;0.094434
2758.000000;0.095155
2757.000000;0.095728
2756.000000;0.096247
2755.000000;0.096840
2754.000000;0.097456
2753.000000;0.097981
2752.000000;0.098437
2751.000000;0.098883
2750.000000;0.099254
2749.000000;0.099501
2748.000000;0.099767
2747.000000;0.100209
2746.000000;0.100703
2745.000000;0.100972
2744.000000;0.100989
2743.000000;0.101039
2742.000000;0.101344
2741.000000;0.101833
2740.000000;0.102341
2739.000000;0.102863
2738.000000;0.103472
2737.000000;0.104130
2736.000000;0.104724
2735.000000;0.105250
2734.000000;0.105858
2733.000000;0.106683
2732.000000;0.107661
2731.000000;0.108521
2730.000000;0.108975
2729.000000;0.108974
2728.000000;0.108777
2727.000000;0.108716
2726.000000;0.108909
2725.000000;0.109274
2724.000000;0.109753
2723.000000;0.110397
2722.000000;0.111201
2721.000000;0.112015
2720.000000;0.112696
2719.000000;0.113273
2718.000000;0.113882
2717.000000;0.114581
2716.000000;0.115296
2715.000000;0.115903
2714.000000;0.116322
2713.000000;0.116571
2712.000000;0.116793
2711.000000;0.117158
2710.000000;0.117692
2709.000000;0.118258
2708.000000;0.118781
2707.000000;0.119380
2706.000000;0.120190
2705.000000;0.121124
2704.000000;0.121941
2703.000000;0.122501
2702.000000;0.122822
2701.000000;0.122914
2700.000000;0.122764
2699.000000;0.122548
2698.000000;0.122661
2697.000000;0.123379
2696.000000;0.124538
2695.000000;0.125665
2694.000000;0.126364
2693.000000;0.126566
2692.000000;0.126489
2691.000000;0.126484
2690.000000;0.126837
2689.000000;0.127537
2688.000000;0.128255
2687.000000;0.128660
2686.000000;0.128774
2685.000000;0.128905
2684.000000;0.129262
2683.000000;0.129819
2682.000000;0.130533
2681.000000;0.131463
2680.000000;0.132567
2679.000000;0.133578
2678.000000;0.134246
2677.000000;0.134610
2676.000000;0.134867
2675.000000;0.135087
2674.000000;0.135234
2673.000000;0.135390
2672.000000;0.135730
2671.000000;0.136229
2670.000000;0.136620
2669.000000;0.136744
2668.000000;0.136820
2667.000000;0.137246
2666.000000;0.138159
2665.000000;0.139291
2664.000000;0.140264
2663.000000;0.140949
2662.000000;0.141504
2661.000000;0.142083
2660.000000;0.142649
2659.000000;0.143127
2658.000000;0.143649
2657.000000;0.144399
2656.000000;0.145253
2655.000000;0.145821
2654.000000;0.145973
2653.000000;0.146106
2652.000000;0.146654
2651.000000;0.147509
2650.000000;0.148192
2649.000000;0.148506
2648.000000;0.148705
2647.000000;0.149029
2646.000000;0.149384
2645.000000;0.149568
2644.000000;0.149581
2643.000000;0.149604
2642.000000;0.149831
2641.000000;0.150390
2640.000000;0.151234
2639.000000;0.152072
2638.000000;0.152590
2637.000000;0.152832
2636.000000;0.153170
2635.000000;0.153796
2634.000000;0.154510
2633.000000;0.155107
2632.000000;0.155709
2631.000000;0.156460
2630.000000;0.157131
2629.000000;0.157366
2628.000000;0.157227
2627.000000;0.157163
2626.000000;0.157465
2625.000000;0.158041
2624.000000;0.158739
2623.000000;0.159567
2622.000000;0.160499
2621.000000;0.161321
2620.000000;0.161869
2619.000000;0.162266
2618.000000;0.162749
2617.000000;0.163337
2616.000000;0.163832
2615.000000;0.164129
2614.000000;0.164344
2613.000000;0.164609
2612.000000;0.164861
2611.000000;0.164945
2610.000000;0.164886
2609.000000;0.164941
2608.000000;0.165336
2607.000000;0.166020
2606.000000;0.166736
2605.000000;0.167331
2604.000000;0.167889
2603.000000;0.168574
2602.000000;0.169404
2601.000000;0.170242
2600.000000;0.170931
2599.000000;0.171417
2598.000000;0.171771
2597.000000;0.172150
2596.000000;0.172668
2595.000000;0.173284
2594.000000;0.173849
2593.000000;0.174286
2592.000000;0.174653
2591.000000;0.175041
2590.000000;0.175471
2589.000000;0.175937
2588.000000;0.176447
2587.000000;0.176963
2586.000000;0.177397
2585.000000;0.177760
2584.000000;0.178242
2583.000000;0.179007
2582.000000;0.179941
2581.000000;0.180705
2580.000000;0.181061
2579.000000;0.181097
2578.000000;0.181136
2577.000000;0.181442
2576.000000;0.182017
2575.000000;0.182631
2574.000000;0.183069
2573.000000;0.183377
2572.000000;0.183825
2571.000000;0.184615
2570.000000;0.185663
2569.000000;0.186674
2568.000000;0.187383
2567.000000;0.187720
2566.000000;0.187857
2565.000000;0.188102
2564.000000;0.188616
2563.000000;0.189191
2562.000000;0.189466
2561.000000;0.189441
2560.000000;0.189596
2559.000000;0.190352
2558.000000;0.191506
2557.000000;0.192433
2556.000000;0.192779
2555.000000;0.192783
2554.000000;0.192921
2553.000000;0.193409
2552.000000;0.194101
2551.000000;0.194709
2550.000000;0.195067
2549.000000;0.195242
2548.000000;0.195443
2547.000000;0.195809
2546.000000;0.196296
2545.000000;0.196801
2544.000000;0.197304
2543.000000;0.197813
2542.000000;0.198279
2541.000000;0.198696
2540.000000;0.199205
2539.000000;0.199920
2538.000000;0.200679
2537.000000;0.201166
2536.000000;0.201315
2535.000000;0.201433
2534.000000;0.201871
2533.000000;0.202691
2532.000000;0.203686
2531.000000;0.204580
2530.000000;0.205183
2529.000000;0.205480
2528.000000;0.205655
2527.000000;0.205940
2526.000000;0.206370
2525.000000;0.206784
2524.000000;0.207099
2523.000000;0.207475
2522.000000;0.208110
2521.000000;0.208987
2520.000000;0.209914
2519.000000;0.210730
2518.000000;0.211370
2517.000000;0.211777
2516.000000;0.211895
2515.000000;0.211784
2514.000000;0.211654
2513.000000;0.211750
2512.000000;0.212205
2511.000000;0.212991
2510.000000;0.213975
2509.000000;0.215004
2508.000000;0.215938
2507.000000;0.216644
2506.000000;0.217039
2505.000000;0.217205
2504.000000;0.217420
2503.000000;0.217954
2502.000000;0.218814
2501.000000;0.219754
2500.000000;0.220517
2499.000000;0.221012
2498.000000;0.221235
2497.000000;0.221176
2496.000000;0.220906
2495.000000;0.220672
2494.000000;0.220767
2493.000000;0.221263
2492.000000;0.221958
2491.000000;0.222597
2490.000000;0.223116
2489.000000;0.223651
2488.000000;0.224344
2487.000000;0.225173
2486.000000;0.225968
2485.000000;0.226579
2484.000000;0.226988
2483.000000;0.227289
2482.000000;0.227572
2481.000000;0.227885
2480.000000;0.228255
2479.000000;0.228682
2478.000000;0.229113
2477.000000;0.229492
2476.000000;0.229876
2475.000000;0.230421
2474.000000;0.231197
2473.000000;0.232029
2472.000000;0.232616
2471.000000;0.232819
2470.000000;0.232800
2469.000000;0.232839
2468.000000;0.233062
2467.000000;0.233367
2466.000000;0.233607
2465.000000;0.233792
2464.000000;0.234111
2463.000000;0.234758
2462.000000;0.235739
2461.000000;0.236845
2460.000000;0.237805
2459.000000;0.238486
2458.000000;0.238961
2457.000000;0.239353
2456.000000;0.239648
2455.000000;0.239741
2454.000000;0.239671
2453.000000;0.239729
2452.000000;0.240233
2451.000000;0.241225
2450.000000;0.242432
2449.000000;0.243500
2448.000000;0.244210
2447.000000;0.244547
2446.000000;0.244689
2445.000000;0.244902
2444.000000;0.245325
2443.000000;0.245818
2442.000000;0.246140
2441.000000;0.246266
2440.000000;0.246427
2439.000000;0.246815
2438.000000;0.247388
2437.000000;0.248016
2436.000000;0.248647
2435.000000;0.249264
2434.000000;0.249778
2433.000000;0.250121
2432.000000;0.250354
2431.000000;0.250595
2430.000000;0.250879
2429.000000;0.251194
2428.000000;0.251568
2427.000000;0.252047
2426.000000;0.252596
2425.000000;0.253129
2424.000000;0.253604
2423.000000;0.254036
2422.000000;0.254480
2421.000000;0.255041
2420.000000;0.255805
2419.000000;0.256695
2418.000000;0.257444
2417.000000;0.257836
2416.000000;0.257911
2415.000000;0.257878
2414.000000;0.257901
2413.000000;0.258031
2412.000000;0.258265
2411.000000;0.258576
2410.000000;0.258960
2409.000000;0.259496
2408.000000;0.260244
2407.000000;0.261040
2406.000000;0.261593
2405.000000;0.261896
2404.000000;0.262358
2403.000000;0.263276
2402.000000;0.264376
2401.000000;0.265136
2400.000000;0.265459
2399.000000;0.265705
2398.000000;0.266109
2397.000000;0.266542
2396.000000;0.266860
2395.000000;0.267150
2394.000000;0.267477
2393.000000;0.267692
2392.000000;0.267687
2391.000000;0.267645
2390.000000;0.267884
2389.000000;0.268546
2388.000000;0.269567
2387.000000;0.270764
2386.000000;0.271857
2385.000000;0.272548
2384.000000;0.272781
2383.000000;0.272812
2382.000000;0.272924
2381.000000;0.273156
2380.000000;0.273413
2379.000000;0.273711
2378.000000;0.274154
2377.000000;0.274757
2376.000000;0.275443
2375.000000;0.276159
2374.000000;0.276857
2373.000000;0.277411
2372.000000;0.277700
2371.000000;0.277781
2370.000000;0.277866
2369.000000;0.278125
2368.000000;0.278589
2367.000000;0.279193
2366.000000;0.279854
2365.000000;0.280494
2364.000000;0.281058
2363.000000;0.281526
2362.000000;0.281937
2361.000000;0.282352
2360.000000;0.282775
2359.000000;0.283204
2358.000000;0.283656
2357.000000;0.284151
2356.000000;0.284722
2355.000000;0.285293
2354.000000;0.285748
2353.000000;0.286077
2352.000000;0.286397
2351.000000;0.286831
2350.000000;0.287315
2349.000000;0.287767
2348.000000;0.288195
2347.000000;0.288653
2346.000000;0.289149
2345.000000;0.289551
2344.000000;0.289880
2343.000000;0.290302
2342.000000;0.290914
2341.000000;0.291537
2340.000000;0.291896
2339.000000;0.292063
2338.000000;0.292304
2337.000000;0.292836
2336.000000;0.293619
2335.000000;0.294467
2334.000000;0.295177
2333.000000;0.295638
2332.000000;0.295819
2331.000000;0.295797
2330.000000;0.295683
2329.000000;0.295693
2328.000000;0.296055
2327.000000;0.296879
2326.000000;0.298049
2325.000000;0.299141
2324.000000;0.299823
2323.000000;0.300035
2322.000000;0.300066
2321.000000;0.300253
2320.000000;0.300695
2319.000000;0.301281
2318.000000;0.301790
2317.000000;0.302184
2316.000000;0.302539
2315.000000;0.302928
2314.000000;0.303283
2313.000000;0.303607
2312.000000;0.304093
2311.000000;0.304893
2310.000000;0.305765
2309.000000;0.306217
2308.000000;0.306079
2307.000000;0.305733
2306.000000;0.305705
2305.000000;0.306189
2304.000000;0.307077
2303.000000;0.308192
2302.000000;0.309308
2301.000000;0.310134
2300.000000;0.310521
2299.000000;0.310624
2298.000000;0.310663
2297.000000;0.310653
2296.000000;0.310573
2295.000000;0.310654
2294.000000;0.311220
2293.000000;0.312231
2292.000000;0.313281
2291.000000;0.314054
2290.000000;0.314607
2289.000000;0.315125
2288.000000;0.315657
2287.000000;0.316162
2286.000000;0.316659
2285.000000;0.317179
2284.000000;0.317689
2283.000000;0.318150
2282.000000;0.318567
2281.000000;0.318928
2280.000000;0.319180
2279.000000;0.319320
2278.000000;0.319408
2277.000000;0.319457
2276.000000;0.319423
2275.000000;0.319374
2274.000000;0.319547
2273.000000;0.320115
2272.000000;0.320965
2271.000000;0.321835
2270.000000;0.322614
2269.000000;0.323386
2268.000000;0.324180
2267.000000;0.324828
2266.000000;0.325168
2265.000000;0.325301
2264.000000;0.325536
2263.000000;0.326038
2262.000000;0.326635
2261.000000;0.327049
2260.000000;0.327290
2259.000000;0.327677
2258.000000;0.328424
2257.000000;0.329309
2256.000000;0.329877
2255.000000;0.329950
2254.000000;0.329826
2253.000000;0.329967
2252.000000;0.330564
2251.000000;0.331444
2250.000000;0.332301
2249.000000;0.332975
2248.000000;0.333503
2247.000000;0.333982
2246.000000;0.334446
2245.000000;0.334895
2244.000000;0.335387
2243.000000;0.335991
2242.000000;0.336640
2241.000000;0.337113
2240.000000;0.337248
2239.000000;0.337120
2238.000000;0.336978
2237.000000;0.337066
2236.000000;0.337507
2235.000000;0.338244
2234.000000;0.339022
2233.000000;0.339558
2232.000000;0.339846
2231.000000;0.340209
2230.000000;0.340911
2229.000000;0.341828
2228.000000;0.342621
2227.000000;0.343137
2226.000000;0.343441
2225.000000;0.343589
2224.000000;0.343618
2223.000000;0.343738
2222.000000;0.344200
2221.000000;0.344922
2220.000000;0.345494
2219.000000;0.345678
2218.000000;0.345684
2217.000000;0.345836
2216.000000;0.346214
2215.000000;0.346783
2214.000000;0.347607
2213.000000;0.348642
2212.000000;0.349488
2211.000000;0.349707
2210.000000;0.349412
2209.000000;0.349256
2208.000000;0.349749
2207.000000;0.350762
2206.000000;0.351757
2205.000000;0.352326
2204.000000;0.352434
2203.000000;0.352308
2202.000000;0.352248
2201.000000;0.352479
2200.000000;0.353043
2199.000000;0.353813
2198.000000;0.354612
2197.000000;0.355311
2196.000000;0.355822
2195.000000;0.356106
2194.000000;0.356264
2193.000000;0.356513
2192.000000;0.356996
2191.000000;0.357633
2190.000000;0.358259
2189.000000;0.358871
2188.000000;0.359631
2187.000000;0.360615
2186.000000;0.361647
2185.000000;0.362457
2184.000000;0.362924
2183.000000;0.363121
2182.000000;0.363157
2181.000000;0.363074
2180.000000;0.362896
2179.000000;0.362720
2178.000000;0.362728
2177.000000;0.363104
2176.000000;0.363897
2175.000000;0.364913
2174.000000;0.365759
2173.000000;0.366116
2172.000000;0.366055
2171.000000;0.365999
2170.000000;0.366315
2169.000000;0.366946
2168.000000;0.367531
2167.000000;0.367858
2166.000000;0.368097
2165.000000;0.368562
2164.000000;0.369352
2163.000000;0.370297
2162.000000;0.371153
2161.000000;0.371775
2160.000000;0.372134
2159.000000;0.372303
2158.000000;0.372458
2157.000000;0.372803
2156.000000;0.373401
2155.000000;0.374103
2154.000000;0.374689
2153.000000;0.375092
2152.000000;0.375436
2151.000000;0.375856
2150.000000;0.376328
2149.000000;0.376737
2148.000000;0.377076
2147.000000;0.377503
2146.000000;0.378144
2145.000000;0.378894
2144.000000;0.379487
2143.000000;0.379778
2142.000000;0.379886
2141.000000;0.380029
2140.000000;0.380268
2139.000000;0.380528
2138.000000;0.380815
2137.000000;0.381299
2136.000000;0.382090
2135.000000;0.383020
2134.000000;0.383755
2133.000000;0.384116
2132.000000;0.384233
2131.000000;0.384371
2130.000000;0.384697
2129.000000;0.385215
2128.000000;0.385840
2127.000000;0.386456
2126.000000;0.386964
2125.000000;0.387363
2124.000000;0.387778
2123.000000;0.388353
2122.000000;0.389096
2121.000000;0.389840
2120.000000;0.390352
2119.000000;0.390468
2118.000000;0.390224
2117.000000;0.389899
2116.000000;0.389894
2115.000000;0.390451
2114.000000;0.391481
2113.000000;0.392710
2112.000000;0.393933
2111.000000;0.395065
2110.000000;0.395984
2109.000000;0.396508
2108.000000;0.396580
2107.000000;0.396381
2106.000000;0.396195
2105.000000;0.396227
2104.000000;0.396579
2103.000000;0.397261
2102.000000;0.398126
2101.000000;0.398883
2100.000000;0.399313
2099.000000;0.399461
2098.000000;0.399584
2097.000000;0.399907
2096.000000;0.400475
2095.000000;0.401158
2094.000000;0.401736
2093.000000;0.402024
2092.000000;0.402034
2091.000000;0.402029
2090.000000;0.402328
2089.000000;0.403010
2088.000000;0.403824
2087.000000;0.404389
2086.000000;0.404516
2085.000000;0.404361
2084.000000;0.404295
2083.000000;0.404589
2082.000000;0.405195
2081.000000;0.405863
2080.000000;0.406475
2079.000000;0.407191
2078.000000;0.408210
2077.000000;0.409427
2076.000000;0.410414
2075.000000;0.410780
2074.000000;0.410534
2073.000000;0.410117
2072.000000;0.410070
2071.000000;0.410622
2070.000000;0.411563
2069.000000;0.412499
2068.000000;0.413231
2067.000000;0.413844
2066.000000;0.414443
2065.000000;0.414947
2064.000000;0.415189
2063.000000;0.415175
2062.000000;0.415132
2061.000000;0.415330
2060.000000;0.415867
2059.000000;0.416611
2058.000000;0.417318
2057.000000;0.417855
2056.000000;0.418310
2055.000000;0.418835
2054.000000;0.419409
2053.000000;0.419855
2052.000000;0.420113
2051.000000;0.420337
2050.000000;0.420668
2049.000000;0.421059
2048.000000;0.421421
2047.000000;0.421806
2046.000000;0.422299
2045.000000;0.422855
2044.000000;0.423397
2043.000000;0.423960
2042.000000;0.424577
2041.000000;0.425115
2040.000000;0.425442
2039.000000;0.425709
2038.000000;0.426217
2037.000000;0.427000
2036.000000;0.427746
2035.000000;0.428197
2034.000000;0.428448
2033.000000;0.428784
2032.000000;0.429351
2031.000000;0.430081
2030.000000;0.430808
2029.000000;0.431381
2028.000000;0.431756
2027.000000;0.432024
2026.000000;0.432289
2025.000000;0.432518
2024.000000;0.432619
2023.000000;0.432663
2022.000000;0.432893
2021.000000;0.433445
2020.000000;0.434186
2019.000000;0.434896
2018.000000;0.435493
2017.000000;0.435981
2016.000000;0.436280
2015.000000;0.436283
2014.000000;0.436070
2013.000000;0.435961
2012.000000;0.436269
2011.000000;0.436994
2010.000000;0.437797
2009.000000;0.438324
2008.000000;0.438594
2007.000000;0.438985
2006.000000;0.439789
2005.000000;0.440866
2004.000000;0.441858
2003.000000;0.442628
2002.000000;0.443282
2001.000000;0.443809
2000.000000;0.444004
1999.000000;0.443827
1998.000000;0.443633
1997.000000;0.443842
1996.000000;0.444535
1995.000000;0.445493
1994.000000;0.446493
1993.000000;0.447410
1992.000000;0.448113
1991.000000;0.448488
1990.000000;0.448589
1989.000000;0.448631
1988.000000;0.448788
1987.000000;0.449085
1986.000000;0.449470
1985.000000;0.449935
1984.000000;0.450522
1983.000000;0.451246
1982.000000;0.452045
1981.000000;0.452804
1980.000000;0.453450
1979.000000;0.453983
1978.000000;0.454394
1977.000000;0.454602
1976.000000;0.454601
1975.000000;0.454611
1974.000000;0.454916
1973.000000;0.455506
1972.000000;0.456037
1971.000000;0.456241
1970.000000;0.456249
1969.000000;0.456402
1968.000000;0.456863
1967.000000;0.457546
1966.000000;0.458328
1965.000000;0.459151
1964.000000;0.459952
1963.000000;0.460630
1962.000000;0.461121
1961.000000;0.461420
1960.000000;0.461539
1959.000000;0.461545
1958.000000;0.461630
1957.000000;0.462046
1956.000000;0.462891
1955.000000;0.464002
1954.000000;0.465059
1953.000000;0.465822
1952.000000;0.466302
1951.000000;0.466722
1950.000000;0.467270
1949.000000;0.467887
1948.000000;0.468327
1947.000000;0.468466
1946.000000;0.468493
1945.000000;0.468719
1944.000000;0.469266
1943.000000;0.469959
1942.000000;0.470498
1941.000000;0.470676
1940.000000;0.470542
1939.000000;0.470401
1938.000000;0.470603
1937.000000;0.471245
1936.000000;0.472112
1935.000000;0.472936
1934.000000;0.473651
1933.000000;0.474332
1932.000000;0.475007
1931.000000;0.475603
1930.000000;0.476019
1929.000000;0.476172
1928.000000;0.476059
1927.000000;0.475883
1926.000000;0.476002
1925.000000;0.476593
1924.000000;0.477399
1923.000000;0.477989
1922.000000;0.478265
1921.000000;0.478545
1920.000000;0.479181
1919.000000;0.480210
1918.000000;0.481390
1917.000000;0.482424
1916.000000;0.483115
1915.000000;0.483460
1914.000000;0.483639
1913.000000;0.483840
1912.000000;0.484045
1911.000000;0.484108
1910.000000;0.484056
1909.000000;0.484181
1908.000000;0.484757
1907.000000;0.485748
1906.000000;0.486852
1905.000000;0.487774
1904.000000;0.488424
1903.000000;0.488928
1902.000000;0.489515
1901.000000;0.490312
1900.000000;0.491182
1899.000000;0.491813
1898.000000;0.492014
1897.000000;0.491917
1896.000000;0.491858
1895.000000;0.492111
1894.000000;0.492722
1893.000000;0.493512
1892.000000;0.494202
1891.000000;0.494606
1890.000000;0.494781
1889.000000;0.494974
1888.000000;0.495385
1887.000000;0.496021
1886.000000;0.496763
1885.000000;0.497504
1884.000000;0.498150
1883.000000;0.498584
1882.000000;0.498757
1881.000000;0.498827
1880.000000;0.499136
1879.000000;0.499965
1878.000000;0.501294
1877.000000;0.502801
1876.000000;0.504062
1875.000000;0.504786
1874.000000;0.504907
1873.000000;0.504558
1872.000000;0.504007
1871.000000;0.503589
1870.000000;0.503562
1869.000000;0.503945
1868.000000;0.504524
1867.000000;0.505084
1866.000000;0.505582
1865.000000;0.506037
1864.000000;0.506330
1863.000000;0.506286
1862.000000;0.505992
1861.000000;0.505847
1860.000000;0.506206
1859.000000;0.507067
1858.000000;0.508177
1857.000000;0.509334
1856.000000;0.510467
1855.000000;0.511505
1854.000000;0.512348
1853.000000;0.512975
1852.000000;0.513464
1851.000000;0.513859
1850.000000;0.514114
1849.000000;0.514222
1848.000000;0.514329
1847.000000;0.514636
1846.000000;0.515185
1845.000000;0.515825
1844.000000;0.516373
1843.000000;0.516777
1842.000000;0.517085
1841.000000;0.517320
1840.000000;0.517486
1839.000000;0.517663
1838.000000;0.517951
1837.000000;0.518286
1836.000000;0.518410
1835.000000;0.518138
1834.000000;0.517686
1833.000000;0.517591
1832.000000;0.518240
1831.000000;0.519517
1830.000000;0.520916
1829.000000;0.521972
1828.000000;0.522576
1827.000000;0.522928
1826.000000;0.523312
1825.000000;0.523895
1824.000000;0.524652
1823.000000;0.525456
1822.000000;0.526215
1821.000000;0.526950
1820.000000;0.527716
1819.000000;0.528494
1818.000000;0.529177
1817.000000;0.529658
1816.000000;0.529904
1815.000000;0.529966
1814.000000;0.529959
1813.000000;0.529979
1812.000000;0.530041
1811.000000;0.530113
1810.000000;0.530257
1809.000000;0.530660
1808.000000;0.531409
1807.000000;0.532314
1806.000000;0.533052
1805.000000;0.533512
1804.000000;0.533881
1803.000000;0.534376
1802.000000;0.535017
1801.000000;0.535700
1800.000000;0.536367
1799.000000;0.537000
1798.000000;0.537530
1797.000000;0.537918
1796.000000;0.538279
1795.000000;0.538774
1794.000000;0.539373
1793.000000;0.539864
1792.000000;0.540160
1791.000000;0.540460
1790.000000;0.540999
1789.000000;0.541738
1788.000000;0.542432
1787.000000;0.542931
1786.000000;0.543283
1785.000000;0.543609
1784.000000;0.543995
1783.000000;0.544522
1782.000000;0.545271
1781.000000;0.546212
1780.000000;0.547167
1779.000000;0.547915
1778.000000;0.548346
1777.000000;0.548525
1776.000000;0.548643
1775.000000;0.548906
1774.000000;0.549407
1773.000000;0.550057
1772.000000;0.550703
1771.000000;0.551311
1770.000000;0.551915
1769.000000;0.552447
1768.000000;0.552750
1767.000000;0.552825
1766.000000;0.552953
1765.000000;0.553431
1764.000000;0.554209
1763.000000;0.554931
1762.000000;0.555338
1761.000000;0.555503
1760.000000;0.555644
1759.000000;0.555840
1758.000000;0.556066
1757.000000;0.556384
1756.000000;0.556903
1755.000000;0.557586
1754.000000;0.558212
1753.000000;0.558630
1752.000000;0.558975
1751.000000;0.559529
1750.000000;0.560381
1749.000000;0.561270
1748.000000;0.561824
1747.000000;0.561969
1746.000000;0.562067
1745.000000;0.562532
1744.000000;0.563395
1743.000000;0.564307
1742.000000;0.564972
1741.000000;0.565448
1740.000000;0.565941
1739.000000;0.566456
1738.000000;0.566833
1737.000000;0.567067
1736.000000;0.567409
1735.000000;0.568085
1734.000000;0.569016
1733.000000;0.569992
1732.000000;0.570899
1731.000000;0.571627
1730.000000;0.572018
1729.000000;0.572033
1728.000000;0.571868
1727.000000;0.571865
1726.000000;0.572206
1725.000000;0.572778
1724.000000;0.573397
1723.000000;0.574057
1722.000000;0.574825
1721.000000;0.575607
1720.000000;0.576182
1719.000000;0.576473
1718.000000;0.576658
1717.000000;0.576993
1716.000000;0.577583
1715.000000;0.578325
1714.000000;0.579031
1713.000000;0.579529
1712.000000;0.579727
1711.000000;0.579760
1710.000000;0.579971
1709.000000;0.580596
1708.000000;0.581501
1707.000000;0.582338
1706.000000;0.582942
1705.000000;0.583439
1704.000000;0.583970
1703.000000;0.584446
1702.000000;0.584710
1701.000000;0.584806
1700.000000;0.584940
1699.000000;0.585309
1698.000000;0.585892
1697.000000;0.586450
1696.000000;0.586928
1695.000000;0.587465
1694.000000;0.588063
1693.000000;0.588574
1692.000000;0.588947
1691.000000;0.589386
1690.000000;0.590068
1689.000000;0.590842
1688.000000;0.591399
1687.000000;0.591667
1686.000000;0.591877
1685.000000;0.592257
1684.000000;0.592781
1683.000000;0.593292
1682.000000;0.593671
1681.000000;0.593908
1680.000000;0.594159
1679.000000;0.594600
1678.000000;0.595246
1677.000000;0.595913
1676.000000;0.596389
1675.000000;0.596646
1674.000000;0.596892
1673.000000;0.597357
1672.000000;0.598044
1671.000000;0.598796
1670.000000;0.599511
1669.000000;0.600206
1668.000000;0.600930
1667.000000;0.601661
1666.000000;0.602285
1665.000000;0.602703
1664.000000;0.602927
1663.000000;0.603088
1662.000000;0.603347
1661.000000;0.603796
1660.000000;0.604432
1659.000000;0.605218
1658.000000;0.606086
1657.000000;0.606894
1656.000000;0.607524
1655.000000;0.608028
1654.000000;0.608547
1653.000000;0.609078
1652.000000;0.609520
1651.000000;0.609821
1650.000000;0.610061
1649.000000;0.610464
1648.000000;0.611121
1647.000000;0.611776
1646.000000;0.612129
1645.000000;0.612215
1644.000000;0.612308
1643.000000;0.612627
1642.000000;0.613194
1641.000000;0.613903
1640.000000;0.614553
1639.000000;0.614920
1638.000000;0.614944
1637.000000;0.614862
1636.000000;0.615038
1635.000000;0.615670
1634.000000;0.616665
1633.000000;0.617782
1632.000000;0.618800
1631.000000;0.619550
1630.000000;0.619907
1629.000000;0.619870
1628.000000;0.619674
1627.000000;0.619675
1626.000000;0.620055
1625.000000;0.620710
1624.000000;0.621429
1623.000000;0.622092
1622.000000;0.622682
1621.000000;0.623228
1620.000000;0.623765
1619.000000;0.624302
1618.000000;0.624736
1617.000000;0.624919
1616.000000;0.624906
1615.000000;0.625021
1614.000000;0.625526
1613.000000;0.626337
1612.000000;0.627146
1611.000000;0.627762
1610.000000;0.628265
1609.000000;0.628853
1608.000000;0.629621
1607.000000;0.630520
1606.000000;0.631411
1605.000000;0.632164
1604.000000;0.632756
1603.000000;0.633271
1602.000000;0.633743
1601.000000;0.634071
1600.000000;0.634194
1599.000000;0.634284
1598.000000;0.634601
1597.000000;0.635145
1596.000000;0.635640
1595.000000;0.635931
1594.000000;0.636214
1593.000000;0.636767
1592.000000;0.637603
1591.000000;0.638503
1590.000000;0.639296
1589.000000;0.639944
1588.000000;0.640433
1587.000000;0.640754
1586.000000;0.640990
1585.000000;0.641297
1584.000000;0.641767
1583.000000;0.642348
1582.000000;0.642914
1581.000000;0.643384
1580.000000;0.643779
1579.000000;0.644196
1578.000000;0.644703
1577.000000;0.645257
1576.000000;0.645766
1575.000000;0.646226
1574.000000;0.646670
1573.000000;0.646995
1572.000000;0.647056
1571.000000;0.646965
1570.000000;0.647160
1569.000000;0.647985
1568.000000;0.649231
1567.000000;0.650262
1566.000000;0.650682
1565.000000;0.650711
1564.000000;0.650866
1563.000000;0.651434
1562.000000;0.652313
1561.000000;0.653213
1560.000000;0.653903
1559.000000;0.654333
1558.000000;0.654766
1557.000000;0.655359
1556.000000;0.655969
1555.000000;0.656472
1554.000000;0.656837
1553.000000;0.657134
1552.000000;0.657465
1551.000000;0.657925
1550.000000;0.658530
1549.000000;0.659139
1548.000000;0.659521
1547.000000;0.659663
1546.000000;0.659891
1545.000000;0.660531
1544.000000;0.661472
1543.000000;0.662272
1542.000000;0.662702
1541.000000;0.663017
1540.000000;0.663575
1539.000000;0.664327
1538.000000;0.664871
1537.000000;0.665001
1536.000000;0.664950
1535.000000;0.665122
1534.000000;0.665692
1533.000000;0.666489
1532.000000;0.667251
1531.000000;0.667879
1530.000000;0.668503
1529.000000;0.669321
1528.000000;0.670330
1527.000000;0.671304
1526.000000;0.671991
1525.000000;0.672314
1524.000000;0.672417
1523.000000;0.672558
1522.000000;0.672931
1521.000000;0.673547
1520.000000;0.674236
1519.000000;0.674818
1518.000000;0.675280
1517.000000;0.675751
1516.000000;0.676278
1515.000000;0.676729
1514.000000;0.676994
1513.000000;0.677201
1512.000000;0.677609
1511.000000;0.678313
1510.000000;0.679120
1509.000000;0.679727
1508.000000;0.680043
1507.000000;0.680319
1506.000000;0.680933
1505.000000;0.681926
1504.000000;0.682938
1503.000000;0.683538
1502.000000;0.683655
1501.000000;0.683708
1500.000000;0.684102
1499.000000;0.684822
1498.000000;0.685508
1497.000000;0.685817
1496.000000;0.685744
1495.000000;0.685636
1494.000000;0.685901
1493.000000;0.686625
1492.000000;0.687491
1491.000000;0.688106
1490.000000;0.688405
1489.000000;0.688670
1488.000000;0.689115
1487.000000;0.689612
1486.000000;0.689890
1485.000000;0.689884
1484.000000;0.689860
1483.000000;0.690227
1482.000000;0.691179
1481.000000;0.692478
1480.000000;0.693613
1479.000000;0.694260
1478.000000;0.694574
1477.000000;0.694949
1476.000000;0.695528
1475.000000;0.696099
1474.000000;0.696482
1473.000000;0.696824
1472.000000;0.697421
1471.000000;0.698342
1470.000000;0.699341
1469.000000;0.700085
1468.000000;0.700393
1467.000000;0.700353
1466.000000;0.700310
1465.000000;0.700651
1464.000000;0.701468
1463.000000;0.702437
1462.000000;0.703127
1461.000000;0.703419
1460.000000;0.703501
1459.000000;0.703550
1458.000000;0.703571
1457.000000;0.703546
1456.000000;0.703582
1455.000000;0.703825
1454.000000;0.704312
1453.000000;0.704978
1452.000000;0.705754
1451.000000;0.706548
1450.000000;0.707281
1449.000000;0.707979
1448.000000;0.708707
1447.000000;0.709431
1446.000000;0.710031
1445.000000;0.710474
1444.000000;0.710878
1443.000000;0.711362
1442.000000;0.711893
1441.000000;0.712351
1440.000000;0.712699
1439.000000;0.713044
1438.000000;0.713530
1437.000000;0.714200
1436.000000;0.714972
1435.000000;0.715728
1434.000000;0.716397
1433.000000;0.716987
1432.000000;0.717527
1431.000000;0.717942
1430.000000;0.718110
1429.000000;0.718074
1428.000000;0.718064
1427.000000;0.718270
1426.000000;0.718653
1425.000000;0.719035
1424.000000;0.719340
1423.000000;0.719677
1422.000000;0.720181
1421.000000;0.720857
1420.000000;0.721559
1419.000000;0.722131
1418.000000;0.722570
1417.000000;0.723015
1416.000000;0.723588
1415.000000;0.724295
1414.000000;0.725045
1413.000000;0.725747
1412.000000;0.726382
1411.000000;0.726943
1410.000000;0.727353
1409.000000;0.727522
1408.000000;0.727504
1407.000000;0.727503
1406.000000;0.727707
1405.000000;0.728134
1404.000000;0.728698
1403.000000;0.729371
1402.000000;0.730196
1401.000000;0.731139
1400.000000;0.732012
1399.000000;0.732639
1398.000000;0.733034
1397.000000;0.733367
1396.000000;0.733765
1395.000000;0.734234
1394.000000;0.734738
1393.000000;0.735265
1392.000000;0.735815
1391.000000;0.736378
1390.000000;0.736977
1389.000000;0.737671
1388.000000;0.738457
1387.000000;0.739221
1386.000000;0.739814
1385.000000;0.740170
1384.000000;0.740351
1383.000000;0.740510
1382.000000;0.740830
1381.000000;0.741434
1380.000000;0.742273
1379.000000;0.743116
1378.000000;0.743700
1377.000000;0.743952
1376.000000;0.744063
1375.000000;0.744329
1374.000000;0.744912
1373.000000;0.745686
1372.000000;0.746320
1371.000000;0.746548
1370.000000;0.746409
1369.000000;0.746235
1368.000000;0.746373
1367.000000;0.746912
1366.000000;0.747649
1365.000000;0.748318
1364.000000;0.748809
1363.000000;0.749199
1362.000000;0.749624
1361.000000;0.750128
1360.000000;0.750658
1359.000000;0.751157
1358.000000;0.751650
1357.000000;0.752180
1356.000000;0.752710
1355.000000;0.753165
1354.000000;0.753582
1353.000000;0.754141
1352.000000;0.754957
1351.000000;0.755899
1350.000000;0.756704
1349.000000;0.757257
1348.000000;0.757686
1347.000000;0.758160
1346.000000;0.758676
1345.000000;0.759110
1344.000000;0.759419
1343.000000;0.759704
1342.000000;0.760078
1341.000000;0.760517
1340.000000;0.760889
1339.000000;0.761123
1338.000000;0.761289
1337.000000;0.761514
1336.000000;0.761824
1335.000000;0.762142
1334.000000;0.762428
1333.000000;0.762787
1332.000000;0.763381
1331.000000;0.764260
1330.000000;0.765292
1329.000000;0.766250
1328.000000;0.767001
1327.000000;0.767646
1326.000000;0.768402
1325.000000;0.769247
1324.000000;0.769714
1323.000000;0.769290
1322.000000;0.768153
1321.000000;0.767343
1320.000000;0.767890
1319.000000;0.769762
1318.000000;0.771810
1317.000000;0.772868
1316.000000;0.772808
1315.000000;0.772477
1314.000000;0.772708
1313.000000;0.773581
1312.000000;0.774570
1311.000000;0.775198
1310.000000;0.775428
1309.000000;0.775511
1308.000000;0.775641
1307.000000;0.775856
1306.000000;0.776211
1305.000000;0.776861
1304.000000;0.777863
1303.000000;0.778978
1302.000000;0.779831
1301.000000;0.780282
1300.000000;0.780512
1299.000000;0.780703
1298.000000;0.780792
1297.000000;0.780660
1296.000000;0.780465
1295.000000;0.780589
1294.000000;0.781249
1293.000000;0.782261
1292.000000;0.783263
1291.000000;0.784065
1290.000000;0.784717
1289.000000;0.785304
1288.000000;0.785767
1287.000000;0.786003
1286.000000;0.786078
1285.000000;0.786269
1284.000000;0.786821
1283.000000;0.787672
1282.000000;0.788485
1281.000000;0.788986
1280.000000;0.789211
1279.000000;0.789394
1278.000000;0.789684
1277.000000;0.790077
1276.000000;0.790564
1275.000000;0.791169
1274.000000;0.791824
1273.000000;0.792349
1272.000000;0.792663
1271.000000;0.792929
1270.000000;0.793355
1269.000000;0.793930
1268.000000;0.794476
1267.000000;0.794909
1266.000000;0.795296
1265.000000;0.795698
1264.000000;0.796103
1263.000000;0.796560
1262.000000;0.797186
1261.000000;0.797967
1260.000000;0.798679
1259.000000;0.799132
1258.000000;0.799395
1257.000000;0.799684
1256.000000;0.800107
1255.000000;0.800669
1254.000000;0.801411
1253.000000;0.802318
1252.000000;0.803146
1251.000000;0.803544
1250.000000;0.803440
1249.000000;0.803154
1248.000000;0.803078
1247.000000;0.803356
1246.000000;0.803913
1245.000000;0.804604
1244.000000;0.805254
1243.000000;0.805704
1242.000000;0.805982
1241.000000;0.806342
1240.000000;0.807019
1239.000000;0.807965
1238.000000;0.808933
1237.000000;0.809741
1236.000000;0.810339
1235.000000;0.810710
1234.000000;0.810888
1233.000000;0.811054
1232.000000;0.811453
1231.000000;0.812136
1230.000000;0.812881
1229.000000;0.813429
1228.000000;0.813727
1227.000000;0.813921
1226.000000;0.814166
1225.000000;0.814520
1224.000000;0.814965
1223.000000;0.815475
1222.000000;0.816047
1221.000000;0.816669
1220.000000;0.817293
1219.000000;0.817866
1218.000000;0.818378
1217.000000;0.818842
1216.000000;0.819222
1215.000000;0.819458
1214.000000;0.819616
1213.000000;0.819893
1212.000000;0.820408
1211.000000;0.821047
1210.000000;0.821629
1209.000000;0.822157
1208.000000;0.822786
1207.000000;0.823556
1206.000000;0.824295
1205.000000;0.824786
1204.000000;0.824936
1203.000000;0.824817
1202.000000;0.824636
1201.000000;0.824671
1200.000000;0.825041
