Criado como novo conjunto de dados;"0307_DANIEL.spp","33303.7 Secs"
cm-1;Abs
10000.000000;1.114508
9999.000000;1.113164
9998.000000;1.111824
9997.000000;1.110488
9996.000000;1.109157
9995.000000;1.107829
9994.000000;1.106508
9993.000000;1.105183
9992.000000;1.103884
9991.000000;1.101981
9990.000000;1.099650
9989.000000;1.097489
9988.000000;1.096033
9987.000000;1.095261
9986.000000;1.094537
9985.000000;1.093257
9984.000000;1.091520
9983.000000;1.090033
9982.000000;1.089329
9981.000000;1.089223
9980.000000;1.089055
9979.000000;1.088340
9978.000000;1.087114
9977.000000;1.085731
9976.000000;1.084475
9975.000000;1.083364
9974.000000;1.082214
9973.000000;1.080828
9972.000000;1.079149
9971.000000;1.077303
9970.000000;1.075486
9969.000000;1.073819
9968.000000;1.072315
9967.000000;1.070955
9966.000000;1.069752
9965.000000;1.068723
9964.000000;1.067820
9963.000000;1.066930
9962.000000;1.065912
9961.000000;1.064643
9960.000000;1.063110
9959.000000;1.061532
9958.000000;1.060303
9957.000000;1.059616
9956.000000;1.059110
9955.000000;1.058126
9954.000000;1.056470
9953.000000;1.054726
9952.000000;1.053563
9951.000000;1.052871
9950.000000;1.051916
9949.000000;1.050357
9948.000000;1.048710
9947.000000;1.047627
9946.000000;1.047056
9945.000000;1.046410
9944.000000;1.045349
9943.000000;1.044030
9942.000000;1.042668
9941.000000;1.041208
9940.000000;1.039518
9939.000000;1.037668
9938.000000;1.035915
9937.000000;1.034507
9936.000000;1.033524
9935.000000;1.032775
9934.000000;1.031837
9933.000000;1.030365
9932.000000;1.028410
9931.000000;1.026356
9930.000000;1.024569
9929.000000;1.023201
9928.000000;1.022216
9927.000000;1.021385
9926.000000;1.020314
9925.000000;1.018773
9924.000000;1.017064
9923.000000;1.015797
9922.000000;1.015169
9921.000000;1.014678
9920.000000;1.013693
9919.000000;1.012147
9918.000000;1.010507
9917.000000;1.009221
9916.000000;1.008376
9915.000000;1.007731
9914.000000;1.006874
9913.000000;1.005456
9912.000000;1.003489
9911.000000;1.001408
9910.000000;0.999651
9909.000000;0.998232
9908.000000;0.996858
9907.000000;0.995395
9906.000000;0.994008
9905.000000;0.992822
9904.000000;0.991667
9903.000000;0.990267
9902.000000;0.988579
9901.000000;0.986844
9900.000000;0.985352
9899.000000;0.984201
9898.000000;0.983207
9897.000000;0.982051
9896.000000;0.980556
9895.000000;0.978863
9894.000000;0.977276
9893.000000;0.975943
9892.000000;0.974729
9891.000000;0.973420
9890.000000;0.971987
9889.000000;0.970617
9888.000000;0.969466
9887.000000;0.968449
9886.000000;0.967285
9885.000000;0.965803
9884.000000;0.964157
9883.000000;0.962684
9882.000000;0.961567
9881.000000;0.960729
9880.000000;0.960082
9879.000000;0.959665
9878.000000;0.959397
9877.000000;0.958803
9876.000000;0.957305
9875.000000;0.954853
9874.000000;0.952087
9873.000000;0.949731
9872.000000;0.947970
9871.000000;0.946536
9870.000000;0.945258
9869.000000;0.944255
9868.000000;0.943535
9867.000000;0.942668
9866.000000;0.941118
9865.000000;0.938865
9864.000000;0.936487
9863.000000;0.934570
9862.000000;0.933180
9861.000000;0.931965
9860.000000;0.930610
9859.000000;0.929075
9858.000000;0.927499
9857.000000;0.926045
9856.000000;0.924832
9855.000000;0.923836
9854.000000;0.922861
9853.000000;0.921726
9852.000000;0.920459
9851.000000;0.919153
9850.000000;0.917708
9849.000000;0.915955
9848.000000;0.914049
9847.000000;0.912403
9846.000000;0.911112
9845.000000;0.909714
9844.000000;0.907771
9843.000000;0.905488
9842.000000;0.903481
9841.000000;0.902022
9840.000000;0.900797
9839.000000;0.899378
9838.000000;0.897700
9837.000000;0.896045
9836.000000;0.894744
9835.000000;0.893900
9834.000000;0.893273
9833.000000;0.892401
9832.000000;0.891015
9831.000000;0.889321
9830.000000;0.887741
9829.000000;0.886372
9828.000000;0.884924
9827.000000;0.883193
9826.000000;0.881378
9825.000000;0.879790
9824.000000;0.878440
9823.000000;0.877039
9822.000000;0.875299
9821.000000;0.873164
9820.000000;0.870826
9819.000000;0.868632
9818.000000;0.866850
9817.000000;0.865422
9816.000000;0.864002
9815.000000;0.862332
9814.000000;0.860493
9813.000000;0.858718
9812.000000;0.857092
9811.000000;0.855584
9810.000000;0.854217
9809.000000;0.852979
9808.000000;0.851605
9807.000000;0.849709
9806.000000;0.847243
9805.000000;0.844683
9804.000000;0.842669
9803.000000;0.841517
9802.000000;0.841065
9801.000000;0.840822
9800.000000;0.840207
9799.000000;0.838840
9798.000000;0.836806
9797.000000;0.834649
9796.000000;0.832937
9795.000000;0.831787
9794.000000;0.830825
9793.000000;0.829585
9792.000000;0.827902
9791.000000;0.825918
9790.000000;0.823829
9789.000000;0.821704
9788.000000;0.819556
9787.000000;0.817510
9786.000000;0.815827
9785.000000;0.814679
9784.000000;0.813897
9783.000000;0.813000
9782.000000;0.811576
9781.000000;0.809649
9780.000000;0.807618
9779.000000;0.805818
9778.000000;0.804224
9777.000000;0.802622
9776.000000;0.800957
9775.000000;0.799371
9774.000000;0.797900
9773.000000;0.796309
9772.000000;0.794333
9771.000000;0.792016
9770.000000;0.789694
9769.000000;0.787633
9768.000000;0.785804
9767.000000;0.784023
9766.000000;0.782238
9765.000000;0.780556
9764.000000;0.779050
9763.000000;0.777611
9762.000000;0.776027
9761.000000;0.774162
9760.000000;0.772062
9759.000000;0.769947
9758.000000;0.768078
9757.000000;0.766553
9756.000000;0.765243
9755.000000;0.763976
9754.000000;0.762799
9753.000000;0.761892
9752.000000;0.761181
9751.000000;0.760186
9750.000000;0.758458
9749.000000;0.756092
9748.000000;0.753606
9747.000000;0.751316
9746.000000;0.749063
9745.000000;0.746611
9744.000000;0.744119
9743.000000;0.742017
9742.000000;0.740475
9741.000000;0.739173
9740.000000;0.737606
9739.000000;0.735592
9738.000000;0.733431
9737.000000;0.731607
9736.000000;0.730309
9735.000000;0.729239
9734.000000;0.727881
9733.000000;0.725962
9732.000000;0.723654
9731.000000;0.721357
9730.000000;0.719370
9729.000000;0.717744
9728.000000;0.716309
9727.000000;0.714799
9726.000000;0.713032
9725.000000;0.711058
9724.000000;0.709084
9723.000000;0.707216
9722.000000;0.705356
9721.000000;0.703393
9720.000000;0.701359
9719.000000;0.699330
9718.000000;0.697282
9717.000000;0.695155
9716.000000;0.692988
9715.000000;0.690863
9714.000000;0.688804
9713.000000;0.686810
9712.000000;0.684927
9711.000000;0.683152
9710.000000;0.681365
9709.000000;0.679499
9708.000000;0.677707
9707.000000;0.676166
9706.000000;0.674751
9705.000000;0.673099
9704.000000;0.671071
9703.000000;0.668968
9702.000000;0.667178
9701.000000;0.665735
9700.000000;0.664282
9699.000000;0.662430
9698.000000;0.660072
9697.000000;0.657401
9696.000000;0.654713
9695.000000;0.652207
9694.000000;0.649950
9693.000000;0.647961
9692.000000;0.646209
9691.000000;0.644471
9690.000000;0.642381
9689.000000;0.639822
9688.000000;0.637229
9687.000000;0.635226
9686.000000;0.633912
9685.000000;0.632694
9684.000000;0.630945
9683.000000;0.628667
9682.000000;0.626365
9681.000000;0.624386
9680.000000;0.622593
9679.000000;0.620694
9678.000000;0.618683
9677.000000;0.616819
9676.000000;0.615226
9675.000000;0.613679
9674.000000;0.611861
9673.000000;0.609770
9672.000000;0.607672
9671.000000;0.605645
9670.000000;0.603385
9669.000000;0.600629
9668.000000;0.597623
9667.000000;0.594917
9666.000000;0.592722
9665.000000;0.590727
9664.000000;0.588569
9663.000000;0.586273
9662.000000;0.584148
9661.000000;0.582428
9660.000000;0.581080
9659.000000;0.579815
9658.000000;0.578215
9657.000000;0.576015
9656.000000;0.573377
9655.000000;0.570782
9654.000000;0.568550
9653.000000;0.566605
9652.000000;0.564732
9651.000000;0.562857
9650.000000;0.560923
9649.000000;0.558720
9648.000000;0.556100
9647.000000;0.553287
9646.000000;0.550710
9645.000000;0.548578
9644.000000;0.546760
9643.000000;0.545035
9642.000000;0.543239
9641.000000;0.541208
9640.000000;0.538825
9639.000000;0.536216
9638.000000;0.533726
9637.000000;0.531598
9636.000000;0.529719
9635.000000;0.527734
9634.000000;0.525356
9633.000000;0.522555
9632.000000;0.519570
9631.000000;0.516795
9630.000000;0.514542
9629.000000;0.512804
9628.000000;0.511246
9627.000000;0.509469
9626.000000;0.507307
9625.000000;0.504897
9624.000000;0.502537
9623.000000;0.500435
9622.000000;0.498506
9621.000000;0.496413
9620.000000;0.493915
9619.000000;0.491205
9618.000000;0.488792
9617.000000;0.486952
9616.000000;0.485387
9615.000000;0.483501
9614.000000;0.480993
9613.000000;0.478069
9612.000000;0.475127
9611.000000;0.472396
9610.000000;0.469945
9609.000000;0.467862
9608.000000;0.466193
9607.000000;0.464703
9606.000000;0.462931
9605.000000;0.460628
9604.000000;0.458052
9603.000000;0.455673
9602.000000;0.453643
9601.000000;0.451730
9600.000000;0.449743
9599.000000;0.447766
9598.000000;0.445891
9597.000000;0.443913
9596.000000;0.441504
9595.000000;0.438605
9594.000000;0.435470
9593.000000;0.432379
9592.000000;0.429450
9591.000000;0.426730
9590.000000;0.424249
9589.000000;0.421949
9588.000000;0.419690
9587.000000;0.417401
9586.000000;0.415147
9585.000000;0.412994
9584.000000;0.410894
9583.000000;0.408767
9582.000000;0.406600
9581.000000;0.404403
9580.000000;0.402116
9579.000000;0.399695
9578.000000;0.397247
9577.000000;0.394958
9576.000000;0.392854
9575.000000;0.390702
9574.000000;0.388221
9573.000000;0.385367
9572.000000;0.382361
9571.000000;0.379462
9570.000000;0.376783
9569.000000;0.374332
9568.000000;0.372139
9567.000000;0.370234
9566.000000;0.368519
9565.000000;0.366744
9564.000000;0.364679
9563.000000;0.362273
9562.000000;0.359656
9561.000000;0.357025
9560.000000;0.354561
9559.000000;0.352354
9558.000000;0.350319
9557.000000;0.348222
9556.000000;0.345884
9555.000000;0.343366
9554.000000;0.340905
9553.000000;0.338682
9552.000000;0.336662
9551.000000;0.334635
9550.000000;0.332375
9549.000000;0.329833
9548.000000;0.327226
9547.000000;0.324908
9546.000000;0.323047
9545.000000;0.321454
9544.000000;0.319776
9543.000000;0.317828
9542.000000;0.315666
9541.000000;0.313384
9540.000000;0.311005
9539.000000;0.308583
9538.000000;0.306237
9537.000000;0.304001
9536.000000;0.301764
9535.000000;0.299462
9534.000000;0.297195
9533.000000;0.295045
9532.000000;0.292862
9531.000000;0.290424
9530.000000;0.287781
9529.000000;0.285283
9528.000000;0.283217
9527.000000;0.281527
9526.000000;0.279915
9525.000000;0.278123
9524.000000;0.276091
9523.000000;0.273928
9522.000000;0.271810
9521.000000;0.269859
9520.000000;0.268024
9519.000000;0.266101
9518.000000;0.263915
9517.000000;0.261514
9516.000000;0.259166
9515.000000;0.257172
9514.000000;0.255640
9513.000000;0.254397
9512.000000;0.253114
9511.000000;0.251571
9510.000000;0.249816
9509.000000;0.248042
9508.000000;0.246341
9507.000000;0.244646
9506.000000;0.242893
9505.000000;0.241102
9504.000000;0.239278
9503.000000;0.237361
9502.000000;0.235368
9501.000000;0.233445
9500.000000;0.231649
9499.000000;0.229776
9498.000000;0.227605
9497.000000;0.225287
9496.000000;0.223281
9495.000000;0.221845
9494.000000;0.220747
9493.000000;0.219579
9492.000000;0.218204
9491.000000;0.216786
9490.000000;0.215478
9489.000000;0.214248
9488.000000;0.212991
9487.000000;0.211663
9486.000000;0.210286
9485.000000;0.208888
9484.000000;0.207465
9483.000000;0.205989
9482.000000;0.204489
9481.000000;0.203161
9480.000000;0.202296
9479.000000;0.201944
9478.000000;0.201690
9477.000000;0.200947
9476.000000;0.199549
9475.000000;0.197938
9474.000000;0.196692
9473.000000;0.195956
9472.000000;0.195430
9471.000000;0.194772
9470.000000;0.193851
9469.000000;0.192651
9468.000000;0.191179
9467.000000;0.189579
9466.000000;0.188217
9465.000000;0.187432
9464.000000;0.187199
9463.000000;0.187139
9462.000000;0.186906
9461.000000;0.186458
9460.000000;0.185905
9459.000000;0.185231
9458.000000;0.184323
9457.000000;0.183267
9456.000000;0.182400
9455.000000;0.181960
9454.000000;0.181798
9453.000000;0.181594
9452.000000;0.181313
9451.000000;0.181243
9450.000000;0.181519
9449.000000;0.181773
9448.000000;0.181450
9447.000000;0.180452
9446.000000;0.179335
9445.000000;0.178767
9444.000000;0.178879
9443.000000;0.179207
9442.000000;0.179235
9441.000000;0.178909
9440.000000;0.178571
9439.000000;0.178511
9438.000000;0.178685
9437.000000;0.178868
9436.000000;0.178924
9435.000000;0.178873
9434.000000;0.178795
9433.000000;0.178812
9432.000000;0.179083
9431.000000;0.179664
9430.000000;0.180348
9429.000000;0.180823
9428.000000;0.181032
9427.000000;0.181273
9426.000000;0.181854
9425.000000;0.182724
9424.000000;0.183532
9423.000000;0.184001
9422.000000;0.184166
9421.000000;0.184287
9420.000000;0.184606
9419.000000;0.185186
9418.000000;0.185917
9417.000000;0.186648
9416.000000;0.187302
9415.000000;0.187829
9414.000000;0.188110
9413.000000;0.188062
9412.000000;0.187898
9411.000000;0.188121
9410.000000;0.189074
9409.000000;0.190528
9408.000000;0.191854
9407.000000;0.192624
9406.000000;0.192954
9405.000000;0.193269
9404.000000;0.193859
9403.000000;0.194701
9402.000000;0.195595
9401.000000;0.196403
9400.000000;0.197182
9399.000000;0.198108
9398.000000;0.199238
9397.000000;0.200355
9396.000000;0.201134
9395.000000;0.201474
9394.000000;0.201637
9393.000000;0.202056
9392.000000;0.203057
9391.000000;0.204692
9390.000000;0.206654
9389.000000;0.208356
9388.000000;0.209306
9387.000000;0.209583
9386.000000;0.209836
9385.000000;0.210682
9384.000000;0.212123
9383.000000;0.213639
9382.000000;0.214773
9381.000000;0.215501
9380.000000;0.216077
9379.000000;0.216709
9378.000000;0.217471
9377.000000;0.218385
9376.000000;0.219441
9375.000000;0.220579
9374.000000;0.221742
9373.000000;0.222966
9372.000000;0.224346
9371.000000;0.225879
9370.000000;0.227386
9369.000000;0.228648
9368.000000;0.229631
9367.000000;0.230565
9366.000000;0.231762
9365.000000;0.233346
9364.000000;0.235144
9363.000000;0.236819
9362.000000;0.238099
9361.000000;0.238946
9360.000000;0.239583
9359.000000;0.240358
9358.000000;0.241488
9357.000000;0.242861
9356.000000;0.244131
9355.000000;0.245056
9354.000000;0.245703
9353.000000;0.246305
9352.000000;0.246991
9351.000000;0.247735
9350.000000;0.248536
9349.000000;0.249507
9348.000000;0.250752
9347.000000;0.252231
9346.000000;0.253794
9345.000000;0.255289
9344.000000;0.256636
9343.000000;0.257854
9342.000000;0.259088
9341.000000;0.260527
9340.000000;0.262224
9339.000000;0.263987
9338.000000;0.265506
9337.000000;0.266608
9336.000000;0.267347
9335.000000;0.267899
9334.000000;0.268417
9333.000000;0.269011
9332.000000;0.269787
9331.000000;0.270853
9330.000000;0.272245
9329.000000;0.273861
9328.000000;0.275451
9327.000000;0.276780
9326.000000;0.277851
9325.000000;0.278944
9324.000000;0.280355
9323.000000;0.282064
9322.000000;0.283722
9321.000000;0.284988
9320.000000;0.285839
9319.000000;0.286554
9318.000000;0.287454
9317.000000;0.288684
9316.000000;0.290146
9315.000000;0.291582
9314.000000;0.292779
9313.000000;0.293738
9312.000000;0.294621
9311.000000;0.295491
9310.000000;0.296244
9309.000000;0.296851
9308.000000;0.297558
9307.000000;0.298675
9306.000000;0.300201
9305.000000;0.301804
9304.000000;0.303180
9303.000000;0.304289
9302.000000;0.305222
9301.000000;0.306033
9300.000000;0.306784
9299.000000;0.307649
9298.000000;0.308812
9297.000000;0.310282
9296.000000;0.311865
9295.000000;0.313291
9294.000000;0.314374
9293.000000;0.315125
9292.000000;0.315767
9291.000000;0.316589
9290.000000;0.317698
9289.000000;0.318961
9288.000000;0.320191
9287.000000;0.321314
9286.000000;0.322321
9285.000000;0.323196
9284.000000;0.323987
9283.000000;0.324832
9282.000000;0.325793
9281.000000;0.326764
9280.000000;0.327686
9279.000000;0.328740
9278.000000;0.330114
9277.000000;0.331665
9276.000000;0.333030
9275.000000;0.334086
9274.000000;0.335038
9273.000000;0.336017
9272.000000;0.336885
9271.000000;0.337557
9270.000000;0.338262
9269.000000;0.339225
9268.000000;0.340293
9267.000000;0.341146
9266.000000;0.341795
9265.000000;0.342579
9264.000000;0.343675
9263.000000;0.344875
9262.000000;0.345922
9261.000000;0.346852
9260.000000;0.347837
9259.000000;0.348898
9258.000000;0.349928
9257.000000;0.350915
9256.000000;0.351935
9255.000000;0.352973
9254.000000;0.353920
9253.000000;0.354747
9252.000000;0.355549
9251.000000;0.356374
9250.000000;0.357123
9249.000000;0.357712
9248.000000;0.358268
9247.000000;0.359064
9246.000000;0.360236
9245.000000;0.361613
9244.000000;0.362831
9243.000000;0.363646
9242.000000;0.364145
9241.000000;0.364677
9240.000000;0.365545
9239.000000;0.366743
9238.000000;0.367979
9237.000000;0.368967
9236.000000;0.369674
9235.000000;0.370271
9234.000000;0.370902
9233.000000;0.371586
9232.000000;0.372308
9231.000000;0.373112
9230.000000;0.374036
9229.000000;0.374985
9228.000000;0.375767
9227.000000;0.376273
9226.000000;0.376597
9225.000000;0.376971
9224.000000;0.377599
9223.000000;0.378545
9222.000000;0.379744
9221.000000;0.381063
9220.000000;0.382360
9219.000000;0.383528
9218.000000;0.384515
9217.000000;0.385333
9216.000000;0.386035
9215.000000;0.386685
9214.000000;0.387331
9213.000000;0.387989
9212.000000;0.388653
9211.000000;0.389316
9210.000000;0.389985
9209.000000;0.390661
9208.000000;0.391277
9207.000000;0.391719
9206.000000;0.391954
9205.000000;0.392161
9204.000000;0.392664
9203.000000;0.393650
9202.000000;0.394952
9201.000000;0.396154
9200.000000;0.396951
9199.000000;0.397380
9198.000000;0.397709
9197.000000;0.398147
9196.000000;0.398720
9195.000000;0.399371
9194.000000;0.400078
9193.000000;0.400838
9192.000000;0.401620
9191.000000;0.402409
9190.000000;0.403269
9189.000000;0.404286
9188.000000;0.405419
9187.000000;0.406455
9186.000000;0.407193
9185.000000;0.407647
9184.000000;0.408034
9183.000000;0.408546
9182.000000;0.409163
9181.000000;0.409730
9180.000000;0.410161
9179.000000;0.410550
9178.000000;0.411041
9177.000000;0.411665
9176.000000;0.412324
9175.000000;0.412932
9174.000000;0.413503
9173.000000;0.414114
9172.000000;0.414802
9171.000000;0.415542
9170.000000;0.416284
9169.000000;0.416981
9168.000000;0.417597
9167.000000;0.418132
9166.000000;0.418651
9165.000000;0.419260
9164.000000;0.420012
9163.000000;0.420835
9162.000000;0.421570
9161.000000;0.422066
9160.000000;0.422281
9159.000000;0.422330
9158.000000;0.422434
9157.000000;0.422771
9156.000000;0.423337
9155.000000;0.423980
9154.000000;0.424605
9153.000000;0.425296
9152.000000;0.426158
9151.000000;0.427091
9150.000000;0.427822
9149.000000;0.428201
9148.000000;0.428373
9147.000000;0.428611
9146.000000;0.429048
9145.000000;0.429640
9144.000000;0.430323
9143.000000;0.431069
9142.000000;0.431803
9141.000000;0.432374
9140.000000;0.432723
9139.000000;0.433017
9138.000000;0.433536
9137.000000;0.434383
9136.000000;0.435355
9135.000000;0.436113
9134.000000;0.436462
9133.000000;0.436469
9132.000000;0.436358
9131.000000;0.436346
9130.000000;0.436578
9129.000000;0.437123
9128.000000;0.437947
9127.000000;0.438886
9126.000000;0.439715
9125.000000;0.440293
9124.000000;0.440635
9123.000000;0.440835
9122.000000;0.440964
9121.000000;0.441062
9120.000000;0.441192
9119.000000;0.441446
9118.000000;0.441873
9117.000000;0.442461
9116.000000;0.443168
9115.000000;0.443932
9114.000000;0.444652
9113.000000;0.445232
9112.000000;0.445692
9111.000000;0.446180
9110.000000;0.446801
9109.000000;0.447442
9108.000000;0.447859
9107.000000;0.447966
9106.000000;0.447952
9105.000000;0.448061
9104.000000;0.448319
9103.000000;0.448555
9102.000000;0.448665
9101.000000;0.448755
9100.000000;0.449011
9099.000000;0.449505
9098.000000;0.450164
9097.000000;0.450851
9096.000000;0.451430
9095.000000;0.451830
9094.000000;0.452088
9093.000000;0.452331
9092.000000;0.452651
9091.000000;0.453034
9090.000000;0.453428
9089.000000;0.453836
9088.000000;0.454265
9087.000000;0.454661
9086.000000;0.454961
9085.000000;0.455213
9084.000000;0.455529
9083.000000;0.455924
9082.000000;0.456288
9081.000000;0.456545
9080.000000;0.456779
9079.000000;0.457142
9078.000000;0.457675
9077.000000;0.458267
9076.000000;0.458753
9075.000000;0.459035
9074.000000;0.459124
9073.000000;0.459091
9072.000000;0.459015
9071.000000;0.458964
9070.000000;0.459018
9069.000000;0.459264
9068.000000;0.459740
9067.000000;0.460396
9066.000000;0.461121
9065.000000;0.461782
9064.000000;0.462243
9063.000000;0.462422
9062.000000;0.462413
9061.000000;0.462463
9060.000000;0.462740
9059.000000;0.463137
9058.000000;0.463408
9057.000000;0.463469
9056.000000;0.463460
9055.000000;0.463536
9054.000000;0.463738
9053.000000;0.464078
9052.000000;0.464576
9051.000000;0.465163
9050.000000;0.465669
9049.000000;0.466003
9048.000000;0.466235
9047.000000;0.466436
9046.000000;0.466538
9045.000000;0.466452
9044.000000;0.466246
9043.000000;0.466089
9042.000000;0.466089
9041.000000;0.466260
9040.000000;0.466588
9039.000000;0.467027
9038.000000;0.467480
9037.000000;0.467888
9036.000000;0.468305
9035.000000;0.468783
9034.000000;0.469246
9033.000000;0.469570
9032.000000;0.469764
9031.000000;0.469940
9030.000000;0.470134
9029.000000;0.470275
9028.000000;0.470335
9027.000000;0.470405
9026.000000;0.470582
9025.000000;0.470866
9024.000000;0.471186
9023.000000;0.471470
9022.000000;0.471661
9021.000000;0.471731
9020.000000;0.471716
9019.000000;0.471682
9018.000000;0.471651
9017.000000;0.471612
9016.000000;0.471600
9015.000000;0.471709
9014.000000;0.472005
9013.000000;0.472452
9012.000000;0.472951
9011.000000;0.473403
9010.000000;0.473745
9009.000000;0.473976
9008.000000;0.474159
9007.000000;0.474351
9006.000000;0.474528
9005.000000;0.474595
9004.000000;0.474489
9003.000000;0.474265
9002.000000;0.474095
9001.000000;0.474208
9000.000000;0.474748
8999.000000;0.475611
8998.000000;0.476405
8997.000000;0.476706
8996.000000;0.476400
8995.000000;0.475783
8994.000000;0.475280
8993.000000;0.475096
8992.000000;0.475144
8991.000000;0.475246
8990.000000;0.475348
8989.000000;0.475529
8988.000000;0.475846
8987.000000;0.476217
8986.000000;0.476508
8985.000000;0.476671
8984.000000;0.476755
8983.000000;0.476782
8982.000000;0.476728
8981.000000;0.476651
8980.000000;0.476719
8979.000000;0.477032
8978.000000;0.477452
8977.000000;0.477727
8976.000000;0.477749
8975.000000;0.477638
8974.000000;0.477593
8973.000000;0.477737
8972.000000;0.478059
8971.000000;0.478428
8970.000000;0.478683
8969.000000;0.478767
8968.000000;0.478787
8967.000000;0.478866
8966.000000;0.478978
8965.000000;0.479015
8964.000000;0.478960
8963.000000;0.478905
8962.000000;0.478916
8961.000000;0.478988
8960.000000;0.479117
8959.000000;0.479303
8958.000000;0.479477
8957.000000;0.479547
8956.000000;0.479542
8955.000000;0.479598
8954.000000;0.479767
8953.000000;0.479934
8952.000000;0.479983
8951.000000;0.479948
8950.000000;0.479940
8949.000000;0.479988
8948.000000;0.480027
8947.000000;0.479985
8946.000000;0.479843
8945.000000;0.479644
8944.000000;0.479501
8943.000000;0.479542
8942.000000;0.479784
8941.000000;0.480090
8940.000000;0.480289
8939.000000;0.480314
8938.000000;0.480216
8937.000000;0.480076
8936.000000;0.479963
8935.000000;0.479920
8934.000000;0.479936
8933.000000;0.479955
8932.000000;0.479926
8931.000000;0.479864
8930.000000;0.479830
8929.000000;0.479890
8928.000000;0.480095
8927.000000;0.480449
8926.000000;0.480863
8925.000000;0.481170
8924.000000;0.481249
8923.000000;0.481124
8922.000000;0.480915
8921.000000;0.480723
8920.000000;0.480574
8919.000000;0.480485
8918.000000;0.480495
8917.000000;0.480635
8916.000000;0.480851
8915.000000;0.481002
8914.000000;0.480970
8913.000000;0.480789
8912.000000;0.480629
8911.000000;0.480628
8910.000000;0.480769
8909.000000;0.480939
8908.000000;0.481070
8907.000000;0.481153
8906.000000;0.481153
8905.000000;0.481018
8904.000000;0.480773
8903.000000;0.480548
8902.000000;0.480467
8901.000000;0.480559
8900.000000;0.480773
8899.000000;0.481000
8898.000000;0.481063
8897.000000;0.480800
8896.000000;0.480240
8895.000000;0.479664
8894.000000;0.479392
8893.000000;0.479499
8892.000000;0.479774
8891.000000;0.479947
8890.000000;0.479919
8889.000000;0.479799
8888.000000;0.479760
8887.000000;0.479882
8886.000000;0.480110
8885.000000;0.480301
8884.000000;0.480310
8883.000000;0.480068
8882.000000;0.479646
8881.000000;0.479258
8880.000000;0.479130
8879.000000;0.479300
8878.000000;0.479568
8877.000000;0.479710
8876.000000;0.479700
8875.000000;0.479675
8874.000000;0.479717
8873.000000;0.479767
8872.000000;0.479749
8871.000000;0.479674
8870.000000;0.479593
8869.000000;0.479540
8868.000000;0.479549
8867.000000;0.479655
8866.000000;0.479810
8865.000000;0.479879
8864.000000;0.479775
8863.000000;0.479566
8862.000000;0.479368
8861.000000;0.479192
8860.000000;0.478940
8859.000000;0.478569
8858.000000;0.478187
8857.000000;0.477958
8856.000000;0.477953
8855.000000;0.478100
8854.000000;0.478277
8853.000000;0.478442
8852.000000;0.478621
8851.000000;0.478787
8850.000000;0.478821
8849.000000;0.478646
8848.000000;0.478367
8847.000000;0.478180
8846.000000;0.478166
8845.000000;0.478230
8844.000000;0.478236
8843.000000;0.478129
8842.000000;0.477926
8841.000000;0.477707
8840.000000;0.477611
8839.000000;0.477741
8838.000000;0.478013
8837.000000;0.478194
8836.000000;0.478149
8835.000000;0.477981
8834.000000;0.477874
8833.000000;0.477885
8832.000000;0.477953
8831.000000;0.478027
8830.000000;0.478101
8829.000000;0.478146
8828.000000;0.478112
8827.000000;0.477980
8826.000000;0.477780
8825.000000;0.477565
8824.000000;0.477406
8823.000000;0.477371
8822.000000;0.477458
8821.000000;0.477574
8820.000000;0.477635
8819.000000;0.477637
8818.000000;0.477617
8817.000000;0.477584
8816.000000;0.477574
8815.000000;0.477693
8814.000000;0.478008
8813.000000;0.478393
8812.000000;0.478602
8811.000000;0.478514
8810.000000;0.478258
8809.000000;0.478048
8808.000000;0.477979
8807.000000;0.477999
8806.000000;0.478040
8805.000000;0.478108
8804.000000;0.478235
8803.000000;0.478401
8802.000000;0.478517
8801.000000;0.478491
8800.000000;0.478303
8799.000000;0.478010
8798.000000;0.477686
8797.000000;0.477374
8796.000000;0.477101
8795.000000;0.476905
8794.000000;0.476821
8793.000000;0.476868
8792.000000;0.477041
8791.000000;0.477298
8790.000000;0.477558
8789.000000;0.477741
8788.000000;0.477834
8787.000000;0.477867
8786.000000;0.477847
8785.000000;0.477752
8784.000000;0.477610
8783.000000;0.477499
8782.000000;0.477447
8781.000000;0.477379
8780.000000;0.477230
8779.000000;0.477069
8778.000000;0.477029
8777.000000;0.477161
8776.000000;0.477408
8775.000000;0.477696
8774.000000;0.477972
8773.000000;0.478168
8772.000000;0.478215
8771.000000;0.478114
8770.000000;0.477946
8769.000000;0.477808
8768.000000;0.477762
8767.000000;0.477844
8766.000000;0.478058
8765.000000;0.478322
8764.000000;0.478491
8763.000000;0.478466
8762.000000;0.478292
8761.000000;0.478122
8760.000000;0.478084
8759.000000;0.478197
8758.000000;0.478379
8757.000000;0.478523
8756.000000;0.478551
8755.000000;0.478449
8754.000000;0.478275
8753.000000;0.478142
8752.000000;0.478163
8751.000000;0.478354
8750.000000;0.478605
8749.000000;0.478779
8748.000000;0.478846
8747.000000;0.478879
8746.000000;0.478937
8745.000000;0.478982
8744.000000;0.478944
8743.000000;0.478809
8742.000000;0.478632
8741.000000;0.478503
8740.000000;0.478514
8739.000000;0.478683
8738.000000;0.478873
8737.000000;0.478851
8736.000000;0.478506
8735.000000;0.477996
8734.000000;0.477600
8733.000000;0.477464
8732.000000;0.477532
8731.000000;0.477684
8730.000000;0.477858
8729.000000;0.478035
8728.000000;0.478190
8727.000000;0.478296
8726.000000;0.478328
8725.000000;0.478255
8724.000000;0.478067
8723.000000;0.477833
8722.000000;0.477672
8721.000000;0.477672
8720.000000;0.477826
8719.000000;0.478060
8718.000000;0.478260
8717.000000;0.478315
8716.000000;0.478193
8715.000000;0.477989
8714.000000;0.477856
8713.000000;0.477854
8712.000000;0.477906
8711.000000;0.477909
8710.000000;0.477840
8709.000000;0.477729
8708.000000;0.477590
8707.000000;0.477431
8706.000000;0.477291
8705.000000;0.477206
8704.000000;0.477151
8703.000000;0.477079
8702.000000;0.476991
8701.000000;0.476946
8700.000000;0.476972
8699.000000;0.477014
8698.000000;0.476994
8697.000000;0.476896
8696.000000;0.476745
8695.000000;0.476531
8694.000000;0.476205
8693.000000;0.475789
8692.000000;0.475465
8691.000000;0.475467
8690.000000;0.475831
8689.000000;0.476292
8688.000000;0.476493
8687.000000;0.476301
8686.000000;0.475893
8685.000000;0.475532
8684.000000;0.475321
8683.000000;0.475179
8682.000000;0.474991
8681.000000;0.474746
8680.000000;0.474557
8679.000000;0.474574
8678.000000;0.474840
8677.000000;0.475183
8676.000000;0.475291
8675.000000;0.474965
8674.000000;0.474319
8673.000000;0.473700
8672.000000;0.473395
8671.000000;0.473420
8670.000000;0.473575
8669.000000;0.473635
8668.000000;0.473490
8667.000000;0.473161
8666.000000;0.472727
8665.000000;0.472265
8664.000000;0.471811
8663.000000;0.471380
8662.000000;0.470991
8661.000000;0.470660
8660.000000;0.470374
8659.000000;0.470096
8658.000000;0.469817
8657.000000;0.469568
8656.000000;0.469363
8655.000000;0.469159
8654.000000;0.468897
8653.000000;0.468588
8652.000000;0.468308
8651.000000;0.468112
8650.000000;0.467992
8649.000000;0.467895
8648.000000;0.467771
8647.000000;0.467574
8646.000000;0.467283
8645.000000;0.466942
8644.000000;0.466651
8643.000000;0.466476
8642.000000;0.466365
8641.000000;0.466182
8640.000000;0.465846
8639.000000;0.465422
8638.000000;0.465046
8637.000000;0.464799
8636.000000;0.464643
8635.000000;0.464484
8634.000000;0.464255
8633.000000;0.463946
8632.000000;0.463587
8631.000000;0.463217
8630.000000;0.462874
8629.000000;0.462566
8628.000000;0.462277
8627.000000;0.461991
8626.000000;0.461734
8625.000000;0.461537
8624.000000;0.461368
8623.000000;0.461129
8622.000000;0.460756
8621.000000;0.460311
8620.000000;0.459920
8619.000000;0.459631
8618.000000;0.459368
8617.000000;0.459038
8616.000000;0.458652
8615.000000;0.458312
8614.000000;0.458108
8613.000000;0.458014
8612.000000;0.457888
8611.000000;0.457571
8610.000000;0.457018
8609.000000;0.456362
8608.000000;0.455834
8607.000000;0.455593
8606.000000;0.455611
8605.000000;0.455684
8604.000000;0.455558
8603.000000;0.455095
8602.000000;0.454400
8601.000000;0.453773
8600.000000;0.453445
8599.000000;0.453360
8598.000000;0.453244
8597.000000;0.452928
8596.000000;0.452514
8595.000000;0.452197
8594.000000;0.451990
8593.000000;0.451718
8592.000000;0.451239
8591.000000;0.450587
8590.000000;0.449900
8589.000000;0.449315
8588.000000;0.448924
8587.000000;0.448758
8586.000000;0.448743
8585.000000;0.448703
8584.000000;0.448467
8583.000000;0.448006
8582.000000;0.447451
8581.000000;0.446966
8580.000000;0.446607
8579.000000;0.446322
8578.000000;0.446075
8577.000000;0.445922
8576.000000;0.445895
8575.000000;0.445857
8574.000000;0.445580
8573.000000;0.444998
8572.000000;0.444302
8571.000000;0.443729
8570.000000;0.443339
8569.000000;0.443061
8568.000000;0.442866
8567.000000;0.442741
8566.000000;0.442560
8565.000000;0.442128
8564.000000;0.441429
8563.000000;0.440696
8562.000000;0.440156
8561.000000;0.439790
8560.000000;0.439401
8559.000000;0.438890
8558.000000;0.438378
8557.000000;0.438068
8556.000000;0.438037
8555.000000;0.438148
8554.000000;0.438148
8553.000000;0.437864
8552.000000;0.437320
8551.000000;0.436684
8550.000000;0.436108
8549.000000;0.435640
8548.000000;0.435261
8547.000000;0.434958
8546.000000;0.434724
8545.000000;0.434528
8544.000000;0.434334
8543.000000;0.434131
8542.000000;0.433917
8541.000000;0.433682
8540.000000;0.433414
8539.000000;0.433113
8538.000000;0.432752
8537.000000;0.432268
8536.000000;0.431651
8535.000000;0.431031
8534.000000;0.430603
8533.000000;0.430426
8532.000000;0.430323
8531.000000;0.430036
8530.000000;0.429486
8529.000000;0.428847
8528.000000;0.428354
8527.000000;0.428078
8526.000000;0.427892
8525.000000;0.427633
8524.000000;0.427244
8523.000000;0.426792
8522.000000;0.426395
8521.000000;0.426135
8520.000000;0.425981
8519.000000;0.425776
8518.000000;0.425353
8517.000000;0.424695
8516.000000;0.423946
8515.000000;0.423267
8514.000000;0.422747
8513.000000;0.422437
8512.000000;0.422371
8511.000000;0.422454
8510.000000;0.422427
8509.000000;0.422086
8508.000000;0.421532
8507.000000;0.421069
8506.000000;0.420843
8505.000000;0.420688
8504.000000;0.420376
8503.000000;0.419895
8502.000000;0.419418
8501.000000;0.419076
8500.000000;0.418850
8499.000000;0.418647
8498.000000;0.418393
8497.000000;0.418047
8496.000000;0.417613
8495.000000;0.417144
8494.000000;0.416704
8493.000000;0.416306
8492.000000;0.415916
8491.000000;0.415529
8490.000000;0.415185
8489.000000;0.414901
8488.000000;0.414621
8487.000000;0.414283
8486.000000;0.413906
8485.000000;0.413574
8484.000000;0.413321
8483.000000;0.413081
8482.000000;0.412775
8481.000000;0.412405
8480.000000;0.412026
8479.000000;0.411631
8478.000000;0.411151
8477.000000;0.410594
8476.000000;0.410109
8475.000000;0.409848
8474.000000;0.409791
8473.000000;0.409764
8472.000000;0.409618
8471.000000;0.409341
8470.000000;0.409005
8469.000000;0.408668
8468.000000;0.408347
8467.000000;0.408032
8466.000000;0.407686
8465.000000;0.407265
8464.000000;0.406751
8463.000000;0.406177
8462.000000;0.405617
8461.000000;0.405152
8460.000000;0.404842
8459.000000;0.404675
8458.000000;0.404563
8457.000000;0.404402
8456.000000;0.404140
8455.000000;0.403779
8454.000000;0.403349
8453.000000;0.402926
8452.000000;0.402616
8451.000000;0.402442
8450.000000;0.402260
8449.000000;0.401874
8448.000000;0.401260
8447.000000;0.400592
8446.000000;0.400053
8445.000000;0.399679
8444.000000;0.399429
8443.000000;0.399292
8442.000000;0.399263
8441.000000;0.399264
8440.000000;0.399163
8439.000000;0.398878
8438.000000;0.398428
8437.000000;0.397904
8436.000000;0.397418
8435.000000;0.397046
8434.000000;0.396773
8433.000000;0.396523
8432.000000;0.396251
8431.000000;0.395992
8430.000000;0.395784
8429.000000;0.395619
8428.000000;0.395475
8427.000000;0.395343
8426.000000;0.395184
8425.000000;0.394932
8424.000000;0.394590
8423.000000;0.394268
8422.000000;0.394040
8421.000000;0.393809
8420.000000;0.393420
8419.000000;0.392888
8418.000000;0.392391
8417.000000;0.392029
8416.000000;0.391701
8415.000000;0.391249
8414.000000;0.390651
8413.000000;0.390036
8412.000000;0.389553
8411.000000;0.389281
8410.000000;0.389199
8409.000000;0.389187
8408.000000;0.389100
8407.000000;0.388885
8406.000000;0.388613
8405.000000;0.388369
8404.000000;0.388144
8403.000000;0.387868
8402.000000;0.387524
8401.000000;0.387156
8400.000000;0.386791
8399.000000;0.386399
8398.000000;0.385967
8397.000000;0.385554
8396.000000;0.385263
8395.000000;0.385158
8394.000000;0.385192
8393.000000;0.385211
8392.000000;0.385040
8391.000000;0.384623
8390.000000;0.384084
8389.000000;0.383616
8388.000000;0.383308
8387.000000;0.383087
8386.000000;0.382845
8385.000000;0.382562
8384.000000;0.382295
8383.000000;0.382068
8382.000000;0.381840
8381.000000;0.381578
8380.000000;0.381305
8379.000000;0.381051
8378.000000;0.380777
8377.000000;0.380393
8376.000000;0.379864
8375.000000;0.379288
8374.000000;0.378824
8373.000000;0.378545
8372.000000;0.378377
8371.000000;0.378201
8370.000000;0.377986
8369.000000;0.377797
8368.000000;0.377673
8367.000000;0.377548
8366.000000;0.377323
8365.000000;0.376981
8364.000000;0.376587
8363.000000;0.376208
8362.000000;0.375868
8361.000000;0.375572
8360.000000;0.375316
8359.000000;0.375074
8358.000000;0.374790
8357.000000;0.374436
8356.000000;0.374042
8355.000000;0.373697
8354.000000;0.373486
8353.000000;0.373438
8352.000000;0.373473
8351.000000;0.373429
8350.000000;0.373175
8349.000000;0.372729
8348.000000;0.372236
8347.000000;0.371831
8346.000000;0.371543
8345.000000;0.371335
8344.000000;0.371174
8343.000000;0.371039
8342.000000;0.370886
8341.000000;0.370673
8340.000000;0.370379
8339.000000;0.370005
8338.000000;0.369574
8337.000000;0.369156
8336.000000;0.368852
8335.000000;0.368687
8334.000000;0.368566
8333.000000;0.368377
8332.000000;0.368121
8331.000000;0.367887
8330.000000;0.367709
8329.000000;0.367522
8328.000000;0.367238
8327.000000;0.366814
8326.000000;0.366249
8325.000000;0.365594
8324.000000;0.364990
8323.000000;0.364612
8322.000000;0.364520
8321.000000;0.364578
8320.000000;0.364576
8319.000000;0.364418
8318.000000;0.364168
8317.000000;0.363946
8316.000000;0.363798
8315.000000;0.363674
8314.000000;0.363480
8313.000000;0.363158
8312.000000;0.362741
8311.000000;0.362347
8310.000000;0.362095
8309.000000;0.362025
8308.000000;0.362060
8307.000000;0.362066
8306.000000;0.361941
8305.000000;0.361692
8304.000000;0.361396
8303.000000;0.361096
8302.000000;0.360751
8301.000000;0.360322
8300.000000;0.359882
8299.000000;0.359567
8298.000000;0.359428
8297.000000;0.359372
8296.000000;0.359263
8295.000000;0.359045
8294.000000;0.358741
8293.000000;0.358398
8292.000000;0.358065
8291.000000;0.357785
8290.000000;0.357564
8289.000000;0.357356
8288.000000;0.357117
8287.000000;0.356849
8286.000000;0.356576
8285.000000;0.356302
8284.000000;0.356032
8283.000000;0.355815
8282.000000;0.355697
8281.000000;0.355647
8280.000000;0.355552
8279.000000;0.355319
8278.000000;0.354957
8277.000000;0.354559
8276.000000;0.354242
8275.000000;0.354081
8274.000000;0.354057
8273.000000;0.354056
8272.000000;0.353949
8271.000000;0.353708
8270.000000;0.353418
8269.000000;0.353166
8268.000000;0.352937
8267.000000;0.352659
8266.000000;0.352327
8265.000000;0.352019
8264.000000;0.351800
8263.000000;0.351636
8262.000000;0.351447
8261.000000;0.351218
8260.000000;0.351009
8259.000000;0.350859
8258.000000;0.350711
8257.000000;0.350479
8256.000000;0.350172
8255.000000;0.349907
8254.000000;0.349783
8253.000000;0.349771
8252.000000;0.349743
8251.000000;0.349598
8250.000000;0.349345
8249.000000;0.349071
8248.000000;0.348865
8247.000000;0.348762
8246.000000;0.348739
8245.000000;0.348730
8244.000000;0.348652
8243.000000;0.348453
8242.000000;0.348154
8241.000000;0.347830
8240.000000;0.347537
8239.000000;0.347257
8238.000000;0.346953
8237.000000;0.346657
8236.000000;0.346474
8235.000000;0.346455
8234.000000;0.346514
8233.000000;0.346497
8232.000000;0.346333
8231.000000;0.346076
8230.000000;0.345825
8229.000000;0.345632
8228.000000;0.345499
8227.000000;0.345408
8226.000000;0.345315
8225.000000;0.345166
8224.000000;0.344942
8223.000000;0.344693
8222.000000;0.344472
8221.000000;0.344271
8220.000000;0.344045
8219.000000;0.343792
8218.000000;0.343558
8217.000000;0.343366
8216.000000;0.343184
8215.000000;0.342983
8214.000000;0.342777
8213.000000;0.342593
8212.000000;0.342418
8211.000000;0.342211
8210.000000;0.341963
8209.000000;0.341702
8208.000000;0.341489
8207.000000;0.341403
8206.000000;0.341499
8205.000000;0.341709
8204.000000;0.341817
8203.000000;0.341620
8202.000000;0.341134
8201.000000;0.340594
8200.000000;0.340227
8199.000000;0.340066
8198.000000;0.339997
8197.000000;0.339931
8196.000000;0.339840
8195.000000;0.339701
8194.000000;0.339488
8193.000000;0.339236
8192.000000;0.339037
8191.000000;0.338941
8190.000000;0.338901
8189.000000;0.338848
8188.000000;0.338774
8187.000000;0.338718
8186.000000;0.338687
8185.000000;0.338635
8184.000000;0.338500
8183.000000;0.338281
8182.000000;0.338041
8181.000000;0.337865
8180.000000;0.337768
8179.000000;0.337682
8178.000000;0.337537
8177.000000;0.337361
8176.000000;0.337238
8175.000000;0.337172
8174.000000;0.337056
8173.000000;0.336803
8172.000000;0.336469
8171.000000;0.336196
8170.000000;0.336067
8169.000000;0.336056
8168.000000;0.336098
8167.000000;0.336149
8166.000000;0.336177
8165.000000;0.336159
8164.000000;0.336078
8163.000000;0.335936
8162.000000;0.335739
8161.000000;0.335519
8160.000000;0.335344
8159.000000;0.335294
8158.000000;0.335379
8157.000000;0.335494
8156.000000;0.335471
8155.000000;0.335204
8154.000000;0.334761
8153.000000;0.334353
8152.000000;0.334164
8151.000000;0.334173
8150.000000;0.334190
8149.000000;0.334075
8148.000000;0.333884
8147.000000;0.333777
8146.000000;0.333825
8145.000000;0.333963
8144.000000;0.334100
8143.000000;0.334169
8142.000000;0.334113
8141.000000;0.333891
8140.000000;0.333554
8139.000000;0.333241
8138.000000;0.333056
8137.000000;0.332974
8136.000000;0.332898
8135.000000;0.332785
8134.000000;0.332677
8133.000000;0.332623
8132.000000;0.332603
8131.000000;0.332537
8130.000000;0.332369
8129.000000;0.332130
8128.000000;0.331918
8127.000000;0.331804
8126.000000;0.331767
8125.000000;0.331738
8124.000000;0.331685
8123.000000;0.331627
8122.000000;0.331560
8121.000000;0.331435
8120.000000;0.331225
8119.000000;0.330971
8118.000000;0.330757
8117.000000;0.330635
8116.000000;0.330607
8115.000000;0.330636
8114.000000;0.330674
8113.000000;0.330667
8112.000000;0.330584
8111.000000;0.330433
8110.000000;0.330256
8109.000000;0.330115
8108.000000;0.330059
8107.000000;0.330085
8106.000000;0.330128
8105.000000;0.330114
8104.000000;0.330032
8103.000000;0.329951
8102.000000;0.329944
8101.000000;0.330009
8100.000000;0.330068
8099.000000;0.330031
8098.000000;0.329871
8097.000000;0.329644
8096.000000;0.329444
8095.000000;0.329325
8094.000000;0.329258
8093.000000;0.329177
8092.000000;0.329049
8091.000000;0.328885
8090.000000;0.328719
8089.000000;0.328599
8088.000000;0.328588
8087.000000;0.328690
8086.000000;0.328806
8085.000000;0.328812
8084.000000;0.328689
8083.000000;0.328547
8082.000000;0.328484
8081.000000;0.328474
8080.000000;0.328410
8079.000000;0.328227
8078.000000;0.327961
8077.000000;0.327716
8076.000000;0.327601
8075.000000;0.327649
8074.000000;0.327771
8073.000000;0.327824
8072.000000;0.327754
8071.000000;0.327643
8070.000000;0.327599
8069.000000;0.327633
8068.000000;0.327661
8067.000000;0.327598
8066.000000;0.327420
8065.000000;0.327164
8064.000000;0.326913
8063.000000;0.326758
8062.000000;0.326726
8061.000000;0.326761
8060.000000;0.326798
8059.000000;0.326830
8058.000000;0.326876
8057.000000;0.326902
8056.000000;0.326851
8055.000000;0.326734
8054.000000;0.326620
8053.000000;0.326546
8052.000000;0.326491
8051.000000;0.326449
8050.000000;0.326451
8049.000000;0.326489
8048.000000;0.326469
8047.000000;0.326317
8046.000000;0.326094
8045.000000;0.325950
8044.000000;0.325956
8043.000000;0.326033
8042.000000;0.326062
8041.000000;0.326022
8040.000000;0.325978
8039.000000;0.325965
8038.000000;0.325936
8037.000000;0.325843
8036.000000;0.325724
8035.000000;0.325666
8034.000000;0.325696
8033.000000;0.325742
8032.000000;0.325723
8031.000000;0.325643
8030.000000;0.325569
8029.000000;0.325540
8028.000000;0.325527
8027.000000;0.325478
8026.000000;0.325386
8025.000000;0.325304
8024.000000;0.325307
8023.000000;0.325415
8022.000000;0.325552
8021.000000;0.325591
8020.000000;0.325467
8019.000000;0.325243
8018.000000;0.325050
8017.000000;0.324966
8016.000000;0.324977
8015.000000;0.325028
8014.000000;0.325071
8013.000000;0.325065
8012.000000;0.324998
8011.000000;0.324910
8010.000000;0.324874
8009.000000;0.324916
8008.000000;0.324963
8007.000000;0.324928
8006.000000;0.324824
8005.000000;0.324751
8004.000000;0.324768
8003.000000;0.324809
8002.000000;0.324767
8001.000000;0.324638
8000.000000;0.324517
7999.000000;0.324475
7998.000000;0.324469
7997.000000;0.324419
7996.000000;0.324338
7995.000000;0.324318
7994.000000;0.324398
7993.000000;0.324503
7992.000000;0.324533
7991.000000;0.324477
7990.000000;0.324390
7989.000000;0.324292
7988.000000;0.324155
7987.000000;0.323980
7986.000000;0.323841
7985.000000;0.323824
7984.000000;0.323929
7983.000000;0.324073
7982.000000;0.324168
7981.000000;0.324185
7980.000000;0.324160
7979.000000;0.324146
7978.000000;0.324158
7977.000000;0.324151
7976.000000;0.324072
7975.000000;0.323923
7974.000000;0.323766
7973.000000;0.323662
7972.000000;0.323624
7971.000000;0.323646
7970.000000;0.323734
7969.000000;0.323887
7968.000000;0.324033
7967.000000;0.324061
7966.000000;0.323921
7965.000000;0.323690
7964.000000;0.323503
7963.000000;0.323438
7962.000000;0.323475
7961.000000;0.323553
7960.000000;0.323623
7959.000000;0.323648
7958.000000;0.323591
7957.000000;0.323440
7956.000000;0.323239
7955.000000;0.323088
7954.000000;0.323077
7953.000000;0.323206
7952.000000;0.323377
7951.000000;0.323457
7950.000000;0.323398
7949.000000;0.323278
7948.000000;0.323204
7947.000000;0.323192
7946.000000;0.323162
7945.000000;0.323062
7944.000000;0.322953
7943.000000;0.322942
7942.000000;0.323038
7941.000000;0.323143
7940.000000;0.323162
7939.000000;0.323102
7938.000000;0.323041
7937.000000;0.323034
7936.000000;0.323083
7935.000000;0.323158
7934.000000;0.323234
7933.000000;0.323289
7932.000000;0.323305
7931.000000;0.323272
7930.000000;0.323205
7929.000000;0.323158
7928.000000;0.323195
7927.000000;0.323328
7926.000000;0.323481
7925.000000;0.323554
7924.000000;0.323508
7923.000000;0.323392
7922.000000;0.323277
7921.000000;0.323195
7920.000000;0.323142
7919.000000;0.323107
7918.000000;0.323067
7917.000000;0.322989
7916.000000;0.322872
7915.000000;0.322765
7914.000000;0.322731
7913.000000;0.322781
7912.000000;0.322858
7911.000000;0.322910
7910.000000;0.322937
7909.000000;0.322985
7908.000000;0.323082
7907.000000;0.323199
7906.000000;0.323275
7905.000000;0.323288
7904.000000;0.323282
7903.000000;0.323302
7902.000000;0.323329
7901.000000;0.323306
7900.000000;0.323217
7899.000000;0.323122
7898.000000;0.323077
7897.000000;0.323077
7896.000000;0.323077
7895.000000;0.323063
7894.000000;0.323042
7893.000000;0.323021
7892.000000;0.323000
7891.000000;0.322993
7890.000000;0.323017
7889.000000;0.323053
7888.000000;0.323060
7887.000000;0.323021
7886.000000;0.322974
7885.000000;0.322986
7884.000000;0.323105
7883.000000;0.323306
7882.000000;0.323482
7881.000000;0.323518
7880.000000;0.323409
7879.000000;0.323278
7878.000000;0.323253
7877.000000;0.323326
7876.000000;0.323387
7875.000000;0.323360
7874.000000;0.323269
7873.000000;0.323178
7872.000000;0.323119
7871.000000;0.323094
7870.000000;0.323110
7869.000000;0.323176
7868.000000;0.323302
7867.000000;0.323483
7866.000000;0.323687
7865.000000;0.323845
7864.000000;0.323894
7863.000000;0.323831
7862.000000;0.323704
7861.000000;0.323567
7860.000000;0.323468
7859.000000;0.323464
7858.000000;0.323567
7857.000000;0.323692
7856.000000;0.323714
7855.000000;0.323617
7854.000000;0.323521
7853.000000;0.323528
7852.000000;0.323601
7851.000000;0.323633
7850.000000;0.323592
7849.000000;0.323541
7848.000000;0.323548
7847.000000;0.323627
7846.000000;0.323753
7845.000000;0.323869
7844.000000;0.323912
7843.000000;0.323890
7842.000000;0.323904
7841.000000;0.324029
7840.000000;0.324203
7839.000000;0.324299
7838.000000;0.324308
7837.000000;0.324357
7836.000000;0.324526
7835.000000;0.324736
7834.000000;0.324862
7833.000000;0.324877
7832.000000;0.324846
7831.000000;0.324819
7830.000000;0.324803
7829.000000;0.324805
7828.000000;0.324833
7827.000000;0.324868
7826.000000;0.324882
7825.000000;0.324891
7824.000000;0.324931
7823.000000;0.325002
7822.000000;0.325065
7821.000000;0.325091
7820.000000;0.325078
7819.000000;0.325036
7818.000000;0.324991
7817.000000;0.325000
7816.000000;0.325106
7815.000000;0.325258
7814.000000;0.325347
7813.000000;0.325323
7812.000000;0.325254
7811.000000;0.325244
7810.000000;0.325325
7809.000000;0.325449
7808.000000;0.325562
7807.000000;0.325639
7806.000000;0.325679
7805.000000;0.325697
7804.000000;0.325720
7803.000000;0.325755
7802.000000;0.325787
7801.000000;0.325812
7800.000000;0.325852
7799.000000;0.325919
7798.000000;0.325981
7797.000000;0.326001
7796.000000;0.325986
7795.000000;0.325982
7794.000000;0.326016
7793.000000;0.326086
7792.000000;0.326189
7791.000000;0.326323
7790.000000;0.326463
7789.000000;0.326571
7788.000000;0.326643
7787.000000;0.326698
7786.000000;0.326733
7785.000000;0.326721
7784.000000;0.326670
7783.000000;0.326640
7782.000000;0.326674
7781.000000;0.326755
7780.000000;0.326862
7779.000000;0.327013
7778.000000;0.327213
7777.000000;0.327391
7776.000000;0.327458
7775.000000;0.327420
7774.000000;0.327394
7773.000000;0.327485
7772.000000;0.327678
7771.000000;0.327871
7770.000000;0.327978
7769.000000;0.327987
7768.000000;0.327951
7767.000000;0.327942
7766.000000;0.328004
7765.000000;0.328124
7764.000000;0.328252
7763.000000;0.328362
7762.000000;0.328468
7761.000000;0.328594
7760.000000;0.328728
7759.000000;0.328843
7758.000000;0.328933
7757.000000;0.329016
7756.000000;0.329101
7755.000000;0.329166
7754.000000;0.329183
7753.000000;0.329157
7752.000000;0.329130
7751.000000;0.329161
7750.000000;0.329283
7749.000000;0.329479
7748.000000;0.329682
7747.000000;0.329825
7746.000000;0.329890
7745.000000;0.329922
7744.000000;0.329976
7743.000000;0.330075
7742.000000;0.330206
7741.000000;0.330349
7740.000000;0.330489
7739.000000;0.330596
7738.000000;0.330631
7737.000000;0.330591
7736.000000;0.330517
7735.000000;0.330463
7734.000000;0.330456
7733.000000;0.330498
7732.000000;0.330595
7731.000000;0.330754
7730.000000;0.330964
7729.000000;0.331194
7728.000000;0.331417
7727.000000;0.331610
7726.000000;0.331745
7725.000000;0.331805
7724.000000;0.331821
7723.000000;0.331852
7722.000000;0.331920
7721.000000;0.331993
7720.000000;0.332042
7719.000000;0.332098
7718.000000;0.332204
7717.000000;0.332355
7716.000000;0.332507
7715.000000;0.332631
7714.000000;0.332716
7713.000000;0.332752
7712.000000;0.332754
7711.000000;0.332780
7710.000000;0.332894
7709.000000;0.333085
7708.000000;0.333276
7707.000000;0.333417
7706.000000;0.333528
7705.000000;0.333650
7704.000000;0.333791
7703.000000;0.333948
7702.000000;0.334132
7701.000000;0.334333
7700.000000;0.334499
7699.000000;0.334590
7698.000000;0.334634
7697.000000;0.334688
7696.000000;0.334748
7695.000000;0.334759
7694.000000;0.334714
7693.000000;0.334703
7692.000000;0.334831
7691.000000;0.335091
7690.000000;0.335367
7689.000000;0.335559
7688.000000;0.335679
7687.000000;0.335822
7686.000000;0.336043
7685.000000;0.336295
7684.000000;0.336492
7683.000000;0.336619
7682.000000;0.336752
7681.000000;0.336954
7680.000000;0.337198
7679.000000;0.337408
7678.000000;0.337544
7677.000000;0.337629
7676.000000;0.337686
7675.000000;0.337709
7674.000000;0.337703
7673.000000;0.337705
7672.000000;0.337750
7671.000000;0.337845
7670.000000;0.337983
7669.000000;0.338162
7668.000000;0.338366
7667.000000;0.338547
7666.000000;0.338686
7665.000000;0.338840
7664.000000;0.339091
7663.000000;0.339432
7662.000000;0.339747
7661.000000;0.339931
7660.000000;0.339993
7659.000000;0.340024
7658.000000;0.340082
7657.000000;0.340163
7656.000000;0.340251
7655.000000;0.340369
7654.000000;0.340551
7653.000000;0.340805
7652.000000;0.341109
7651.000000;0.341430
7650.000000;0.341729
7649.000000;0.341966
7648.000000;0.342122
7647.000000;0.342217
7646.000000;0.342307
7645.000000;0.342448
7644.000000;0.342659
7643.000000;0.342911
7642.000000;0.343147
7641.000000;0.343339
7640.000000;0.343511
7639.000000;0.343690
7638.000000;0.343848
7637.000000;0.343916
7636.000000;0.343889
7635.000000;0.343868
7634.000000;0.343970
7633.000000;0.344204
7632.000000;0.344483
7631.000000;0.344748
7630.000000;0.345035
7629.000000;0.345400
7628.000000;0.345817
7627.000000;0.346184
7626.000000;0.346427
7625.000000;0.346561
7624.000000;0.346661
7623.000000;0.346784
7622.000000;0.346950
7621.000000;0.347156
7620.000000;0.347395
7619.000000;0.347655
7618.000000;0.347923
7617.000000;0.348204
7616.000000;0.348513
7615.000000;0.348839
7614.000000;0.349140
7613.000000;0.349375
7612.000000;0.349543
7611.000000;0.349671
7610.000000;0.349781
7609.000000;0.349898
7608.000000;0.350066
7607.000000;0.350321
7606.000000;0.350637
7605.000000;0.350934
7604.000000;0.351163
7603.000000;0.351346
7602.000000;0.351539
7601.000000;0.351775
7600.000000;0.352055
7599.000000;0.352371
7598.000000;0.352687
7597.000000;0.352962
7596.000000;0.353194
7595.000000;0.353448
7594.000000;0.353774
7593.000000;0.354130
7592.000000;0.354428
7591.000000;0.354636
7590.000000;0.354799
7589.000000;0.354958
7588.000000;0.355106
7587.000000;0.355241
7586.000000;0.355410
7585.000000;0.355653
7584.000000;0.355945
7583.000000;0.356223
7582.000000;0.356461
7581.000000;0.356694
7580.000000;0.356964
7579.000000;0.357274
7578.000000;0.357608
7577.000000;0.357954
7576.000000;0.358312
7575.000000;0.358671
7574.000000;0.359009
7573.000000;0.359316
7572.000000;0.359597
7571.000000;0.359863
7570.000000;0.360128
7569.000000;0.360423
7568.000000;0.360785
7567.000000;0.361204
7566.000000;0.361590
7565.000000;0.361853
7564.000000;0.362012
7563.000000;0.362185
7562.000000;0.362457
7561.000000;0.362800
7560.000000;0.363138
7559.000000;0.363453
7558.000000;0.363771
7557.000000;0.364083
7556.000000;0.364358
7555.000000;0.364615
7554.000000;0.364921
7553.000000;0.365309
7552.000000;0.365737
7551.000000;0.366138
7550.000000;0.366481
7549.000000;0.366763
7548.000000;0.366999
7547.000000;0.367235
7546.000000;0.367532
7545.000000;0.367905
7544.000000;0.368310
7543.000000;0.368695
7542.000000;0.369041
7541.000000;0.369351
7540.000000;0.369618
7539.000000;0.369853
7538.000000;0.370105
7537.000000;0.370423
7536.000000;0.370811
7535.000000;0.371220
7534.000000;0.371599
7533.000000;0.371934
7532.000000;0.372251
7531.000000;0.372604
7530.000000;0.373036
7529.000000;0.373540
7528.000000;0.374056
7527.000000;0.374510
7526.000000;0.374861
7525.000000;0.375131
7524.000000;0.375391
7523.000000;0.375704
7522.000000;0.376075
7521.000000;0.376447
7520.000000;0.376768
7519.000000;0.377050
7518.000000;0.377346
7517.000000;0.377685
7516.000000;0.378060
7515.000000;0.378467
7514.000000;0.378906
7513.000000;0.379350
7512.000000;0.379741
7511.000000;0.380054
7510.000000;0.380329
7509.000000;0.380640
7508.000000;0.381028
7507.000000;0.381476
7506.000000;0.381930
7505.000000;0.382337
7504.000000;0.382699
7503.000000;0.383069
7502.000000;0.383497
7501.000000;0.383970
7500.000000;0.384423
7499.000000;0.384821
7498.000000;0.385189
7497.000000;0.385581
7496.000000;0.386030
7495.000000;0.386528
7494.000000;0.387019
7493.000000;0.387460
7492.000000;0.387800
7491.000000;0.388137
7490.000000;0.388521
7489.000000;0.388920
7488.000000;0.389309
7487.000000;0.389678
7486.000000;0.390042
7485.000000;0.390385
7484.000000;0.390696
7483.000000;0.391008
7482.000000;0.391371
7481.000000;0.391780
7480.000000;0.392195
7479.000000;0.392619
7478.000000;0.393083
7477.000000;0.393566
7476.000000;0.393994
7475.000000;0.394343
7474.000000;0.394666
7473.000000;0.395015
7472.000000;0.395393
7471.000000;0.395794
7470.000000;0.396231
7469.000000;0.396682
7468.000000;0.397099
7467.000000;0.397487
7466.000000;0.397912
7465.000000;0.398390
7464.000000;0.398858
7463.000000;0.399275
7462.000000;0.399688
7461.000000;0.400145
7460.000000;0.400598
7459.000000;0.400972
7458.000000;0.401272
7457.000000;0.401549
7456.000000;0.401820
7455.000000;0.402070
7454.000000;0.402318
7453.000000;0.402623
7452.000000;0.403039
7451.000000;0.403572
7450.000000;0.404172
7449.000000;0.404747
7448.000000;0.405239
7447.000000;0.405693
7446.000000;0.406206
7445.000000;0.406781
7444.000000;0.407294
7443.000000;0.407643
7442.000000;0.407875
7441.000000;0.408118
7440.000000;0.408448
7439.000000;0.408869
7438.000000;0.409357
7437.000000;0.409871
7436.000000;0.410348
7435.000000;0.410748
7434.000000;0.411091
7433.000000;0.411418
7432.000000;0.411739
7431.000000;0.412069
7430.000000;0.412452
7429.000000;0.412906
7428.000000;0.413385
7427.000000;0.413823
7426.000000;0.414197
7425.000000;0.414531
7424.000000;0.414870
7423.000000;0.415256
7422.000000;0.415697
7421.000000;0.416164
7420.000000;0.416622
7419.000000;0.417055
7418.000000;0.417457
7417.000000;0.417800
7416.000000;0.418079
7415.000000;0.418359
7414.000000;0.418710
7413.000000;0.419121
7412.000000;0.419510
7411.000000;0.419861
7410.000000;0.420241
7409.000000;0.420661
7408.000000;0.421024
7407.000000;0.421277
7406.000000;0.421509
7405.000000;0.421828
7404.000000;0.422232
7403.000000;0.422642
7402.000000;0.423051
7401.000000;0.423518
7400.000000;0.424043
7399.000000;0.424566
7398.000000;0.425065
7397.000000;0.425498
7396.000000;0.425775
7395.000000;0.425935
7394.000000;0.426125
7393.000000;0.426337
7392.000000;0.426373
7391.000000;0.426180
7390.000000;0.426076
7389.000000;0.426436
7388.000000;0.427266
7387.000000;0.428253
7386.000000;0.429109
7385.000000;0.429713
7384.000000;0.430104
7383.000000;0.430427
7382.000000;0.430797
7381.000000;0.431184
7380.000000;0.431496
7379.000000;0.431748
7378.000000;0.432035
7377.000000;0.432358
7376.000000;0.432665
7375.000000;0.433032
7374.000000;0.433595
7373.000000;0.434283
7372.000000;0.434798
7371.000000;0.434917
7370.000000;0.434787
7369.000000;0.434749
7368.000000;0.434985
7367.000000;0.435502
7366.000000;0.436269
7365.000000;0.437084
7364.000000;0.437601
7363.000000;0.437716
7362.000000;0.437663
7361.000000;0.437805
7360.000000;0.438371
7359.000000;0.439288
7358.000000;0.440151
7357.000000;0.440527
7356.000000;0.440419
7355.000000;0.440334
7354.000000;0.440839
7353.000000;0.441951
7352.000000;0.443113
7351.000000;0.443749
7350.000000;0.443796
7349.000000;0.443664
7348.000000;0.443818
7347.000000;0.444356
7346.000000;0.444936
7345.000000;0.445188
7344.000000;0.445198
7343.000000;0.445558
7342.000000;0.446688
7341.000000;0.448227
7340.000000;0.449365
7339.000000;0.449755
7338.000000;0.449835
7337.000000;0.450088
7336.000000;0.450520
7335.000000;0.450958
7334.000000;0.451378
7333.000000;0.451885
7332.000000;0.452580
7331.000000;0.453353
7330.000000;0.453907
7329.000000;0.454123
7328.000000;0.454288
7327.000000;0.454764
7326.000000;0.455519
7325.000000;0.456173
7324.000000;0.456409
7323.000000;0.456384
7322.000000;0.456656
7321.000000;0.457616
7320.000000;0.459046
7319.000000;0.460384
7318.000000;0.461380
7317.000000;0.462212
7316.000000;0.463038
7315.000000;0.463766
7314.000000;0.464239
7313.000000;0.464573
7312.000000;0.465187
7311.000000;0.466285
7310.000000;0.467493
7309.000000;0.468219
7308.000000;0.468279
7307.000000;0.468088
7306.000000;0.468266
7305.000000;0.469183
7304.000000;0.470688
7303.000000;0.472116
7302.000000;0.472893
7301.000000;0.473094
7300.000000;0.473333
7299.000000;0.474210
7298.000000;0.475753
7297.000000;0.477390
7296.000000;0.478448
7295.000000;0.478845
7294.000000;0.479216
7293.000000;0.480254
7292.000000;0.482083
7291.000000;0.484192
7290.000000;0.485982
7289.000000;0.487358
7288.000000;0.488634
7287.000000;0.489940
7286.000000;0.491021
7285.000000;0.491719
7284.000000;0.492346
7283.000000;0.493251
7282.000000;0.494444
7281.000000;0.495742
7280.000000;0.497052
7279.000000;0.498428
7278.000000;0.499871
7277.000000;0.501292
7276.000000;0.502692
7275.000000;0.504161
7274.000000;0.505706
7273.000000;0.507297
7272.000000;0.508939
7271.000000;0.510576
7270.000000;0.512048
7269.000000;0.513306
7268.000000;0.514529
7267.000000;0.515929
7266.000000;0.517552
7265.000000;0.519370
7264.000000;0.521406
7263.000000;0.523610
7262.000000;0.525734
7261.000000;0.527572
7260.000000;0.529207
7259.000000;0.530843
7258.000000;0.532573
7257.000000;0.534398
7256.000000;0.536375
7255.000000;0.538577
7254.000000;0.540954
7253.000000;0.543343
7252.000000;0.545560
7251.000000;0.547586
7250.000000;0.549545
7249.000000;0.551502
7248.000000;0.553578
7247.000000;0.555935
7246.000000;0.558493
7245.000000;0.560932
7244.000000;0.563117
7243.000000;0.565276
7242.000000;0.567736
7241.000000;0.570577
7240.000000;0.573565
7239.000000;0.576324
7238.000000;0.578704
7237.000000;0.581016
7236.000000;0.583722
7235.000000;0.586906
7234.000000;0.590211
7233.000000;0.593239
7232.000000;0.595857
7231.000000;0.598357
7230.000000;0.601116
7229.000000;0.604078
7228.000000;0.607056
7227.000000;0.610119
7226.000000;0.613351
7225.000000;0.616648
7224.000000;0.619929
7223.000000;0.623203
7222.000000;0.626399
7221.000000;0.629451
7220.000000;0.632565
7219.000000;0.636030
7218.000000;0.639814
7217.000000;0.643588
7216.000000;0.647126
7215.000000;0.650504
7214.000000;0.653980
7213.000000;0.657783
7212.000000;0.661931
7211.000000;0.666245
7210.000000;0.670532
7209.000000;0.674760
7208.000000;0.679070
7207.000000;0.683533
7206.000000;0.687974
7205.000000;0.692242
7204.000000;0.696473
7203.000000;0.700864
7202.000000;0.705342
7201.000000;0.709716
7200.000000;0.714013
7199.000000;0.718397
7198.000000;0.722929
7197.000000;0.727591
7196.000000;0.732411
7195.000000;0.737375
7194.000000;0.742344
7193.000000;0.747263
7192.000000;0.752256
7191.000000;0.757420
7190.000000;0.762640
7189.000000;0.767810
7188.000000;0.772993
7187.000000;0.778197
7186.000000;0.783266
7185.000000;0.788097
7184.000000;0.792839
7183.000000;0.797743
7182.000000;0.802940
7181.000000;0.808487
7180.000000;0.814490
7179.000000;0.820855
7178.000000;0.827092
7177.000000;0.832804
7176.000000;0.838253
7175.000000;0.843971
7174.000000;0.850082
7173.000000;0.856312
7172.000000;0.862408
7171.000000;0.868373
7170.000000;0.874290
7169.000000;0.880218
7168.000000;0.886131
7167.000000;0.891888
7166.000000;0.897503
7165.000000;0.903200
7164.000000;0.909071
7163.000000;0.914875
7162.000000;0.920432
7161.000000;0.926088
7160.000000;0.932488
7159.000000;0.939774
7158.000000;0.947276
7157.000000;0.954203
7156.000000;0.960461
7155.000000;0.966492
7154.000000;0.972625
7153.000000;0.978890
7152.000000;0.985139
7151.000000;0.991300
7150.000000;0.997565
7149.000000;1.004165
7148.000000;1.010898
7147.000000;1.017217
7146.000000;1.022902
7145.000000;1.028472
7144.000000;1.034748
7143.000000;1.041910
7142.000000;1.049253
7141.000000;1.056010
7140.000000;1.062204
7139.000000;1.068427
7138.000000;1.075037
7137.000000;1.081841
7136.000000;1.088438
7135.000000;1.094622
7134.000000;1.100437
7133.000000;1.106099
7132.000000;1.111827
7131.000000;1.117646
7130.000000;1.123482
7129.000000;1.129339
7128.000000;1.135346
7127.000000;1.141582
7126.000000;1.147975
7125.000000;1.154463
7124.000000;1.161092
7123.000000;1.167826
7122.000000;1.174400
7121.000000;1.180478
7120.000000;1.185962
7119.000000;1.191057
7118.000000;1.196145
7117.000000;1.201671
7116.000000;1.207919
7115.000000;1.214608
7114.000000;1.220952
7113.000000;1.226452
7112.000000;1.231448
7111.000000;1.236650
7110.000000;1.242317
7109.000000;1.248117
7108.000000;1.253632
7107.000000;1.258741
7106.000000;1.263656
7105.000000;1.268709
7104.000000;1.273922
7103.000000;1.278949
7102.000000;1.283527
7101.000000;1.287879
7100.000000;1.292608
7099.000000;1.298053
7098.000000;1.303790
7097.000000;1.309050
7096.000000;1.313555
7095.000000;1.317714
7094.000000;1.322056
7093.000000;1.326671
7092.000000;1.331244
7091.000000;1.335491
7090.000000;1.339466
7089.000000;1.343506
7088.000000;1.347896
7087.000000;1.352575
7086.000000;1.357166
7085.000000;1.361263
7084.000000;1.364683
7083.000000;1.367560
7082.000000;1.370340
7081.000000;1.373597
7080.000000;1.377680
7079.000000;1.382442
7078.000000;1.387355
7077.000000;1.391967
7076.000000;1.396153
7075.000000;1.399875
7074.000000;1.403094
7073.000000;1.406018
7072.000000;1.409063
7071.000000;1.412359
7070.000000;1.415625
7069.000000;1.418727
7068.000000;1.422001
7067.000000;1.425730
7066.000000;1.429641
7065.000000;1.433202
7064.000000;1.436162
7063.000000;1.438591
7062.000000;1.440681
7061.000000;1.442732
7060.000000;1.445110
7059.000000;1.447973
7058.000000;1.451089
7057.000000;1.454160
7056.000000;1.457099
7055.000000;1.459750
7054.000000;1.461812
7053.000000;1.463443
7052.000000;1.465458
7051.000000;1.468394
7050.000000;1.471747
7049.000000;1.474599
7048.000000;1.476729
7047.000000;1.478615
7046.000000;1.480599
7045.000000;1.482676
7044.000000;1.484931
7043.000000;1.487502
7042.000000;1.490098
7041.000000;1.492124
7040.000000;1.493415
7039.000000;1.494409
7038.000000;1.495531
7037.000000;1.496869
7036.000000;1.498511
7035.000000;1.500665
7034.000000;1.503224
7033.000000;1.505637
7032.000000;1.507462
7031.000000;1.508837
7030.000000;1.510204
7029.000000;1.511781
7028.000000;1.513521
7027.000000;1.515347
7026.000000;1.517156
7025.000000;1.518669
7024.000000;1.519569
7023.000000;1.519946
7022.000000;1.520405
7021.000000;1.521511
7020.000000;1.523103
7019.000000;1.524434
7018.000000;1.525134
7017.000000;1.525785
7016.000000;1.527196
7015.000000;1.529282
7014.000000;1.531123
7013.000000;1.532124
7012.000000;1.532663
7011.000000;1.533431
7010.000000;1.534584
7009.000000;1.535794
7008.000000;1.536836
7007.000000;1.537782
7006.000000;1.538802
7005.000000;1.539990
7004.000000;1.541292
7003.000000;1.542446
7002.000000;1.543131
7001.000000;1.543307
7000.000000;1.543264
6999.000000;1.543359
6998.000000;1.543918
6997.000000;1.545275
6996.000000;1.547454
6995.000000;1.549716
6994.000000;1.550885
6993.000000;1.550470
6992.000000;1.549237
6991.000000;1.548440
6990.000000;1.548703
6989.000000;1.549794
6988.000000;1.551129
6987.000000;1.552258
6986.000000;1.553091
6985.000000;1.553834
6984.000000;1.554654
6983.000000;1.555425
6982.000000;1.555885
6981.000000;1.555947
6980.000000;1.555605
6979.000000;1.554722
6978.000000;1.553405
6977.000000;1.552469
6976.000000;1.552912
6975.000000;1.554711
6974.000000;1.556559
6973.000000;1.557089
6972.000000;1.556088
6971.000000;1.554370
6970.000000;1.552979
6969.000000;1.552713
6968.000000;1.553848
6967.000000;1.555856
6966.000000;1.557721
6965.000000;1.558823
6964.000000;1.559314
6963.000000;1.559510
6962.000000;1.559390
6961.000000;1.558932
6960.000000;1.558470
6959.000000;1.558284
6958.000000;1.558147
6957.000000;1.557626
6956.000000;1.556627
6955.000000;1.555397
6954.000000;1.554293
6953.000000;1.553693
6952.000000;1.553811
6951.000000;1.554389
6950.000000;1.554907
6949.000000;1.555261
6948.000000;1.555809
6947.000000;1.556578
6946.000000;1.556956
6945.000000;1.556477
6944.000000;1.555410
6943.000000;1.554226
6942.000000;1.552954
6941.000000;1.551485
6940.000000;1.550093
6939.000000;1.549138
6938.000000;1.548548
6937.000000;1.548007
6936.000000;1.547448
6935.000000;1.547050
6934.000000;1.546992
6933.000000;1.547429
6932.000000;1.548376
6931.000000;1.549308
6930.000000;1.549315
6929.000000;1.548089
6928.000000;1.546463
6927.000000;1.545500
6926.000000;1.545317
6925.000000;1.545194
6924.000000;1.544618
6923.000000;1.543796
6922.000000;1.543271
6921.000000;1.543317
6920.000000;1.543743
6919.000000;1.544104
6918.000000;1.544085
6917.000000;1.543658
6916.000000;1.542849
6915.000000;1.541500
6914.000000;1.539566
6913.000000;1.537495
6912.000000;1.535889
6911.000000;1.534846
6910.000000;1.534083
6909.000000;1.533633
6908.000000;1.533780
6907.000000;1.534249
6906.000000;1.534199
6905.000000;1.533283
6904.000000;1.532109
6903.000000;1.531366
6902.000000;1.531098
6901.000000;1.531092
6900.000000;1.531296
6899.000000;1.531482
6898.000000;1.531132
6897.000000;1.530102
6896.000000;1.528941
6895.000000;1.528113
6894.000000;1.527442
6893.000000;1.526682
6892.000000;1.526062
6891.000000;1.525810
6890.000000;1.525635
6889.000000;1.525198
6888.000000;1.524620
6887.000000;1.524006
6886.000000;1.522985
6885.000000;1.521342
6884.000000;1.519661
6883.000000;1.518679
6882.000000;1.518350
6881.000000;1.518161
6880.000000;1.518027
6879.000000;1.518199
6878.000000;1.518503
6877.000000;1.518389
6876.000000;1.517702
6875.000000;1.516774
6874.000000;1.515832
6873.000000;1.514827
6872.000000;1.513749
6871.000000;1.512607
6870.000000;1.511187
6869.000000;1.509370
6868.000000;1.507603
6867.000000;1.506497
6866.000000;1.505988
6865.000000;1.505398
6864.000000;1.504397
6863.000000;1.503424
6862.000000;1.503029
6861.000000;1.503196
6860.000000;1.503423
6859.000000;1.503213
6858.000000;1.502375
6857.000000;1.501085
6856.000000;1.499739
6855.000000;1.498629
6854.000000;1.497736
6853.000000;1.496849
6852.000000;1.495726
6851.000000;1.494114
6850.000000;1.491902
6849.000000;1.489421
6848.000000;1.487303
6847.000000;1.485816
6846.000000;1.484617
6845.000000;1.483351
6844.000000;1.482184
6843.000000;1.481381
6842.000000;1.480693
6841.000000;1.479593
6840.000000;1.477976
6839.000000;1.476250
6838.000000;1.474858
6837.000000;1.474021
6836.000000;1.473731
6835.000000;1.473632
6834.000000;1.473024
6833.000000;1.471381
6832.000000;1.468817
6831.000000;1.465873
6830.000000;1.463015
6829.000000;1.460506
6828.000000;1.458455
6827.000000;1.456709
6826.000000;1.454934
6825.000000;1.453077
6824.000000;1.451449
6823.000000;1.450080
6822.000000;1.448396
6821.000000;1.445934
6820.000000;1.443036
6819.000000;1.440385
6818.000000;1.438155
6817.000000;1.436083
6816.000000;1.434090
6815.000000;1.432260
6814.000000;1.430401
6813.000000;1.428230
6812.000000;1.425897
6811.000000;1.423756
6810.000000;1.421691
6809.000000;1.419262
6808.000000;1.416494
6807.000000;1.413976
6806.000000;1.412046
6805.000000;1.410380
6804.000000;1.408507
6803.000000;1.406287
6802.000000;1.403742
6801.000000;1.400838
6800.000000;1.397664
6799.000000;1.394508
6798.000000;1.391527
6797.000000;1.388568
6796.000000;1.385487
6795.000000;1.382462
6794.000000;1.379812
6793.000000;1.377628
6792.000000;1.375691
6791.000000;1.373656
6790.000000;1.371312
6789.000000;1.368734
6788.000000;1.366190
6787.000000;1.363831
6786.000000;1.361521
6785.000000;1.359022
6784.000000;1.356275
6783.000000;1.353395
6782.000000;1.350490
6781.000000;1.347644
6780.000000;1.344944
6779.000000;1.342352
6778.000000;1.339672
6777.000000;1.336842
6776.000000;1.334125
6775.000000;1.331741
6774.000000;1.329442
6773.000000;1.326766
6772.000000;1.323677
6771.000000;1.320625
6770.000000;1.317932
6769.000000;1.315412
6768.000000;1.312706
6767.000000;1.309747
6766.000000;1.306756
6765.000000;1.303943
6764.000000;1.301375
6763.000000;1.299024
6762.000000;1.296793
6761.000000;1.294523
6760.000000;1.292075
6759.000000;1.289394
6758.000000;1.286511
6757.000000;1.283497
6756.000000;1.280420
6755.000000;1.277347
6754.000000;1.274372
6753.000000;1.271592
6752.000000;1.268995
6751.000000;1.266372
6750.000000;1.263501
6749.000000;1.260444
6748.000000;1.257506
6747.000000;1.254804
6746.000000;1.252049
6745.000000;1.248944
6744.000000;1.245655
6743.000000;1.242663
6742.000000;1.240155
6741.000000;1.237798
6740.000000;1.235167
6739.000000;1.232233
6738.000000;1.229343
6737.000000;1.226791
6736.000000;1.224496
6735.000000;1.222092
6734.000000;1.219346
6733.000000;1.216416
6732.000000;1.213632
6731.000000;1.211059
6730.000000;1.208435
6729.000000;1.205531
6728.000000;1.202417
6727.000000;1.199303
6726.000000;1.196300
6725.000000;1.193453
6724.000000;1.190851
6723.000000;1.188515
6722.000000;1.186297
6721.000000;1.184022
6720.000000;1.181681
6719.000000;1.179327
6718.000000;1.176895
6717.000000;1.174269
6716.000000;1.171468
6715.000000;1.168637
6714.000000;1.165892
6713.000000;1.163290
6712.000000;1.160843
6711.000000;1.158473
6710.000000;1.155969
6709.000000;1.153252
6708.000000;1.150463
6707.000000;1.147697
6706.000000;1.144906
6705.000000;1.141966
6704.000000;1.138946
6703.000000;1.136063
6702.000000;1.133389
6701.000000;1.130748
6700.000000;1.127977
6699.000000;1.125092
6698.000000;1.122252
6697.000000;1.119627
6696.000000;1.117369
6695.000000;1.115409
6694.000000;1.113474
6693.000000;1.111287
6692.000000;1.108789
6691.000000;1.106092
6690.000000;1.103289
6689.000000;1.100422
6688.000000;1.097584
6687.000000;1.094887
6686.000000;1.092342
6685.000000;1.089888
6684.000000;1.087502
6683.000000;1.085170
6682.000000;1.082771
6681.000000;1.080156
6680.000000;1.077368
6679.000000;1.074659
6678.000000;1.072244
6677.000000;1.070111
6676.000000;1.068068
6675.000000;1.065890
6674.000000;1.063437
6673.000000;1.060750
6672.000000;1.058046
6671.000000;1.055528
6670.000000;1.053184
6669.000000;1.050846
6668.000000;1.048418
6667.000000;1.045943
6666.000000;1.043469
6665.000000;1.040986
6664.000000;1.038534
6663.000000;1.036239
6662.000000;1.034150
6661.000000;1.032124
6660.000000;1.029939
6659.000000;1.027490
6658.000000;1.024826
6657.000000;1.022059
6656.000000;1.019307
6655.000000;1.016705
6654.000000;1.014378
6653.000000;1.012340
6652.000000;1.010443
6651.000000;1.008457
6650.000000;1.006247
6649.000000;1.003840
6648.000000;1.001323
6647.000000;0.998727
6646.000000;0.996084
6645.000000;0.993539
6644.000000;0.991275
6643.000000;0.989292
6642.000000;0.987375
6641.000000;0.985337
6640.000000;0.983191
6639.000000;0.981034
6638.000000;0.978883
6637.000000;0.976731
6636.000000;0.974638
6635.000000;0.972622
6634.000000;0.970524
6633.000000;0.968158
6632.000000;0.965582
6631.000000;0.963066
6630.000000;0.960796
6629.000000;0.958708
6628.000000;0.956633
6627.000000;0.954483
6626.000000;0.952266
6625.000000;0.950027
6624.000000;0.947826
6623.000000;0.945721
6622.000000;0.943729
6621.000000;0.941817
6620.000000;0.939947
6619.000000;0.938087
6618.000000;0.936185
6617.000000;0.934188
6616.000000;0.932086
6615.000000;0.929903
6614.000000;0.927646
6613.000000;0.925337
6612.000000;0.923055
6611.000000;0.920888
6610.000000;0.918847
6609.000000;0.916881
6608.000000;0.914956
6607.000000;0.913053
6606.000000;0.911103
6605.000000;0.909025
6604.000000;0.906851
6603.000000;0.904712
6602.000000;0.902690
6601.000000;0.900749
6600.000000;0.898840
6599.000000;0.896987
6598.000000;0.895202
6597.000000;0.893384
6596.000000;0.891412
6595.000000;0.889300
6594.000000;0.887213
6593.000000;0.885306
6592.000000;0.883588
6591.000000;0.881925
6590.000000;0.880164
6589.000000;0.878243
6588.000000;0.876229
6587.000000;0.874255
6586.000000;0.872417
6585.000000;0.870699
6584.000000;0.868986
6583.000000;0.867156
6582.000000;0.865175
6581.000000;0.863129
6580.000000;0.861149
6579.000000;0.859291
6578.000000;0.857512
6577.000000;0.855732
6576.000000;0.853924
6575.000000;0.852102
6574.000000;0.850282
6573.000000;0.848466
6572.000000;0.846660
6571.000000;0.844871
6570.000000;0.843090
6569.000000;0.841306
6568.000000;0.839524
6567.000000;0.837759
6566.000000;0.836012
6565.000000;0.834276
6564.000000;0.832539
6563.000000;0.830786
6562.000000;0.829006
6561.000000;0.827231
6560.000000;0.825532
6559.000000;0.823943
6558.000000;0.822401
6557.000000;0.820805
6556.000000;0.819108
6555.000000;0.817351
6554.000000;0.815604
6553.000000;0.813890
6552.000000;0.812178
6551.000000;0.810421
6550.000000;0.808608
6549.000000;0.806788
6548.000000;0.805030
6547.000000;0.803369
6546.000000;0.801801
6545.000000;0.800325
6544.000000;0.798934
6543.000000;0.797557
6542.000000;0.796086
6541.000000;0.794487
6540.000000;0.792852
6539.000000;0.791289
6538.000000;0.789777
6537.000000;0.788199
6536.000000;0.786485
6535.000000;0.784693
6534.000000;0.782939
6533.000000;0.781296
6532.000000;0.779745
6531.000000;0.778222
6530.000000;0.776687
6529.000000;0.775164
6528.000000;0.773707
6527.000000;0.772315
6526.000000;0.770919
6525.000000;0.769459
6524.000000;0.767943
6523.000000;0.766413
6522.000000;0.764890
6521.000000;0.763388
6520.000000;0.761940
6519.000000;0.760559
6518.000000;0.759185
6517.000000;0.757730
6516.000000;0.756162
6515.000000;0.754537
6514.000000;0.752935
6513.000000;0.751416
6512.000000;0.749999
6511.000000;0.748672
6510.000000;0.747393
6509.000000;0.746133
6508.000000;0.744900
6507.000000;0.743693
6506.000000;0.742456
6505.000000;0.741093
6504.000000;0.739561
6503.000000;0.737909
6502.000000;0.736249
6501.000000;0.734689
6500.000000;0.733289
6499.000000;0.732037
6498.000000;0.730863
6497.000000;0.729682
6496.000000;0.728443
6495.000000;0.727147
6494.000000;0.725834
6493.000000;0.724554
6492.000000;0.723319
6491.000000;0.722058
6490.000000;0.720677
6489.000000;0.719171
6488.000000;0.717666
6487.000000;0.716292
6486.000000;0.715051
6485.000000;0.713835
6484.000000;0.712562
6483.000000;0.711250
6482.000000;0.709951
6481.000000;0.708672
6480.000000;0.707376
6479.000000;0.706036
6478.000000;0.704667
6477.000000;0.703312
6476.000000;0.702013
6475.000000;0.700790
6474.000000;0.699640
6473.000000;0.698542
6472.000000;0.697460
6471.000000;0.696341
6470.000000;0.695139
6469.000000;0.693868
6468.000000;0.692594
6467.000000;0.691367
6466.000000;0.690174
6465.000000;0.688990
6464.000000;0.687826
6463.000000;0.686692
6462.000000;0.685543
6461.000000;0.684312
6460.000000;0.683016
6459.000000;0.681754
6458.000000;0.680594
6457.000000;0.679493
6456.000000;0.678366
6455.000000;0.677191
6454.000000;0.676026
6453.000000;0.674921
6452.000000;0.673870
6451.000000;0.672834
6450.000000;0.671788
6449.000000;0.670726
6448.000000;0.669637
6447.000000;0.668515
6446.000000;0.667365
6445.000000;0.666199
6444.000000;0.665015
6443.000000;0.663817
6442.000000;0.662637
6441.000000;0.661526
6440.000000;0.660498
6439.000000;0.659505
6438.000000;0.658493
6437.000000;0.657458
6436.000000;0.656425
6435.000000;0.655387
6434.000000;0.654308
6433.000000;0.653190
6432.000000;0.652097
6431.000000;0.651077
6430.000000;0.650098
6429.000000;0.649074
6428.000000;0.647955
6427.000000;0.646786
6426.000000;0.645666
6425.000000;0.644660
6424.000000;0.643740
6423.000000;0.642820
6422.000000;0.641857
6421.000000;0.640881
6420.000000;0.639931
6419.000000;0.638986
6418.000000;0.638004
6417.000000;0.636991
6416.000000;0.635996
6415.000000;0.635040
6414.000000;0.634096
6413.000000;0.633138
6412.000000;0.632163
6411.000000;0.631164
6410.000000;0.630136
6409.000000;0.629104
6408.000000;0.628117
6407.000000;0.627188
6406.000000;0.626294
6405.000000;0.625417
6404.000000;0.624570
6403.000000;0.623738
6402.000000;0.622874
6401.000000;0.621964
6400.000000;0.621052
6399.000000;0.620181
6398.000000;0.619334
6397.000000;0.618465
6396.000000;0.617562
6395.000000;0.616648
6394.000000;0.615745
6393.000000;0.614863
6392.000000;0.614000
6391.000000;0.613134
6390.000000;0.612244
6389.000000;0.611348
6388.000000;0.610486
6387.000000;0.609657
6386.000000;0.608805
6385.000000;0.607896
6384.000000;0.606973
6383.000000;0.606099
6382.000000;0.605283
6381.000000;0.604485
6380.000000;0.603669
6379.000000;0.602824
6378.000000;0.601950
6377.000000;0.601066
6376.000000;0.600215
6375.000000;0.599431
6374.000000;0.598715
6373.000000;0.598035
6372.000000;0.597351
6371.000000;0.596612
6370.000000;0.595780
6369.000000;0.594875
6368.000000;0.593979
6367.000000;0.593160
6366.000000;0.592413
6365.000000;0.591689
6364.000000;0.590939
6363.000000;0.590131
6362.000000;0.589251
6361.000000;0.588343
6360.000000;0.587485
6359.000000;0.586708
6358.000000;0.585959
6357.000000;0.585178
6356.000000;0.584379
6355.000000;0.583622
6354.000000;0.582914
6353.000000;0.582205
6352.000000;0.581460
6351.000000;0.580703
6350.000000;0.579974
6349.000000;0.579291
6348.000000;0.578641
6347.000000;0.577993
6346.000000;0.577313
6345.000000;0.576597
6344.000000;0.575881
6343.000000;0.575194
6342.000000;0.574523
6341.000000;0.573843
6340.000000;0.573157
6339.000000;0.572481
6338.000000;0.571803
6337.000000;0.571105
6336.000000;0.570392
6335.000000;0.569692
6334.000000;0.569005
6333.000000;0.568297
6332.000000;0.567547
6331.000000;0.566778
6330.000000;0.566034
6329.000000;0.565344
6328.000000;0.564705
6327.000000;0.564087
6326.000000;0.563462
6325.000000;0.562820
6324.000000;0.562171
6323.000000;0.561508
6322.000000;0.560809
6321.000000;0.560079
6320.000000;0.559376
6319.000000;0.558760
6318.000000;0.558227
6317.000000;0.557717
6316.000000;0.557174
6315.000000;0.556584
6314.000000;0.555963
6313.000000;0.555336
6312.000000;0.554725
6311.000000;0.554130
6310.000000;0.553531
6309.000000;0.552913
6308.000000;0.552275
6307.000000;0.551620
6306.000000;0.550951
6305.000000;0.550290
6304.000000;0.549675
6303.000000;0.549117
6302.000000;0.548579
6301.000000;0.548018
6300.000000;0.547428
6299.000000;0.546827
6298.000000;0.546227
6297.000000;0.545635
6296.000000;0.545072
6295.000000;0.544542
6294.000000;0.544011
6293.000000;0.543440
6292.000000;0.542828
6291.000000;0.542212
6290.000000;0.541625
6289.000000;0.541071
6288.000000;0.540533
6287.000000;0.539990
6286.000000;0.539423
6285.000000;0.538835
6284.000000;0.538255
6283.000000;0.537702
6282.000000;0.537173
6281.000000;0.536662
6280.000000;0.536171
6279.000000;0.535685
6278.000000;0.535169
6277.000000;0.534610
6276.000000;0.534039
6275.000000;0.533498
6274.000000;0.532988
6273.000000;0.532483
6272.000000;0.531962
6271.000000;0.531427
6270.000000;0.530895
6269.000000;0.530398
6268.000000;0.529962
6267.000000;0.529565
6266.000000;0.529147
6265.000000;0.528663
6264.000000;0.528134
6263.000000;0.527604
6262.000000;0.527089
6261.000000;0.526584
6260.000000;0.526090
6259.000000;0.525601
6258.000000;0.525098
6257.000000;0.524579
6256.000000;0.524081
6255.000000;0.523638
6254.000000;0.523231
6253.000000;0.522809
6252.000000;0.522350
6251.000000;0.521865
6250.000000;0.521361
6249.000000;0.520832
6248.000000;0.520288
6247.000000;0.519755
6246.000000;0.519254
6245.000000;0.518795
6244.000000;0.518374
6243.000000;0.517966
6242.000000;0.517525
6241.000000;0.517032
6240.000000;0.516524
6239.000000;0.516045
6238.000000;0.515595
6237.000000;0.515156
6236.000000;0.514739
6235.000000;0.514370
6234.000000;0.514030
6233.000000;0.513656
6232.000000;0.513204
6231.000000;0.512694
6230.000000;0.512188
6229.000000;0.511735
6228.000000;0.511342
6227.000000;0.510969
6226.000000;0.510560
6225.000000;0.510109
6224.000000;0.509668
6223.000000;0.509272
6222.000000;0.508884
6221.000000;0.508447
6220.000000;0.507970
6219.000000;0.507511
6218.000000;0.507097
6217.000000;0.506693
6216.000000;0.506265
6215.000000;0.505817
6214.000000;0.505379
6213.000000;0.504971
6212.000000;0.504596
6211.000000;0.504227
6210.000000;0.503819
6209.000000;0.503355
6208.000000;0.502886
6207.000000;0.502480
6206.000000;0.502144
6205.000000;0.501826
6204.000000;0.501478
6203.000000;0.501105
6202.000000;0.500725
6201.000000;0.500346
6200.000000;0.499971
6199.000000;0.499611
6198.000000;0.499272
6197.000000;0.498948
6196.000000;0.498625
6195.000000;0.498285
6194.000000;0.497908
6193.000000;0.497492
6192.000000;0.497069
6191.000000;0.496667
6190.000000;0.496278
6189.000000;0.495875
6188.000000;0.495460
6187.000000;0.495070
6186.000000;0.494724
6185.000000;0.494410
6184.000000;0.494116
6183.000000;0.493836
6182.000000;0.493545
6181.000000;0.493210
6180.000000;0.492832
6179.000000;0.492454
6178.000000;0.492101
6177.000000;0.491749
6176.000000;0.491370
6175.000000;0.490976
6174.000000;0.490601
6173.000000;0.490255
6172.000000;0.489926
6171.000000;0.489616
6170.000000;0.489326
6169.000000;0.489028
6168.000000;0.488682
6167.000000;0.488290
6166.000000;0.487905
6165.000000;0.487578
6164.000000;0.487292
6163.000000;0.486994
6162.000000;0.486658
6161.000000;0.486312
6160.000000;0.485989
6159.000000;0.485690
6158.000000;0.485398
6157.000000;0.485112
6156.000000;0.484827
6155.000000;0.484510
6154.000000;0.484130
6153.000000;0.483712
6152.000000;0.483333
6151.000000;0.483041
6150.000000;0.482808
6149.000000;0.482576
6148.000000;0.482317
6147.000000;0.482037
6146.000000;0.481736
6145.000000;0.481418
6144.000000;0.481107
6143.000000;0.480823
6142.000000;0.480544
6141.000000;0.480225
6140.000000;0.479859
6139.000000;0.479490
6138.000000;0.479168
6137.000000;0.478907
6136.000000;0.478681
6135.000000;0.478448
6134.000000;0.478174
6133.000000;0.477852
6132.000000;0.477506
6131.000000;0.477173
6130.000000;0.476866
6129.000000;0.476572
6128.000000;0.476275
6127.000000;0.475974
6126.000000;0.475680
6125.000000;0.475404
6124.000000;0.475147
6123.000000;0.474895
6122.000000;0.474625
6121.000000;0.474327
6120.000000;0.474027
6119.000000;0.473761
6118.000000;0.473538
6117.000000;0.473326
6116.000000;0.473092
6115.000000;0.472834
6114.000000;0.472581
6113.000000;0.472359
6112.000000;0.472156
6111.000000;0.471934
6110.000000;0.471671
6109.000000;0.471386
6108.000000;0.471117
6107.000000;0.470876
6106.000000;0.470636
6105.000000;0.470372
6104.000000;0.470082
6103.000000;0.469785
6102.000000;0.469499
6101.000000;0.469241
6100.000000;0.469012
6099.000000;0.468795
6098.000000;0.468558
6097.000000;0.468290
6096.000000;0.468009
6095.000000;0.467734
6094.000000;0.467473
6093.000000;0.467236
6092.000000;0.467031
6091.000000;0.466840
6090.000000;0.466621
6089.000000;0.466359
6088.000000;0.466089
6087.000000;0.465856
6086.000000;0.465666
6085.000000;0.465491
6084.000000;0.465301
6083.000000;0.465088
6082.000000;0.464858
6081.000000;0.464629
6080.000000;0.464413
6079.000000;0.464199
6078.000000;0.463973
6077.000000;0.463743
6076.000000;0.463546
6075.000000;0.463390
6074.000000;0.463237
6073.000000;0.463051
6072.000000;0.462831
6071.000000;0.462594
6070.000000;0.462334
6069.000000;0.462047
6068.000000;0.461756
6067.000000;0.461501
6066.000000;0.461299
6065.000000;0.461130
6064.000000;0.460968
6063.000000;0.460784
6062.000000;0.460564
6061.000000;0.460329
6060.000000;0.460128
6059.000000;0.459997
6058.000000;0.459911
6057.000000;0.459814
6056.000000;0.459669
6055.000000;0.459474
6054.000000;0.459243
6053.000000;0.458999
6052.000000;0.458767
6051.000000;0.458561
6050.000000;0.458371
6049.000000;0.458185
6048.000000;0.458004
6047.000000;0.457826
6046.000000;0.457639
6045.000000;0.457445
6044.000000;0.457264
6043.000000;0.457108
6042.000000;0.456960
6041.000000;0.456805
6040.000000;0.456661
6039.000000;0.456545
6038.000000;0.456439
6037.000000;0.456301
6036.000000;0.456125
6035.000000;0.455945
6034.000000;0.455784
6033.000000;0.455638
6032.000000;0.455490
6031.000000;0.455327
6030.000000;0.455156
6029.000000;0.455004
6028.000000;0.454902
6027.000000;0.454843
6026.000000;0.454779
6025.000000;0.454666
6024.000000;0.454506
6023.000000;0.454322
6022.000000;0.454128
6021.000000;0.453925
6020.000000;0.453724
6019.000000;0.453539
6018.000000;0.453375
6017.000000;0.453238
6016.000000;0.453142
6015.000000;0.453080
6014.000000;0.453010
6013.000000;0.452901
6012.000000;0.452766
6011.000000;0.452638
6010.000000;0.452513
6009.000000;0.452368
6008.000000;0.452204
6007.000000;0.452048
6006.000000;0.451924
6005.000000;0.451831
6004.000000;0.451761
6003.000000;0.451691
6002.000000;0.451595
6001.000000;0.451469
6000.000000;0.451346
5999.000000;0.451257
5998.000000;0.451193
5997.000000;0.451125
5996.000000;0.451049
5995.000000;0.450969
5994.000000;0.450866
5993.000000;0.450719
5992.000000;0.450554
5991.000000;0.450424
5990.000000;0.450348
5989.000000;0.450299
5988.000000;0.450245
5987.000000;0.450173
5986.000000;0.450075
5985.000000;0.449947
5984.000000;0.449806
5983.000000;0.449684
5982.000000;0.449595
5981.000000;0.449530
5980.000000;0.449481
5979.000000;0.449437
5978.000000;0.449385
5977.000000;0.449320
5976.000000;0.449256
5975.000000;0.449204
5974.000000;0.449147
5973.000000;0.449071
5972.000000;0.448994
5971.000000;0.448953
5970.000000;0.448946
5969.000000;0.448938
5968.000000;0.448905
5967.000000;0.448858
5966.000000;0.448815
5965.000000;0.448780
5964.000000;0.448753
5963.000000;0.448732
5962.000000;0.448706
5961.000000;0.448662
5960.000000;0.448601
5959.000000;0.448535
5958.000000;0.448466
5957.000000;0.448400
5956.000000;0.448357
5955.000000;0.448345
5954.000000;0.448342
5953.000000;0.448319
5952.000000;0.448274
5951.000000;0.448221
5950.000000;0.448165
5949.000000;0.448108
5948.000000;0.448071
5947.000000;0.448074
5946.000000;0.448107
5945.000000;0.448141
5944.000000;0.448167
5943.000000;0.448187
5942.000000;0.448184
5941.000000;0.448143
5940.000000;0.448090
5939.000000;0.448074
5938.000000;0.448097
5937.000000;0.448108
5936.000000;0.448073
5935.000000;0.448016
5934.000000;0.447972
5933.000000;0.447957
5932.000000;0.447974
5931.000000;0.448029
5930.000000;0.448112
5929.000000;0.448193
5928.000000;0.448251
5927.000000;0.448292
5926.000000;0.448326
5925.000000;0.448347
5924.000000;0.448347
5923.000000;0.448327
5922.000000;0.448295
5921.000000;0.448265
5920.000000;0.448255
5919.000000;0.448272
5918.000000;0.448301
5917.000000;0.448329
5916.000000;0.448369
5915.000000;0.448430
5914.000000;0.448491
5913.000000;0.448517
5912.000000;0.448519
5911.000000;0.448537
5910.000000;0.448588
5909.000000;0.448642
5908.000000;0.448673
5907.000000;0.448691
5906.000000;0.448713
5905.000000;0.448731
5904.000000;0.448733
5903.000000;0.448730
5902.000000;0.448745
5901.000000;0.448785
5900.000000;0.448846
5899.000000;0.448930
5898.000000;0.449030
5897.000000;0.449127
5896.000000;0.449198
5895.000000;0.449232
5894.000000;0.449237
5893.000000;0.449237
5892.000000;0.449261
5891.000000;0.449320
5890.000000;0.449391
5889.000000;0.449432
5888.000000;0.449435
5887.000000;0.449433
5886.000000;0.449466
5885.000000;0.449541
5884.000000;0.449633
5883.000000;0.449717
5882.000000;0.449787
5881.000000;0.449859
5880.000000;0.449951
5879.000000;0.450063
5878.000000;0.450185
5877.000000;0.450311
5876.000000;0.450455
5875.000000;0.450616
5874.000000;0.450769
5873.000000;0.450890
5872.000000;0.450989
5871.000000;0.451101
5870.000000;0.451237
5869.000000;0.451379
5868.000000;0.451500
5867.000000;0.451590
5866.000000;0.451654
5865.000000;0.451709
5864.000000;0.451786
5863.000000;0.451907
5862.000000;0.452064
5861.000000;0.452237
5860.000000;0.452411
5859.000000;0.452579
5858.000000;0.452722
5857.000000;0.452822
5856.000000;0.452894
5855.000000;0.452992
5854.000000;0.453155
5853.000000;0.453372
5852.000000;0.453595
5851.000000;0.453785
5850.000000;0.453940
5849.000000;0.454087
5848.000000;0.454248
5847.000000;0.454414
5846.000000;0.454566
5845.000000;0.454709
5844.000000;0.454868
5843.000000;0.455054
5842.000000;0.455251
5841.000000;0.455447
5840.000000;0.455657
5839.000000;0.455893
5838.000000;0.456138
5837.000000;0.456378
5836.000000;0.456621
5835.000000;0.456886
5834.000000;0.457156
5833.000000;0.457401
5832.000000;0.457612
5831.000000;0.457805
5830.000000;0.457989
5829.000000;0.458168
5828.000000;0.458357
5827.000000;0.458575
5826.000000;0.458821
5825.000000;0.459076
5824.000000;0.459328
5823.000000;0.459577
5822.000000;0.459826
5821.000000;0.460081
5820.000000;0.460358
5819.000000;0.460650
5818.000000;0.460928
5817.000000;0.461175
5816.000000;0.461417
5815.000000;0.461692
5814.000000;0.461999
5813.000000;0.462307
5812.000000;0.462604
5811.000000;0.462912
5810.000000;0.463249
5809.000000;0.463603
5808.000000;0.463942
5807.000000;0.464236
5806.000000;0.464467
5805.000000;0.464652
5804.000000;0.464842
5803.000000;0.465080
5802.000000;0.465361
5801.000000;0.465657
5800.000000;0.465966
5799.000000;0.466305
5798.000000;0.466668
5797.000000;0.467023
5796.000000;0.467355
5795.000000;0.467685
5794.000000;0.468038
5793.000000;0.468414
5792.000000;0.468802
5791.000000;0.469195
5790.000000;0.469582
5789.000000;0.469943
5788.000000;0.470271
5787.000000;0.470575
5786.000000;0.470884
5785.000000;0.471229
5784.000000;0.471623
5783.000000;0.472045
5782.000000;0.472454
5781.000000;0.472828
5780.000000;0.473187
5779.000000;0.473557
5778.000000;0.473944
5777.000000;0.474343
5776.000000;0.474763
5775.000000;0.475209
5774.000000;0.475657
5773.000000;0.476081
5772.000000;0.476478
5771.000000;0.476871
5770.000000;0.477272
5769.000000;0.477689
5768.000000;0.478131
5767.000000;0.478605
5766.000000;0.479086
5765.000000;0.479543
5764.000000;0.479971
5763.000000;0.480393
5762.000000;0.480826
5761.000000;0.481279
5760.000000;0.481762
5759.000000;0.482275
5758.000000;0.482789
5757.000000;0.483268
5756.000000;0.483713
5755.000000;0.484150
5754.000000;0.484599
5753.000000;0.485068
5752.000000;0.485557
5751.000000;0.486066
5750.000000;0.486586
5749.000000;0.487106
5748.000000;0.487629
5747.000000;0.488156
5746.000000;0.488676
5745.000000;0.489186
5744.000000;0.489707
5743.000000;0.490249
5742.000000;0.490797
5741.000000;0.491333
5740.000000;0.491872
5739.000000;0.492431
5738.000000;0.492998
5737.000000;0.493550
5736.000000;0.494099
5735.000000;0.494675
5734.000000;0.495278
5733.000000;0.495880
5732.000000;0.496471
5731.000000;0.497062
5730.000000;0.497660
5729.000000;0.498256
5728.000000;0.498854
5727.000000;0.499465
5726.000000;0.500091
5725.000000;0.500723
5724.000000;0.501367
5723.000000;0.502030
5722.000000;0.502697
5721.000000;0.503340
5720.000000;0.503953
5719.000000;0.504553
5718.000000;0.505158
5717.000000;0.505786
5716.000000;0.506451
5715.000000;0.507144
5714.000000;0.507830
5713.000000;0.508483
5712.000000;0.509127
5711.000000;0.509794
5710.000000;0.510482
5709.000000;0.511160
5708.000000;0.511818
5707.000000;0.512471
5706.000000;0.513131
5705.000000;0.513801
5704.000000;0.514485
5703.000000;0.515175
5702.000000;0.515858
5701.000000;0.516541
5700.000000;0.517258
5699.000000;0.518017
5698.000000;0.518761
5697.000000;0.519441
5696.000000;0.520089
5695.000000;0.520787
5694.000000;0.521545
5693.000000;0.522351
5692.000000;0.523132
5691.000000;0.523879
5690.000000;0.524600
5689.000000;0.525297
5688.000000;0.525980
5687.000000;0.526659
5686.000000;0.527332
5685.000000;0.527996
5684.000000;0.528675
5683.000000;0.529395
5682.000000;0.530149
5681.000000;0.530909
5680.000000;0.531658
5679.000000;0.532391
5678.000000;0.533100
5677.000000;0.533788
5676.000000;0.534487
5675.000000;0.535216
5674.000000;0.535947
5673.000000;0.536642
5672.000000;0.537312
5671.000000;0.538003
5670.000000;0.538732
5669.000000;0.539469
5668.000000;0.540186
5667.000000;0.540890
5666.000000;0.541596
5665.000000;0.542320
5664.000000;0.543068
5663.000000;0.543823
5662.000000;0.544540
5661.000000;0.545194
5660.000000;0.545814
5659.000000;0.546442
5658.000000;0.547082
5657.000000;0.547715
5656.000000;0.548359
5655.000000;0.549045
5654.000000;0.549763
5653.000000;0.550470
5652.000000;0.551144
5651.000000;0.551790
5650.000000;0.552414
5649.000000;0.553021
5648.000000;0.553633
5647.000000;0.554265
5646.000000;0.554890
5645.000000;0.555481
5644.000000;0.556061
5643.000000;0.556666
5642.000000;0.557284
5641.000000;0.557884
5640.000000;0.558472
5639.000000;0.559074
5638.000000;0.559672
5637.000000;0.560230
5636.000000;0.560759
5635.000000;0.561301
5634.000000;0.561852
5633.000000;0.562366
5632.000000;0.562830
5631.000000;0.563284
5630.000000;0.563760
5629.000000;0.564259
5628.000000;0.564770
5627.000000;0.565276
5626.000000;0.565747
5625.000000;0.566175
5624.000000;0.566606
5623.000000;0.567079
5622.000000;0.567562
5621.000000;0.567992
5620.000000;0.568370
5619.000000;0.568750
5618.000000;0.569154
5617.000000;0.569549
5616.000000;0.569927
5615.000000;0.570318
5614.000000;0.570732
5613.000000;0.571142
5612.000000;0.571525
5611.000000;0.571883
5610.000000;0.572201
5609.000000;0.572457
5608.000000;0.572680
5607.000000;0.572941
5606.000000;0.573267
5605.000000;0.573610
5604.000000;0.573922
5603.000000;0.574194
5602.000000;0.574434
5601.000000;0.574647
5600.000000;0.574850
5599.000000;0.575062
5598.000000;0.575266
5597.000000;0.575432
5596.000000;0.575581
5595.000000;0.575765
5594.000000;0.575985
5593.000000;0.576195
5592.000000;0.576373
5591.000000;0.576544
5590.000000;0.576713
5589.000000;0.576858
5588.000000;0.576983
5587.000000;0.577128
5586.000000;0.577294
5585.000000;0.577439
5584.000000;0.577536
5583.000000;0.577602
5582.000000;0.577643
5581.000000;0.577649
5580.000000;0.577648
5579.000000;0.577697
5578.000000;0.577804
5577.000000;0.577917
5576.000000;0.577998
5575.000000;0.578062
5574.000000;0.578123
5573.000000;0.578178
5572.000000;0.578242
5571.000000;0.578326
5570.000000;0.578393
5569.000000;0.578383
5568.000000;0.578310
5567.000000;0.578244
5566.000000;0.578214
5565.000000;0.578180
5564.000000;0.578129
5563.000000;0.578082
5562.000000;0.578028
5561.000000;0.577914
5560.000000;0.577760
5559.000000;0.577669
5558.000000;0.577690
5557.000000;0.577751
5556.000000;0.577774
5555.000000;0.577757
5554.000000;0.577718
5553.000000;0.577647
5552.000000;0.577551
5551.000000;0.577472
5550.000000;0.577424
5549.000000;0.577369
5548.000000;0.577292
5547.000000;0.577217
5546.000000;0.577146
5545.000000;0.577048
5544.000000;0.576940
5543.000000;0.576881
5542.000000;0.576864
5541.000000;0.576810
5540.000000;0.576688
5539.000000;0.576547
5538.000000;0.576420
5537.000000;0.576293
5536.000000;0.576162
5535.000000;0.576057
5534.000000;0.575983
5533.000000;0.575909
5532.000000;0.575830
5531.000000;0.575769
5530.000000;0.575721
5529.000000;0.575656
5528.000000;0.575566
5527.000000;0.575477
5526.000000;0.575396
5525.000000;0.575292
5524.000000;0.575166
5523.000000;0.575057
5522.000000;0.574971
5521.000000;0.574897
5520.000000;0.574842
5519.000000;0.574812
5518.000000;0.574781
5517.000000;0.574702
5516.000000;0.574584
5515.000000;0.574474
5514.000000;0.574369
5513.000000;0.574266
5512.000000;0.574237
5511.000000;0.574339
5510.000000;0.574486
5509.000000;0.574532
5508.000000;0.574451
5507.000000;0.574356
5506.000000;0.574329
5505.000000;0.574334
5504.000000;0.574345
5503.000000;0.574380
5502.000000;0.574401
5501.000000;0.574375
5500.000000;0.574338
5499.000000;0.574327
5498.000000;0.574372
5497.000000;0.574469
5496.000000;0.574604
5495.000000;0.574742
5494.000000;0.574837
5493.000000;0.574903
5492.000000;0.575000
5491.000000;0.575143
5490.000000;0.575243
5489.000000;0.575240
5488.000000;0.575217
5487.000000;0.575280
5486.000000;0.575391
5485.000000;0.575430
5484.000000;0.575424
5483.000000;0.575555
5482.000000;0.575826
5481.000000;0.576105
5480.000000;0.576394
5479.000000;0.576751
5478.000000;0.577144
5477.000000;0.577456
5476.000000;0.577656
5475.000000;0.577806
5474.000000;0.577934
5473.000000;0.578029
5472.000000;0.578115
5471.000000;0.578243
5470.000000;0.578405
5469.000000;0.578642
5468.000000;0.579055
5467.000000;0.579608
5466.000000;0.580094
5465.000000;0.580430
5464.000000;0.580802
5463.000000;0.581360
5462.000000;0.581901
5461.000000;0.582252
5460.000000;0.582624
5459.000000;0.583163
5458.000000;0.583621
5457.000000;0.583861
5456.000000;0.584159
5455.000000;0.584702
5454.000000;0.585309
5453.000000;0.585807
5452.000000;0.586316
5451.000000;0.586964
5450.000000;0.587652
5449.000000;0.588377
5448.000000;0.589244
5447.000000;0.590103
5446.000000;0.590748
5445.000000;0.591318
5444.000000;0.592046
5443.000000;0.592877
5442.000000;0.593575
5441.000000;0.594192
5440.000000;0.595064
5439.000000;0.596234
5438.000000;0.597330
5437.000000;0.598211
5436.000000;0.599148
5435.000000;0.600266
5434.000000;0.601418
5433.000000;0.602574
5432.000000;0.603747
5431.000000;0.604825
5430.000000;0.605849
5429.000000;0.607062
5428.000000;0.608500
5427.000000;0.609924
5426.000000;0.611165
5425.000000;0.612308
5424.000000;0.613540
5423.000000;0.614913
5422.000000;0.616390
5421.000000;0.617938
5420.000000;0.619540
5419.000000;0.621244
5418.000000;0.623061
5417.000000;0.624959
5416.000000;0.626897
5415.000000;0.628845
5414.000000;0.630789
5413.000000;0.632726
5412.000000;0.634670
5411.000000;0.636592
5410.000000;0.638499
5409.000000;0.640581
5408.000000;0.642990
5407.000000;0.645553
5406.000000;0.647951
5405.000000;0.650181
5404.000000;0.652562
5403.000000;0.655174
5402.000000;0.657934
5401.000000;0.660819
5400.000000;0.663758
5399.000000;0.666776
5398.000000;0.669961
5397.000000;0.673289
5396.000000;0.676675
5395.000000;0.680084
5394.000000;0.683583
5393.000000;0.687203
5392.000000;0.690916
5391.000000;0.694739
5390.000000;0.698657
5389.000000;0.702609
5388.000000;0.706618
5387.000000;0.710793
5386.000000;0.715130
5385.000000;0.719596
5384.000000;0.724200
5383.000000;0.728910
5382.000000;0.733803
5381.000000;0.738989
5380.000000;0.744341
5379.000000;0.749732
5378.000000;0.755289
5377.000000;0.761100
5376.000000;0.767029
5375.000000;0.772993
5374.000000;0.779147
5373.000000;0.785542
5372.000000;0.792025
5371.000000;0.798583
5370.000000;0.805391
5369.000000;0.812520
5368.000000;0.819873
5367.000000;0.827445
5366.000000;0.835363
5365.000000;0.843712
5364.000000;0.852331
5363.000000;0.861013
5362.000000;0.869851
5361.000000;0.878970
5360.000000;0.888292
5359.000000;0.897832
5358.000000;0.907790
5357.000000;0.918198
5356.000000;0.928847
5355.000000;0.939735
5354.000000;0.951140
5353.000000;0.963152
5352.000000;0.975413
5351.000000;0.987561
5350.000000;0.999815
5349.000000;1.012707
5348.000000;1.026240
5347.000000;1.040057
5346.000000;1.054198
5345.000000;1.068921
5344.000000;1.084120
5343.000000;1.099511
5342.000000;1.115075
5341.000000;1.130870
5340.000000;1.147042
5339.000000;1.163979
5338.000000;1.181913
5337.000000;1.200605
5336.000000;1.219542
5335.000000;1.238505
5334.000000;1.257818
5333.000000;1.277975
5332.000000;1.298899
5331.000000;1.320065
5330.000000;1.341483
5329.000000;1.363688
5328.000000;1.386875
5327.000000;1.410859
5326.000000;1.435504
5325.000000;1.460510
5324.000000;1.485417
5323.000000;1.510396
5322.000000;1.536442
5321.000000;1.564099
5320.000000;1.592572
5319.000000;1.620914
5318.000000;1.649537
5317.000000;1.679481
5316.000000;1.710625
5315.000000;1.741847
5314.000000;1.772539
5313.000000;1.802998
5312.000000;1.833522
5311.000000;1.864186
5310.000000;1.895322
5309.000000;1.927061
5308.000000;1.958650
5307.000000;1.989453
5306.000000;2.020144
5305.000000;2.051367
5304.000000;2.082127
5303.000000;2.111545
5302.000000;2.141096
5301.000000;2.172619
5300.000000;2.205032
5299.000000;2.235714
5298.000000;2.264287
5297.000000;2.291790
5296.000000;2.317345
5295.000000;2.339450
5294.000000;2.359368
5293.000000;2.379596
5292.000000;2.400145
5291.000000;2.419514
5290.000000;2.437516
5289.000000;2.453676
5288.000000;2.465524
5287.000000;2.472802
5286.000000;2.480326
5285.000000;2.492205
5284.000000;2.505854
5283.000000;2.515738
5282.000000;2.520911
5281.000000;2.524380
5280.000000;2.527990
5279.000000;2.532186
5278.000000;2.537165
5277.000000;2.540529
5276.000000;2.538245
5275.000000;2.531957
5274.000000;2.529850
5273.000000;2.536695
5272.000000;2.548066
5271.000000;2.556998
5270.000000;2.562528
5269.000000;2.567040
5268.000000;2.569731
5267.000000;2.569110
5266.000000;2.567402
5265.000000;2.566696
5264.000000;2.565174
5263.000000;2.562113
5262.000000;2.561709
5261.000000;2.566305
5260.000000;2.570870
5259.000000;2.569852
5258.000000;2.565595
5257.000000;2.564310
5256.000000;2.567658
5255.000000;2.572696
5254.000000;2.576822
5253.000000;2.578230
5252.000000;2.574213
5251.000000;2.564618
5250.000000;2.554800
5249.000000;2.550018
5248.000000;2.549281
5247.000000;2.549171
5246.000000;2.550228
5245.000000;2.554175
5244.000000;2.558886
5243.000000;2.561105
5242.000000;2.561623
5241.000000;2.562975
5240.000000;2.564045
5239.000000;2.561824
5238.000000;2.556881
5237.000000;2.552854
5236.000000;2.551815
5235.000000;2.553614
5234.000000;2.558012
5233.000000;2.563824
5232.000000;2.567922
5231.000000;2.568765
5230.000000;2.568797
5229.000000;2.570005
5228.000000;2.570033
5227.000000;2.566241
5226.000000;2.560671
5225.000000;2.557108
5224.000000;2.555920
5223.000000;2.555677
5222.000000;2.557258
5221.000000;2.562031
5220.000000;2.567696
5219.000000;2.569867
5218.000000;2.567385
5217.000000;2.563278
5216.000000;2.561234
5215.000000;2.563411
5214.000000;2.569733
5213.000000;2.576753
5212.000000;2.579330
5211.000000;2.575951
5210.000000;2.569693
5209.000000;2.562841
5208.000000;2.555290
5207.000000;2.549500
5206.000000;2.551082
5205.000000;2.560853
5204.000000;2.570459
5203.000000;2.570933
5202.000000;2.563185
5201.000000;2.554148
5200.000000;2.547070
5199.000000;2.541194
5198.000000;2.537081
5197.000000;2.536970
5196.000000;2.540879
5195.000000;2.546223
5194.000000;2.550859
5193.000000;2.553771
5192.000000;2.554236
5191.000000;2.553064
5190.000000;2.552882
5189.000000;2.554729
5188.000000;2.556605
5187.000000;2.557338
5186.000000;2.558916
5185.000000;2.562225
5184.000000;2.563711
5183.000000;2.560416
5182.000000;2.555436
5181.000000;2.553836
5180.000000;2.556119
5179.000000;2.558896
5178.000000;2.559654
5177.000000;2.558057
5176.000000;2.554337
5175.000000;2.550040
5174.000000;2.548640
5173.000000;2.551787
5172.000000;2.556338
5171.000000;2.558072
5170.000000;2.557223
5169.000000;2.556981
5168.000000;2.557743
5167.000000;2.556898
5166.000000;2.553553
5165.000000;2.549709
5164.000000;2.547252
5163.000000;2.546743
5162.000000;2.548165
5161.000000;2.550101
5160.000000;2.549467
5159.000000;2.545202
5158.000000;2.540954
5157.000000;2.541360
5156.000000;2.546790
5155.000000;2.552853
5154.000000;2.554428
5153.000000;2.549899
5152.000000;2.542388
5151.000000;2.537912
5150.000000;2.540884
5149.000000;2.549417
5148.000000;2.556134
5147.000000;2.556011
5146.000000;2.551580
5145.000000;2.548154
5144.000000;2.547444
5143.000000;2.547994
5142.000000;2.548877
5141.000000;2.550052
5140.000000;2.550573
5139.000000;2.549524
5138.000000;2.547832
5137.000000;2.546692
5136.000000;2.545543
5135.000000;2.543926
5134.000000;2.543559
5133.000000;2.545903
5132.000000;2.549372
5131.000000;2.551458
5130.000000;2.552257
5129.000000;2.553316
5128.000000;2.554430
5127.000000;2.554428
5126.000000;2.553723
5125.000000;2.553196
5124.000000;2.551890
5123.000000;2.548655
5122.000000;2.545038
5121.000000;2.543878
5120.000000;2.545802
5119.000000;2.549030
5118.000000;2.551663
5117.000000;2.552405
5116.000000;2.550405
5115.000000;2.546921
5114.000000;2.545643
5113.000000;2.548478
5112.000000;2.551843
5111.000000;2.549794
5110.000000;2.541339
5109.000000;2.532064
5108.000000;2.528082
5107.000000;2.530599
5106.000000;2.535518
5105.000000;2.536857
5104.000000;2.532072
5103.000000;2.524998
5102.000000;2.522223
5101.000000;2.526344
5100.000000;2.533712
5099.000000;2.539021
5098.000000;2.540757
5097.000000;2.540735
5096.000000;2.540422
5095.000000;2.540206
5094.000000;2.540617
5093.000000;2.541860
5092.000000;2.543137
5091.000000;2.544215
5090.000000;2.546244
5089.000000;2.548996
5088.000000;2.549026
5087.000000;2.543505
5086.000000;2.534708
5085.000000;2.527503
5084.000000;2.523536
5083.000000;2.520411
5082.000000;2.515854
5081.000000;2.510594
5080.000000;2.507026
5079.000000;2.506745
5078.000000;2.509588
5077.000000;2.514005
5076.000000;2.518320
5075.000000;2.521926
5074.000000;2.525029
5073.000000;2.527443
5072.000000;2.528720
5071.000000;2.529647
5070.000000;2.531765
5069.000000;2.534761
5068.000000;2.536422
5067.000000;2.536147
5066.000000;2.536101
5065.000000;2.537492
5064.000000;2.538228
5063.000000;2.536171
5062.000000;2.532421
5061.000000;2.528985
5060.000000;2.525982
5059.000000;2.523075
5058.000000;2.520757
5057.000000;2.518355
5056.000000;2.513077
5055.000000;2.503897
5054.000000;2.494703
5053.000000;2.490479
5052.000000;2.491990
5051.000000;2.496049
5050.000000;2.499520
5049.000000;2.501193
5048.000000;2.500481
5047.000000;2.497003
5046.000000;2.491960
5045.000000;2.488002
5044.000000;2.487149
5043.000000;2.489447
5042.000000;2.493197
5041.000000;2.495921
5040.000000;2.496109
5039.000000;2.494583
5038.000000;2.493156
5037.000000;2.491984
5036.000000;2.489489
5035.000000;2.485200
5034.000000;2.481039
5033.000000;2.478904
5032.000000;2.478534
5031.000000;2.478523
5030.000000;2.477913
5029.000000;2.476109
5028.000000;2.472923
5027.000000;2.469496
5026.000000;2.467200
5025.000000;2.464927
5024.000000;2.460036
5023.000000;2.453183
5022.000000;2.448897
5021.000000;2.449574
5020.000000;2.451888
5019.000000;2.451193
5018.000000;2.447386
5017.000000;2.443600
5016.000000;2.441250
5015.000000;2.439677
5014.000000;2.438798
5013.000000;2.438471
5012.000000;2.436281
5011.000000;2.429709
5010.000000;2.420463
5009.000000;2.413348
5008.000000;2.410847
5007.000000;2.411163
5006.000000;2.411367
5005.000000;2.410271
5004.000000;2.407759
5003.000000;2.403534
5002.000000;2.397808
5001.000000;2.391935
5000.000000;2.387226
4999.000000;2.383703
4998.000000;2.380142
4997.000000;2.375035
4996.000000;2.368242
4995.000000;2.361847
4994.000000;2.358260
4993.000000;2.357095
4992.000000;2.355156
4991.000000;2.350493
4990.000000;2.344975
4989.000000;2.341423
4988.000000;2.339805
4987.000000;2.337991
4986.000000;2.335287
4985.000000;2.332758
4984.000000;2.330424
4983.000000;2.326961
4982.000000;2.322257
4981.000000;2.317944
4980.000000;2.314919
4979.000000;2.312074
4978.000000;2.308020
4977.000000;2.302588
4976.000000;2.296015
4975.000000;2.288294
4974.000000;2.280051
4973.000000;2.272870
4972.000000;2.268055
4971.000000;2.265368
4970.000000;2.263056
4969.000000;2.259075
4968.000000;2.252654
4967.000000;2.245036
4966.000000;2.238284
4965.000000;2.233113
4964.000000;2.228411
4963.000000;2.223083
4962.000000;2.217463
4961.000000;2.212254
4960.000000;2.207107
4959.000000;2.201454
4958.000000;2.195906
4957.000000;2.191402
4956.000000;2.187518
4955.000000;2.183054
4954.000000;2.178028
4953.000000;2.173465
4952.000000;2.169247
4951.000000;2.163808
4950.000000;2.156433
4949.000000;2.148643
4948.000000;2.142468
4947.000000;2.138240
4946.000000;2.134564
4945.000000;2.129802
4944.000000;2.123375
4943.000000;2.116283
4942.000000;2.110625
4941.000000;2.107862
4940.000000;2.107074
4939.000000;2.105323
4938.000000;2.100318
4937.000000;2.092441
4936.000000;2.083808
4935.000000;2.076055
4934.000000;2.069550
4933.000000;2.063992
4932.000000;2.058891
4931.000000;2.053625
4930.000000;2.047683
4929.000000;2.041085
4928.000000;2.034423
4927.000000;2.028469
4926.000000;2.023772
4925.000000;2.020331
4924.000000;2.017341
4923.000000;2.013445
4922.000000;2.007732
4921.000000;2.000654
4920.000000;1.993652
4919.000000;1.987746
4918.000000;1.982716
4917.000000;1.977604
4916.000000;1.971747
4915.000000;1.965277
4914.000000;1.958678
4913.000000;1.952121
4912.000000;1.945596
4911.000000;1.939417
4910.000000;1.934057
4909.000000;1.929484
4908.000000;1.925023
4907.000000;1.920003
4906.000000;1.914366
4905.000000;1.908531
4904.000000;1.902897
4903.000000;1.897596
4902.000000;1.892435
4901.000000;1.886833
4900.000000;1.880146
4899.000000;1.872474
4898.000000;1.865006
4897.000000;1.859136
4896.000000;1.855144
4895.000000;1.851895
4894.000000;1.847840
4893.000000;1.842265
4892.000000;1.835686
4891.000000;1.829247
4890.000000;1.823787
4889.000000;1.819272
4888.000000;1.814983
4887.000000;1.810252
4886.000000;1.805046
4885.000000;1.799800
4884.000000;1.794763
4883.000000;1.789715
4882.000000;1.784351
4881.000000;1.778721
4880.000000;1.773171
4879.000000;1.767918
4878.000000;1.762835
4877.000000;1.757638
4876.000000;1.752200
4875.000000;1.746654
4874.000000;1.741237
4873.000000;1.736099
4872.000000;1.731242
4871.000000;1.726556
4870.000000;1.721843
4869.000000;1.716862
4868.000000;1.711488
4867.000000;1.705861
4866.000000;1.700294
4865.000000;1.694994
4864.000000;1.689882
4863.000000;1.684670
4862.000000;1.679074
4861.000000;1.673076
4860.000000;1.667077
4859.000000;1.661721
4858.000000;1.657395
4857.000000;1.653812
4856.000000;1.650200
4855.000000;1.645946
4854.000000;1.641048
4853.000000;1.635936
4852.000000;1.630998
4851.000000;1.626331
4850.000000;1.621811
4849.000000;1.617263
4848.000000;1.612577
4847.000000;1.607779
4846.000000;1.602968
4845.000000;1.598175
4844.000000;1.593319
4843.000000;1.588306
4842.000000;1.583165
4841.000000;1.578071
4840.000000;1.573252
4839.000000;1.568801
4838.000000;1.564536
4837.000000;1.560101
4836.000000;1.555289
4835.000000;1.550267
4834.000000;1.545388
4833.000000;1.540823
4832.000000;1.536442
4831.000000;1.532025
4830.000000;1.527503
4829.000000;1.523005
4828.000000;1.518753
4827.000000;1.514877
4826.000000;1.511225
4825.000000;1.507390
4824.000000;1.503034
4823.000000;1.498201
4822.000000;1.493205
4821.000000;1.488226
4820.000000;1.483179
4819.000000;1.477988
4818.000000;1.472860
4817.000000;1.468193
4816.000000;1.464221
4815.000000;1.460762
4814.000000;1.457286
4813.000000;1.453318
4812.000000;1.448863
4811.000000;1.444364
4810.000000;1.440163
4809.000000;1.436116
4808.000000;1.431849
4807.000000;1.427312
4806.000000;1.422822
4805.000000;1.418619
4804.000000;1.414656
4803.000000;1.410780
4802.000000;1.406908
4801.000000;1.402929
4800.000000;1.398731
4799.000000;1.394407
4798.000000;1.390225
4797.000000;1.386288
4796.000000;1.382445
4795.000000;1.378652
4794.000000;1.375117
4793.000000;1.371908
4792.000000;1.368625
4791.000000;1.364745
4790.000000;1.360247
4789.000000;1.355640
4788.000000;1.351435
4787.000000;1.347733
4786.000000;1.344298
4785.000000;1.340817
4784.000000;1.337083
4783.000000;1.333086
4782.000000;1.329010
4781.000000;1.325086
4780.000000;1.321415
4779.000000;1.317920
4778.000000;1.314444
4777.000000;1.310861
4776.000000;1.307179
4775.000000;1.303562
4774.000000;1.300168
4773.000000;1.296921
4772.000000;1.293543
4771.000000;1.289901
4770.000000;1.286172
4769.000000;1.282577
4768.000000;1.279077
4767.000000;1.275490
4766.000000;1.271789
4765.000000;1.268092
4764.000000;1.264424
4763.000000;1.260686
4762.000000;1.256889
4761.000000;1.253231
4760.000000;1.249899
4759.000000;1.246894
4758.000000;1.244082
4757.000000;1.241291
4756.000000;1.238337
4755.000000;1.235066
4754.000000;1.231477
4753.000000;1.227753
4752.000000;1.224110
4751.000000;1.220649
4750.000000;1.217345
4749.000000;1.214125
4748.000000;1.210947
4747.000000;1.207816
4746.000000;1.204770
4745.000000;1.201813
4744.000000;1.198889
4743.000000;1.195946
4742.000000;1.192961
4741.000000;1.189897
4740.000000;1.186675
4739.000000;1.183298
4738.000000;1.179933
4737.000000;1.176773
4736.000000;1.173827
4735.000000;1.170958
4734.000000;1.168092
4733.000000;1.165293
4732.000000;1.162603
4731.000000;1.159954
4730.000000;1.157281
4729.000000;1.154614
4728.000000;1.151971
4727.000000;1.149269
4726.000000;1.146415
4725.000000;1.143446
4724.000000;1.140493
4723.000000;1.137631
4722.000000;1.134847
4721.000000;1.132129
4720.000000;1.129512
4719.000000;1.127018
4718.000000;1.124601
4717.000000;1.122164
4716.000000;1.119622
4715.000000;1.116971
4714.000000;1.114285
4713.000000;1.111642
4712.000000;1.109043
4711.000000;1.106427
4710.000000;1.103800
4709.000000;1.101278
4708.000000;1.098964
4707.000000;1.096809
4706.000000;1.094649
4705.000000;1.092378
4704.000000;1.090031
4703.000000;1.087685
4702.000000;1.085330
4701.000000;1.082904
4700.000000;1.080401
4699.000000;1.077919
4698.000000;1.075572
4697.000000;1.073393
4696.000000;1.071321
4695.000000;1.069258
4694.000000;1.067118
4693.000000;1.064869
4692.000000;1.062566
4691.000000;1.060345
4690.000000;1.058315
4689.000000;1.056422
4688.000000;1.054478
4687.000000;1.052350
4686.000000;1.050106
4685.000000;1.047930
4684.000000;1.045925
4683.000000;1.044042
4682.000000;1.042186
4681.000000;1.040312
4680.000000;1.038412
4679.000000;1.036477
4678.000000;1.034506
4677.000000;1.032503
4676.000000;1.030470
4675.000000;1.028432
4674.000000;1.026477
4673.000000;1.024697
4672.000000;1.023052
4671.000000;1.021359
4670.000000;1.019495
4669.000000;1.017567
4668.000000;1.015795
4667.000000;1.014228
4666.000000;1.012661
4665.000000;1.010874
4664.000000;1.008888
4663.000000;1.006942
4662.000000;1.005257
4661.000000;1.003863
4660.000000;1.002633
4659.000000;1.001405
4658.000000;1.000042
4657.000000;0.998451
4656.000000;0.996629
4655.000000;0.994708
4654.000000;0.992895
4653.000000;0.991311
4652.000000;0.989903
4651.000000;0.988523
4650.000000;0.987103
4649.000000;0.985702
4648.000000;0.984400
4647.000000;0.983164
4646.000000;0.981863
4645.000000;0.980387
4644.000000;0.978751
4643.000000;0.977106
4642.000000;0.975651
4641.000000;0.974475
4640.000000;0.973448
4639.000000;0.972301
4638.000000;0.970870
4637.000000;0.969260
4636.000000;0.967734
4635.000000;0.966451
4634.000000;0.965351
4633.000000;0.964282
4632.000000;0.963156
4631.000000;0.961954
4630.000000;0.960658
4629.000000;0.959260
4628.000000;0.957839
4627.000000;0.956547
4626.000000;0.955481
4625.000000;0.954601
4624.000000;0.953783
4623.000000;0.952916
4622.000000;0.951945
4621.000000;0.950860
4620.000000;0.949710
4619.000000;0.948598
4618.000000;0.947596
4617.000000;0.946649
4616.000000;0.945616
4615.000000;0.944447
4614.000000;0.943259
4613.000000;0.942203
4612.000000;0.941271
4611.000000;0.940324
4610.000000;0.939290
4609.000000;0.938261
4608.000000;0.937359
4607.000000;0.936576
4606.000000;0.935821
4605.000000;0.935064
4604.000000;0.934349
4603.000000;0.933684
4602.000000;0.932992
4601.000000;0.932208
4600.000000;0.931362
4599.000000;0.930533
4598.000000;0.929753
4597.000000;0.928979
4596.000000;0.928148
4595.000000;0.927253
4594.000000;0.926394
4593.000000;0.925733
4592.000000;0.925351
4591.000000;0.925118
4590.000000;0.924781
4589.000000;0.924203
4588.000000;0.923485
4587.000000;0.922815
4586.000000;0.922252
4585.000000;0.921732
4584.000000;0.921223
4583.000000;0.920788
4582.000000;0.920479
4581.000000;0.920238
4580.000000;0.919944
4579.000000;0.919514
4578.000000;0.918964
4577.000000;0.918401
4576.000000;0.917963
4575.000000;0.917731
4574.000000;0.917670
4573.000000;0.917652
4572.000000;0.917556
4571.000000;0.917324
4570.000000;0.916959
4569.000000;0.916520
4568.000000;0.916102
4567.000000;0.915798
4566.000000;0.915642
4565.000000;0.915616
4564.000000;0.915683
4563.000000;0.915785
4562.000000;0.915836
4561.000000;0.915778
4560.000000;0.915650
4559.000000;0.915554
4558.000000;0.915539
4557.000000;0.915586
4556.000000;0.915684
4555.000000;0.915852
4554.000000;0.916061
4553.000000;0.916221
4552.000000;0.916311
4551.000000;0.916437
4550.000000;0.916703
4549.000000;0.917073
4548.000000;0.917418
4547.000000;0.917675
4546.000000;0.917871
4545.000000;0.918040
4544.000000;0.918194
4543.000000;0.918380
4542.000000;0.918665
4541.000000;0.919049
4540.000000;0.919465
4539.000000;0.919874
4538.000000;0.920317
4537.000000;0.920820
4536.000000;0.921320
4535.000000;0.921701
4534.000000;0.921906
4533.000000;0.921985
4532.000000;0.922060
4531.000000;0.922245
4530.000000;0.922572
4529.000000;0.922965
4528.000000;0.923321
4527.000000;0.923624
4526.000000;0.923958
4525.000000;0.924381
4524.000000;0.924836
4523.000000;0.925232
4522.000000;0.925579
4521.000000;0.925979
4520.000000;0.926493
4519.000000;0.927064
4518.000000;0.927575
4517.000000;0.927957
4516.000000;0.928232
4515.000000;0.928467
4514.000000;0.928718
4513.000000;0.929004
4512.000000;0.929318
4511.000000;0.929667
4510.000000;0.930078
4509.000000;0.930564
4508.000000;0.931086
4507.000000;0.931576
4506.000000;0.932019
4505.000000;0.932483
4504.000000;0.933045
4503.000000;0.933689
4502.000000;0.934326
4501.000000;0.934909
4500.000000;0.935492
4499.000000;0.936150
4498.000000;0.936873
4497.000000;0.937583
4496.000000;0.938250
4495.000000;0.938928
4494.000000;0.939667
4493.000000;0.940434
4492.000000;0.941159
4491.000000;0.941811
4490.000000;0.942414
4489.000000;0.943013
4488.000000;0.943679
4487.000000;0.944505
4486.000000;0.945541
4485.000000;0.946704
4484.000000;0.947828
4483.000000;0.948812
4482.000000;0.949709
4481.000000;0.950629
4480.000000;0.951614
4479.000000;0.952623
4478.000000;0.953618
4477.000000;0.954590
4476.000000;0.955517
4475.000000;0.956351
4474.000000;0.957120
4473.000000;0.957980
4472.000000;0.959124
4471.000000;0.960601
4470.000000;0.962254
4469.000000;0.963852
4468.000000;0.965278
4467.000000;0.966607
4466.000000;0.968000
4465.000000;0.969539
4464.000000;0.971135
4463.000000;0.972596
4462.000000;0.973830
4461.000000;0.974965
4460.000000;0.976242
4459.000000;0.977783
4458.000000;0.979512
4457.000000;0.981316
4456.000000;0.983198
4455.000000;0.985199
4454.000000;0.987220
4453.000000;0.989048
4452.000000;0.990571
4451.000000;0.991893
4450.000000;0.993203
4449.000000;0.994605
4448.000000;0.996119
4447.000000;0.997761
4446.000000;0.999544
4445.000000;1.001422
4444.000000;1.003300
4443.000000;1.005124
4442.000000;1.006918
4441.000000;1.008749
4440.000000;1.010672
4439.000000;1.012712
4438.000000;1.014863
4437.000000;1.017081
4436.000000;1.019277
4435.000000;1.021328
4434.000000;1.023155
4433.000000;1.024832
4432.000000;1.026593
4431.000000;1.028670
4430.000000;1.031088
4429.000000;1.033647
4428.000000;1.036111
4427.000000;1.038379
4426.000000;1.040495
4425.000000;1.042558
4424.000000;1.044661
4423.000000;1.046845
4422.000000;1.049054
4421.000000;1.051187
4420.000000;1.053235
4419.000000;1.055338
4418.000000;1.057665
4417.000000;1.060261
4416.000000;1.063039
4415.000000;1.065857
4414.000000;1.068557
4413.000000;1.071003
4412.000000;1.073205
4411.000000;1.075394
4410.000000;1.077855
4409.000000;1.080623
4408.000000;1.083423
4407.000000;1.085970
4406.000000;1.088303
4405.000000;1.090731
4404.000000;1.093482
4403.000000;1.096469
4402.000000;1.099463
4401.000000;1.102412
4400.000000;1.105480
4399.000000;1.108746
4398.000000;1.111991
4397.000000;1.114891
4396.000000;1.117354
4395.000000;1.119587
4394.000000;1.121864
4393.000000;1.124375
4392.000000;1.127236
4391.000000;1.130451
4390.000000;1.133787
4389.000000;1.136875
4388.000000;1.139580
4387.000000;1.142183
4386.000000;1.145058
4385.000000;1.148230
4384.000000;1.151396
4383.000000;1.154324
4382.000000;1.157083
4381.000000;1.159899
4380.000000;1.162911
4379.000000;1.166129
4378.000000;1.169507
4377.000000;1.172998
4376.000000;1.176544
4375.000000;1.180047
4374.000000;1.183368
4373.000000;1.186405
4372.000000;1.189253
4371.000000;1.192243
4370.000000;1.195725
4369.000000;1.199754
4368.000000;1.204025
4367.000000;1.208105
4366.000000;1.211739
4365.000000;1.215004
4364.000000;1.218221
4363.000000;1.221719
4362.000000;1.225597
4361.000000;1.229694
4360.000000;1.233761
4359.000000;1.237650
4358.000000;1.241347
4357.000000;1.244938
4356.000000;1.248601
4355.000000;1.252538
4354.000000;1.256796
4353.000000;1.261181
4352.000000;1.265443
4351.000000;1.269516
4350.000000;1.273497
4349.000000;1.277464
4348.000000;1.281418
4347.000000;1.285396
4346.000000;1.289474
4345.000000;1.293638
4344.000000;1.297762
4343.000000;1.301772
4342.000000;1.305760
4341.000000;1.309886
4340.000000;1.314189
4339.000000;1.318522
4338.000000;1.322714
4337.000000;1.326796
4336.000000;1.331037
4335.000000;1.335668
4334.000000;1.340583
4333.000000;1.345400
4332.000000;1.349860
4331.000000;1.354049
4330.000000;1.358222
4329.000000;1.362559
4328.000000;1.367176
4327.000000;1.372175
4326.000000;1.377509
4325.000000;1.382908
4324.000000;1.388094
4323.000000;1.393003
4322.000000;1.397744
4321.000000;1.402465
4320.000000;1.407368
4319.000000;1.412612
4318.000000;1.418047
4317.000000;1.423262
4316.000000;1.428129
4315.000000;1.433059
4314.000000;1.438409
4313.000000;1.443835
4312.000000;1.448668
4311.000000;1.452850
4310.000000;1.457020
4309.000000;1.461702
4308.000000;1.466875
4307.000000;1.472403
4306.000000;1.478374
4305.000000;1.484781
4304.000000;1.491298
4303.000000;1.497601
4302.000000;1.503586
4301.000000;1.509063
4300.000000;1.513707
4299.000000;1.517744
4298.000000;1.522286
4297.000000;1.528419
4296.000000;1.536010
4295.000000;1.543814
4294.000000;1.550754
4293.000000;1.556728
4292.000000;1.562150
4291.000000;1.567217
4290.000000;1.571940
4289.000000;1.576573
4288.000000;1.581581
4287.000000;1.587120
4286.000000;1.592846
4285.000000;1.598399
4284.000000;1.603975
4283.000000;1.610210
4282.000000;1.617433
4281.000000;1.625167
4280.000000;1.632500
4279.000000;1.638840
4278.000000;1.644136
4277.000000;1.648634
4276.000000;1.652875
4275.000000;1.657879
4274.000000;1.664707
4273.000000;1.673365
4272.000000;1.682299
4271.000000;1.689450
4270.000000;1.694061
4269.000000;1.697438
4268.000000;1.701921
4267.000000;1.709096
4266.000000;1.718567
4265.000000;1.728125
4264.000000;1.735355
4263.000000;1.739540
4262.000000;1.742122
4261.000000;1.745298
4260.000000;1.750360
4259.000000;1.757238
4258.000000;1.765047
4257.000000;1.772783
4256.000000;1.779790
4255.000000;1.786028
4254.000000;1.792095
4253.000000;1.798727
4252.000000;1.806151
4251.000000;1.813997
4250.000000;1.821738
4249.000000;1.829103
4248.000000;1.835970
4247.000000;1.841938
4246.000000;1.846382
4245.000000;1.849283
4244.000000;1.852101
4243.000000;1.856679
4242.000000;1.863533
4241.000000;1.871125
4240.000000;1.877727
4239.000000;1.883886
4238.000000;1.892138
4237.000000;1.904023
4236.000000;1.918052
4235.000000;1.930881
4234.000000;1.940043
4233.000000;1.945193
4232.000000;1.947461
4231.000000;1.948830
4230.000000;1.951810
4229.000000;1.958216
4228.000000;1.967482
4227.000000;1.976717
4226.000000;1.983225
4225.000000;1.986882
4224.000000;1.989662
4223.000000;1.993586
4222.000000;1.999885
4221.000000;2.009192
4220.000000;2.020961
4219.000000;2.032713
4218.000000;2.041576
4217.000000;2.047506
4216.000000;2.053772
4215.000000;2.063268
4214.000000;2.075323
4213.000000;2.086996
4212.000000;2.096449
4211.000000;2.103986
4210.000000;2.110542
4209.000000;2.116616
4208.000000;2.122908
4207.000000;2.129869
4206.000000;2.136587
4205.000000;2.141924
4204.000000;2.146443
4203.000000;2.151764
4202.000000;2.157652
4201.000000;2.162074
4200.000000;2.165362
4199.000000;2.171504
4198.000000;2.183455
4197.000000;2.199051
4196.000000;2.213337
4195.000000;2.223607
4194.000000;2.229696
4193.000000;2.231897
4192.000000;2.232746
4191.000000;2.237961
4190.000000;2.251862
4189.000000;2.272497
4188.000000;2.292999
4187.000000;2.308105
4186.000000;2.316886
4185.000000;2.319427
4184.000000;2.316530
4183.000000;2.312857
4182.000000;2.315598
4181.000000;2.328578
4180.000000;2.348461
4179.000000;2.367322
4178.000000;2.378919
4177.000000;2.382387
4176.000000;2.381584
4175.000000;2.383029
4174.000000;2.392335
4173.000000;2.408709
4172.000000;2.422243
4171.000000;2.423598
4170.000000;2.418085
4169.000000;2.418241
4168.000000;2.428454
4167.000000;2.442351
4166.000000;2.451635
4165.000000;2.457209
4164.000000;2.468127
4163.000000;2.488485
4162.000000;2.507802
4161.000000;2.509175
4160.000000;2.491743
4159.000000;2.474874
4158.000000;2.476559
4157.000000;2.497775
4156.000000;2.524236
4155.000000;2.541773
4154.000000;2.550829
4153.000000;2.559350
4152.000000;2.569830
4151.000000;2.580715
4150.000000;2.593884
4149.000000;2.612680
4148.000000;2.634059
4147.000000;2.648605
4146.000000;2.648493
4145.000000;2.634907
4144.000000;2.616687
4143.000000;2.603094
4142.000000;2.599132
4141.000000;2.604797
4140.000000;2.617077
4139.000000;2.632919
4138.000000;2.648390
4137.000000;2.656530
4136.000000;2.651816
4135.000000;2.636971
4134.000000;2.621912
4133.000000;2.613421
4132.000000;2.611832
4131.000000;2.616225
4130.000000;2.628045
4129.000000;2.649912
4128.000000;2.680156
4127.000000;2.712031
4126.000000;2.740386
4125.000000;2.766796
4124.000000;2.796716
4123.000000;2.833996
4122.000000;2.875511
4121.000000;2.898688
4120.000000;2.879672
4119.000000;2.840707
4118.000000;2.820291
4117.000000;2.831857
4116.000000;2.860911
4115.000000;2.875423
4114.000000;2.849520
4113.000000;2.794046
4112.000000;2.745157
4111.000000;2.722219
4110.000000;2.722250
4109.000000;2.735880
4108.000000;2.760856
4107.000000;2.800319
4106.000000;2.849397
4105.000000;2.890953
4104.000000;2.903329
4103.000000;2.875985
4102.000000;2.826405
4101.000000;2.786640
4100.000000;2.775513
4099.000000;2.792493
4098.000000;2.825985
4097.000000;2.863249
4096.000000;2.899226
4095.000000;2.930120
4094.000000;2.947988
4093.000000;2.954293
4092.000000;2.959840
4091.000000;2.969786
4090.000000;2.980195
4089.000000;2.983635
4088.000000;2.975642
4087.000000;2.954509
4086.000000;2.921619
4085.000000;2.889295
4084.000000;2.877174
4083.000000;2.896707
4082.000000;2.938117
4081.000000;2.967298
4080.000000;2.961811
4079.000000;2.962449
4078.000000;2.997313
4077.000000;3.018837
4076.000000;3.013534
4075.000000;3.013505
4074.000000;3.017871
4073.000000;3.018941
4072.000000;3.022321
4071.000000;3.058607
4070.000000;3.164365
4069.000000;3.336672
4068.000000;3.457806
4067.000000;3.360222
4066.000000;3.172304
4065.000000;3.039764
4064.000000;2.976117
4063.000000;2.963653
4062.000000;2.974897
4061.000000;2.973615
4060.000000;2.941528
4059.000000;2.900390
4058.000000;2.882317
4057.000000;2.888593
4056.000000;2.890502
4055.000000;2.870540
4054.000000;2.850128
4053.000000;2.860398
4052.000000;2.899886
4051.000000;2.928637
4050.000000;2.929848
4049.000000;2.920635
4048.000000;2.912801
4047.000000;2.921935
4046.000000;2.953959
4045.000000;2.999950
4044.000000;3.039927
4043.000000;3.054322
4042.000000;3.055930
4041.000000;3.075331
4040.000000;3.116320
4039.000000;3.162581
4038.000000;3.197552
4037.000000;3.195927
4036.000000;3.154866
4035.000000;3.120523
4034.000000;3.131196
4033.000000;3.177953
4032.000000;3.194901
4031.000000;3.164401
4030.000000;3.147171
4029.000000;3.138021
4028.000000;3.103198
4027.000000;3.050056
4026.000000;2.999959
4025.000000;2.981273
4024.000000;3.012488
4023.000000;3.078139
4022.000000;3.133839
4021.000000;3.139436
4020.000000;3.090141
4019.000000;3.036452
4018.000000;3.026028
4017.000000;3.047701
4016.000000;3.042884
4015.000000;2.987863
4014.000000;2.931781
4013.000000;2.909589
4012.000000;2.915973
4011.000000;2.942998
4010.000000;2.996245
4009.000000;3.084778
4008.000000;3.221949
4007.000000;3.434005
4006.000000;3.664834
4005.000000;3.620884
4004.000000;3.539212
4003.000000;3.410892
4002.000000;3.202388
4001.000000;3.055367
4000.000000;2.984043
3999.000000;2.983302
3998.000000;3.060354
3997.000000;3.226488
3996.000000;3.508337
3995.000000;3.711325
3994.000000;3.479502
3993.000000;3.280369
3992.000000;3.210120
3991.000000;3.203379
3990.000000;3.213976
3989.000000;3.238256
3988.000000;3.269779
3987.000000;3.287970
3986.000000;3.287894
3985.000000;3.269380
3984.000000;3.205562
3983.000000;3.097517
3982.000000;3.017657
3981.000000;2.991783
3980.000000;2.989209
3979.000000;2.977016
3978.000000;2.964776
3977.000000;2.975096
3976.000000;3.012124
3975.000000;3.070015
3974.000000;3.146599
3973.000000;3.249445
3972.000000;3.393358
3971.000000;3.515849
3970.000000;3.475314
3969.000000;3.392839
3968.000000;3.376817
3967.000000;3.488520
3966.000000;3.753001
3965.000000;3.804998
3964.000000;3.618681
3963.000000;3.320660
3962.000000;3.135427
3961.000000;3.112190
3960.000000;3.223276
3959.000000;3.396868
3958.000000;3.228984
3957.000000;3.024071
3956.000000;2.935676
3955.000000;2.911077
3954.000000;2.929103
3953.000000;2.984869
3952.000000;3.080419
3951.000000;3.217480
3950.000000;3.358187
3949.000000;3.367568
3948.000000;3.241247
3947.000000;3.164812
3946.000000;3.201398
3945.000000;3.233556
3944.000000;3.194434
3943.000000;3.227940
3942.000000;3.281597
3941.000000;3.139237
3940.000000;2.982801
3939.000000;2.924001
3938.000000;2.938540
3937.000000;2.994869
3936.000000;3.054665
3935.000000;3.127966
3934.000000;3.231802
3933.000000;3.439239
3932.000000;3.796251
3931.000000;3.744685
3930.000000;3.919184
3929.000000;3.620104
3928.000000;3.176252
3927.000000;2.931032
3926.000000;2.792653
3925.000000;2.729653
3924.000000;2.736128
3923.000000;2.818931
3922.000000;3.069606
3921.000000;3.562808
3920.000000;3.429873
3919.000000;3.434856
3918.000000;3.765224
3917.000000;3.667641
3916.000000;3.460492
3915.000000;3.290408
3914.000000;3.133961
3913.000000;3.031900
3912.000000;3.018564
3911.000000;3.235128
3910.000000;3.471472
3909.000000;3.250124
3908.000000;3.217622
3907.000000;3.370632
3906.000000;3.799715
3905.000000;3.538610
3904.000000;3.204177
3903.000000;3.209141
3902.000000;3.345463
3901.000000;3.476315
3900.000000;3.561398
3899.000000;3.668790
3898.000000;3.731621
3897.000000;3.562836
3896.000000;3.394650
3895.000000;3.238738
3894.000000;3.045832
3893.000000;2.892702
3892.000000;2.854003
3891.000000;3.014893
3890.000000;3.493357
3889.000000;3.430482
3888.000000;3.113229
3887.000000;2.948159
3886.000000;2.863765
3885.000000;2.951894
3884.000000;3.200593
3883.000000;3.447179
3882.000000;3.613913
3881.000000;3.469248
3880.000000;3.168818
3879.000000;3.115227
3878.000000;3.291951
3877.000000;3.465318
3876.000000;3.258495
3875.000000;2.991317
3874.000000;2.935778
3873.000000;3.077544
3872.000000;3.222600
3871.000000;3.104939
3870.000000;2.849839
3869.000000;2.757897
3868.000000;2.869161
3867.000000;2.995857
3866.000000;2.952601
3865.000000;2.935558
3864.000000;3.079868
3863.000000;3.121322
3862.000000;3.185304
3861.000000;3.362701
3860.000000;3.204626
3859.000000;3.095567
3858.000000;3.079910
3857.000000;3.133237
3856.000000;3.305420
3855.000000;3.262540
3854.000000;3.282873
3853.000000;3.148778
3852.000000;2.986271
3851.000000;2.894626
3850.000000;2.925844
3849.000000;3.046214
3848.000000;3.320689
3847.000000;3.358190
3846.000000;3.101258
3845.000000;3.148725
3844.000000;3.158915
3843.000000;3.224392
3842.000000;3.468537
3841.000000;3.873496
3840.000000;3.231571
3839.000000;2.959152
3838.000000;2.991463
3837.000000;3.268231
3836.000000;2.992534
3835.000000;2.936450
3834.000000;3.027981
3833.000000;2.870993
3832.000000;3.003148
3831.000000;3.393671
3830.000000;3.374557
3829.000000;3.117620
3828.000000;3.004413
3827.000000;2.968712
3826.000000;2.937352
3825.000000;2.860273
3824.000000;2.844353
3823.000000;2.878335
3822.000000;3.075189
3821.000000;3.443736
3820.000000;3.260961
3819.000000;3.037419
3818.000000;2.919207
3817.000000;2.835610
3816.000000;3.040424
3815.000000;2.794347
3814.000000;2.478420
3813.000000;2.539178
3812.000000;2.474119
3811.000000;2.610457
3810.000000;2.945635
3809.000000;3.183664
3808.000000;3.130409
3807.000000;3.453251
3806.000000;3.086713
3805.000000;2.911068
3804.000000;2.814443
3803.000000;3.366824
3802.000000;2.689202
3801.000000;2.458242
3800.000000;3.149686
3799.000000;2.910944
3798.000000;3.289894
3797.000000;3.292538
3796.000000;3.246236
3795.000000;3.084495
3794.000000;3.097459
3793.000000;3.122292
3792.000000;3.048826
3791.000000;2.980313
3790.000000;3.012050
3789.000000;3.031089
3788.000000;2.920374
3787.000000;2.838729
3786.000000;2.777396
3785.000000;2.715818
3784.000000;2.675574
3783.000000;2.748637
3782.000000;2.922531
3781.000000;2.927747
3780.000000;3.119236
3779.000000;3.179670
3778.000000;2.863311
3777.000000;2.830167
3776.000000;2.881526
3775.000000;2.952794
3774.000000;3.141039
3773.000000;3.300891
3772.000000;3.091912
3771.000000;3.019213
3770.000000;2.878802
3769.000000;2.705716
3768.000000;2.689094
3767.000000;2.735671
3766.000000;2.857055
3765.000000;3.057889
3764.000000;3.044157
3763.000000;2.951269
3762.000000;2.919638
3761.000000;2.791229
3760.000000;2.829931
3759.000000;3.084728
3758.000000;3.097106
3757.000000;3.113198
3756.000000;3.089554
3755.000000;3.224640
3754.000000;3.374390
3753.000000;3.328793
3752.000000;3.168826
3751.000000;3.075773
3750.000000;3.026933
3749.000000;3.081018
3748.000000;3.078507
3747.000000;3.078692
3746.000000;3.565697
3745.000000;3.296815
3744.000000;2.952040
3743.000000;3.031435
3742.000000;3.282047
3741.000000;3.493638
3740.000000;3.854109
3739.000000;3.468916
3738.000000;3.067715
3737.000000;2.901026
3736.000000;2.842223
3735.000000;2.863703
3734.000000;2.969937
3733.000000;3.129822
3732.000000;2.957442
3731.000000;2.624960
3730.000000;2.486599
3729.000000;2.435054
3728.000000;2.325547
3727.000000;2.262974
3726.000000;2.324036
3725.000000;2.410965
3724.000000;2.396876
3723.000000;2.379816
3722.000000;2.451974
3721.000000;2.654672
3720.000000;2.911816
3719.000000;3.119636
3718.000000;2.855277
3717.000000;2.621786
3716.000000;2.572023
3715.000000;2.613669
3714.000000;2.686550
3713.000000;2.701556
3712.000000;2.666074
3711.000000;2.741230
3710.000000;2.960211
3709.000000;2.795224
3708.000000;2.576461
3707.000000;2.581753
3706.000000;2.672825
3705.000000;2.720826
3704.000000;2.672490
3703.000000;2.799131
3702.000000;2.963011
3701.000000;2.711799
3700.000000;2.642139
3699.000000;2.718677
3698.000000;2.876660
3697.000000;3.125379
3696.000000;3.106731
3695.000000;3.007216
3694.000000;2.967250
3693.000000;2.756526
3692.000000;2.565906
3691.000000;2.507896
3690.000000;2.550900
3689.000000;2.616417
3688.000000;2.580961
3687.000000;2.510387
3686.000000;2.549683
3685.000000;2.805406
3684.000000;2.964753
3683.000000;2.895332
3682.000000;2.905609
3681.000000;2.681994
3680.000000;2.592930
3679.000000;2.764648
3678.000000;2.977239
3677.000000;3.009866
3676.000000;3.183380
3675.000000;3.207323
3674.000000;3.180823
3673.000000;2.864776
3672.000000;2.845913
3671.000000;2.635473
3670.000000;2.881957
3669.000000;2.294258
3668.000000;2.100712
3667.000000;2.423334
3666.000000;2.417916
3665.000000;2.470776
3664.000000;2.488035
3663.000000;2.691240
3662.000000;2.942834
3661.000000;3.200332
3660.000000;3.676920
3659.000000;2.783726
3658.000000;2.384469
3657.000000;2.271695
3656.000000;2.398044
3655.000000;2.914654
3654.000000;3.632065
3653.000000;2.943910
3652.000000;2.739316
3651.000000;2.565696
3650.000000;2.486886
3649.000000;2.538077
3648.000000;2.561686
3647.000000;2.534058
3646.000000;2.465379
3645.000000;2.391615
3644.000000;2.325809
3643.000000;2.337847
3642.000000;2.366735
3641.000000;2.390898
3640.000000;2.501578
3639.000000;2.792426
3638.000000;3.179295
3637.000000;2.691026
3636.000000;2.392523
3635.000000;2.310934
3634.000000;2.349795
3633.000000;2.439789
3632.000000;2.483550
3631.000000;2.505451
3630.000000;2.435588
3629.000000;2.432345
3628.000000;2.645274
3627.000000;2.940658
3626.000000;2.985244
3625.000000;2.678624
3624.000000;2.386481
3623.000000;2.344723
3622.000000;2.543426
3621.000000;3.154712
3620.000000;3.192691
3619.000000;2.615890
3618.000000;2.531749
3617.000000;2.601284
3616.000000;2.722534
3615.000000;2.446092
3614.000000;2.139804
3613.000000;2.042626
3612.000000;2.070036
3611.000000;2.156493
3610.000000;2.262570
3609.000000;2.376424
3608.000000;2.473904
3607.000000;2.621666
3606.000000;3.085205
3605.000000;3.035126
3604.000000;3.007010
3603.000000;3.175788
3602.000000;2.528909
3601.000000;2.311486
3600.000000;2.283789
3599.000000;2.548831
3598.000000;3.143828
3597.000000;2.579050
3596.000000;2.483216
3595.000000;2.882005
3594.000000;2.837396
3593.000000;2.390384
3592.000000;2.323941
3591.000000;2.367269
3590.000000;2.587367
3589.000000;3.196018
3588.000000;3.252474
3587.000000;3.085865
3586.000000;2.515764
3585.000000;2.168351
3584.000000;2.036622
3583.000000;2.040820
3582.000000;2.238846
3581.000000;2.692291
3580.000000;2.736655
3579.000000;2.603104
3578.000000;2.661100
3577.000000;2.497676
3576.000000;2.169649
3575.000000;1.942590
3574.000000;1.839841
3573.000000;1.849844
3572.000000;1.980660
3571.000000;2.254530
3570.000000;2.529919
3569.000000;2.478502
3568.000000;2.365897
3567.000000;2.279087
3566.000000;2.252288
3565.000000;2.209040
3564.000000;2.168646
3563.000000;2.382727
3562.000000;2.509003
3561.000000;2.227922
3560.000000;2.151232
3559.000000;2.229115
3558.000000;2.332954
3557.000000;2.309355
3556.000000;2.298092
3555.000000;2.386223
3554.000000;2.543507
3553.000000;2.809446
3552.000000;2.638708
3551.000000;2.294410
3550.000000;2.105328
3549.000000;2.004895
3548.000000;1.966229
3547.000000;2.016378
3546.000000;2.090268
3545.000000;2.041694
3544.000000;1.973011
3543.000000;2.013215
3542.000000;2.200249
3541.000000;2.300365
3540.000000;2.214236
3539.000000;2.292770
3538.000000;2.603019
3537.000000;2.689785
3536.000000;2.448736
3535.000000;2.356271
3534.000000;2.352025
3533.000000;2.423261
3532.000000;2.335680
3531.000000;2.116046
3530.000000;1.980444
3529.000000;1.949757
3528.000000;2.009760
3527.000000;2.181947
3526.000000;2.630471
3525.000000;2.534381
3524.000000;2.149797
3523.000000;2.115708
3522.000000;2.283874
3521.000000;2.739606
3520.000000;3.405355
3519.000000;2.817153
3518.000000;2.642084
3517.000000;2.576918
3516.000000;2.550636
3515.000000;2.594300
3514.000000;2.728655
3513.000000;2.677047
3512.000000;2.451445
3511.000000;2.379915
3510.000000;2.413888
3509.000000;2.459956
3508.000000;2.416047
3507.000000;2.318631
3506.000000;2.284509
3505.000000;2.404730
3504.000000;2.742532
3503.000000;3.232176
3502.000000;2.543169
3501.000000;2.262004
3500.000000;2.182978
3499.000000;2.413841
3498.000000;3.495948
3497.000000;2.525261
3496.000000;2.380131
3495.000000;2.590171
3494.000000;2.993569
3493.000000;3.011451
3492.000000;2.584000
3491.000000;2.479858
3490.000000;2.478948
3489.000000;2.537626
3488.000000;2.507914
3487.000000;2.414658
3486.000000;2.318093
3485.000000;2.283704
3484.000000;2.317844
3483.000000;2.409832
3482.000000;2.768149
3481.000000;3.062181
3480.000000;2.669009
3479.000000;2.608790
3478.000000;2.631435
3477.000000;2.536515
3476.000000;2.414259
3475.000000;2.339706
3474.000000;2.351204
3473.000000;2.466072
3472.000000;2.841713
3471.000000;3.105372
3470.000000;2.710965
3469.000000;2.645542
3468.000000;2.646823
3467.000000;2.598705
3466.000000;2.609375
3465.000000;2.639341
3464.000000;2.601677
3463.000000;2.513264
3462.000000;2.482197
3461.000000;2.486076
3460.000000;2.452337
3459.000000;2.440864
3458.000000;2.583732
3457.000000;2.825807
3456.000000;2.809892
3455.000000;2.737672
3454.000000;2.694950
3453.000000;2.680649
3452.000000;2.798877
3451.000000;2.940595
3450.000000;3.100279
3449.000000;3.207517
3448.000000;2.941608
3447.000000;2.688498
3446.000000;2.582920
3445.000000;2.643931
3444.000000;2.671957
3443.000000;2.521499
3442.000000;2.464390
3441.000000;2.599300
3440.000000;3.016124
3439.000000;3.190007
3438.000000;2.812154
3437.000000;2.619498
3436.000000;2.475908
3435.000000;2.397165
3434.000000;2.372176
3433.000000;2.375718
3432.000000;2.406620
3431.000000;2.480549
3430.000000;2.575997
3429.000000;2.572861
3428.000000;2.543506
3427.000000;2.592579
3426.000000;2.658763
3425.000000;2.900522
3424.000000;3.197731
3423.000000;2.872155
3422.000000;2.835115
3421.000000;2.762518
3420.000000;2.485775
3419.000000;2.337055
3418.000000;2.319637
3417.000000;2.442138
3416.000000;2.691981
3415.000000;2.865149
3414.000000;2.940020
3413.000000;3.084509
3412.000000;3.016356
3411.000000;2.825292
3410.000000;2.748151
3409.000000;2.850466
3408.000000;3.175485
3407.000000;3.123243
3406.000000;2.823653
3405.000000;2.697624
3404.000000;2.580429
3403.000000;2.474013
3402.000000;2.423611
3401.000000;2.469758
3400.000000;2.595407
3399.000000;2.709486
3398.000000;2.774162
3397.000000;2.953126
3396.000000;3.641707
3395.000000;3.323030
3394.000000;2.911494
3393.000000;2.814564
3392.000000;2.840866
3391.000000;2.976418
3390.000000;3.035671
3389.000000;2.889196
3388.000000;2.697590
3387.000000;2.606868
3386.000000;2.642955
3385.000000;2.725634
3384.000000;2.688824
3383.000000;2.602552
3382.000000;2.606981
3381.000000;2.751875
3380.000000;2.877148
3379.000000;2.788225
3378.000000;2.824675
3377.000000;3.148912
3376.000000;3.362423
3375.000000;3.192686
3374.000000;3.204003
3373.000000;3.140917
3372.000000;3.036970
3371.000000;3.036199
3370.000000;2.861738
3369.000000;2.635114
3368.000000;2.549937
3367.000000;2.533349
3366.000000;2.463549
3365.000000;2.412366
3364.000000;2.449526
3363.000000;2.564940
3362.000000;2.704177
3361.000000;3.060701
3360.000000;3.429033
3359.000000;2.805160
3358.000000;2.617172
3357.000000;2.544153
3356.000000;2.497464
3355.000000;2.496859
3354.000000;2.518641
3353.000000;2.557457
3352.000000;2.612548
3351.000000;2.708644
3350.000000;2.814177
3349.000000;2.839980
3348.000000;2.808879
3347.000000;2.856851
3346.000000;2.956613
3345.000000;3.032154
3344.000000;2.985377
3343.000000;2.845360
3342.000000;2.815342
3341.000000;2.997917
3340.000000;3.205034
3339.000000;3.018429
3338.000000;2.780307
3337.000000;2.601156
3336.000000;2.496631
3335.000000;2.455702
3334.000000;2.443794
3333.000000;2.448739
3332.000000;2.504840
3331.000000;2.631634
3330.000000;2.822477
3329.000000;3.105480
3328.000000;3.199808
3327.000000;2.992262
3326.000000;2.859976
3325.000000;2.755338
3324.000000;2.697074
3323.000000;2.700323
3322.000000;2.805430
3321.000000;3.083553
3320.000000;2.977617
3319.000000;2.741115
3318.000000;2.730469
3317.000000;2.821826
3316.000000;2.869796
3315.000000;2.789749
3314.000000;2.660087
3313.000000;2.540198
3312.000000;2.465312
3311.000000;2.500996
3310.000000;2.703145
3309.000000;3.152561
3308.000000;3.721537
3307.000000;3.053497
3306.000000;2.736619
3305.000000;2.703855
3304.000000;2.715008
3303.000000;2.593558
3302.000000;2.493289
3301.000000;2.531903
3300.000000;2.733355
3299.000000;2.761901
3298.000000;2.608456
3297.000000;2.672468
3296.000000;2.943404
3295.000000;3.375585
3294.000000;4.009229
3293.000000;3.378451
3292.000000;2.974452
3291.000000;2.853313
3290.000000;2.890704
3289.000000;3.060841
3288.000000;3.074979
3287.000000;2.950561
3286.000000;3.004046
3285.000000;3.249722
3284.000000;3.161382
3283.000000;2.908334
3282.000000;2.812999
3281.000000;2.770477
3280.000000;2.733647
3279.000000;2.792034
3278.000000;2.996414
3277.000000;3.011693
3276.000000;2.804520
3275.000000;2.720929
3274.000000;2.715411
3273.000000;2.710728
3272.000000;2.672485
3271.000000;2.637057
3270.000000;2.674884
3269.000000;2.829819
3268.000000;3.075878
3267.000000;3.407370
3266.000000;3.726880
3265.000000;3.280117
3264.000000;3.108723
3263.000000;3.341911
3262.000000;3.314079
3261.000000;3.003421
3260.000000;2.903478
3259.000000;2.960772
3258.000000;3.103807
3257.000000;3.127129
3256.000000;3.142608
3255.000000;3.377484
3254.000000;3.707685
3253.000000;3.912829
3252.000000;3.406502
3251.000000;3.081588
3250.000000;3.081612
3249.000000;3.051412
3248.000000;2.900539
3247.000000;2.873471
3246.000000;3.066904
3245.000000;3.335330
3244.000000;3.155577
3243.000000;3.108771
3242.000000;2.992123
3241.000000;2.710589
3240.000000;2.524949
3239.000000;2.435745
3238.000000;2.433169
3237.000000;2.520664
3236.000000;2.695718
3235.000000;2.944168
3234.000000;3.105149
3233.000000;2.896628
3232.000000;2.707495
3231.000000;2.652939
3230.000000;2.730061
3229.000000;2.891422
3228.000000;2.880133
3227.000000;2.815713
3226.000000;2.948234
3225.000000;3.394922
3224.000000;3.369937
3223.000000;3.114294
3222.000000;3.326967
3221.000000;3.415476
3220.000000;3.013639
3219.000000;2.899454
3218.000000;2.930841
3217.000000;2.982085
3216.000000;2.968305
3215.000000;3.050423
3214.000000;3.160808
3213.000000;3.009326
3212.000000;2.852962
3211.000000;2.796278
3210.000000;2.832176
3209.000000;3.010511
3208.000000;3.518751
3207.000000;3.637054
3206.000000;3.401551
3205.000000;3.405187
3204.000000;3.376721
3203.000000;3.323168
3202.000000;3.354205
3201.000000;3.337081
3200.000000;3.162566
3199.000000;3.117233
3198.000000;3.226025
3197.000000;3.222400
3196.000000;3.074239
3195.000000;3.026405
3194.000000;3.042070
3193.000000;3.039512
3192.000000;2.986963
3191.000000;2.913027
3190.000000;2.875619
3189.000000;2.918215
3188.000000;3.176720
3187.000000;3.466233
3186.000000;3.101426
3185.000000;2.946910
3184.000000;3.059874
3183.000000;3.311835
3182.000000;3.598827
3181.000000;3.559784
3180.000000;3.068418
3179.000000;2.778837
3178.000000;2.671426
3177.000000;2.698314
3176.000000;2.933252
3175.000000;3.683596
3174.000000;3.270386
3173.000000;2.998507
3172.000000;2.855225
3171.000000;2.755009
3170.000000;2.739956
3169.000000;2.794888
3168.000000;2.917546
3167.000000;3.287087
3166.000000;3.512172
3165.000000;3.021380
3164.000000;2.888167
3163.000000;2.812888
3162.000000;2.769968
3161.000000;2.760906
3160.000000;2.742279
3159.000000;2.708236
3158.000000;2.707008
3157.000000;2.778242
3156.000000;2.904197
3155.000000;3.089792
3154.000000;3.158341
3153.000000;3.190486
3152.000000;4.041767
3151.000000;3.232496
3150.000000;2.929319
3149.000000;2.853010
3148.000000;2.784809
3147.000000;2.774113
3146.000000;2.794139
3145.000000;2.783999
3144.000000;2.723967
3143.000000;2.661779
3142.000000;2.627636
3141.000000;2.627098
3140.000000;2.636395
3139.000000;2.616669
3138.000000;2.582486
3137.000000;2.592785
3136.000000;2.679401
3135.000000;2.860803
3134.000000;3.238161
3133.000000;3.337858
3132.000000;3.019933
3131.000000;2.885531
3130.000000;2.864764
3129.000000;2.952191
3128.000000;3.111024
3127.000000;3.279615
3126.000000;3.439899
3125.000000;3.342701
3124.000000;2.969981
3123.000000;2.718936
3122.000000;2.595969
3121.000000;2.551350
3120.000000;2.548415
3119.000000;2.576703
3118.000000;2.663391
3117.000000;2.847378
3116.000000;3.208130
3115.000000;3.774082
3114.000000;3.457757
3113.000000;3.124547
3112.000000;2.941420
3111.000000;2.906842
3110.000000;3.010810
3109.000000;2.986892
3108.000000;2.843161
3107.000000;2.834814
3106.000000;2.990729
3105.000000;3.353616
3104.000000;3.324001
3103.000000;3.095426
3102.000000;3.151986
3101.000000;3.638496
3100.000000;3.038618
3099.000000;2.754187
3098.000000;2.719687
3097.000000;2.757765
3096.000000;2.827630
3095.000000;2.898265
3094.000000;2.996958
3093.000000;3.102019
3092.000000;3.038188
3091.000000;2.879579
3090.000000;2.785542
3089.000000;2.776700
3088.000000;2.892801
3087.000000;3.130237
3086.000000;3.062982
3085.000000;2.900234
3084.000000;2.907808
3083.000000;2.945942
3082.000000;2.937992
3081.000000;2.914947
3080.000000;2.893408
3079.000000;2.878970
3078.000000;2.930802
3077.000000;3.104698
3076.000000;3.132713
3075.000000;2.911121
3074.000000;2.772325
3073.000000;2.729042
3072.000000;2.732420
3071.000000;2.783508
3070.000000;2.904965
3069.000000;3.015909
3068.000000;3.002407
3067.000000;2.961711
3066.000000;2.937656
3065.000000;2.906678
3064.000000;2.877214
3063.000000;2.895641
3062.000000;2.992202
3061.000000;3.114383
3060.000000;3.359526
3059.000000;3.611466
3058.000000;3.105897
3057.000000;2.838821
3056.000000;2.742022
3055.000000;2.767846
3054.000000;2.911379
3053.000000;3.318439
3052.000000;3.395856
3051.000000;3.133728
3050.000000;3.183681
3049.000000;3.195237
3048.000000;3.098607
3047.000000;3.366862
3046.000000;3.378396
3045.000000;2.916724
3044.000000;2.772391
3043.000000;2.765308
3042.000000;2.852481
3041.000000;3.055968
3040.000000;3.260433
3039.000000;3.246986
3038.000000;3.109738
3037.000000;2.947191
3036.000000;2.829518
3035.000000;2.788554
3034.000000;2.822456
3033.000000;2.902893
3032.000000;2.945614
3031.000000;2.965461
3030.000000;3.091438
3029.000000;3.317297
3028.000000;3.496691
3027.000000;3.227178
3026.000000;2.981287
3025.000000;2.949468
3024.000000;3.024401
3023.000000;3.123954
3022.000000;3.296646
3021.000000;3.765639
3020.000000;3.539301
3019.000000;3.340565
3018.000000;3.321860
3017.000000;3.251221
3016.000000;3.189286
3015.000000;3.229186
3014.000000;3.291537
3013.000000;3.252937
3012.000000;3.289954
3011.000000;3.515334
3010.000000;3.987223
3009.000000;3.279686
3008.000000;2.932551
3007.000000;2.814503
3006.000000;2.879540
3005.000000;3.096920
3004.000000;3.231837
3003.000000;3.004976
3002.000000;2.776456
3001.000000;2.643343
3000.000000;2.594072
2999.000000;2.656537
2998.000000;2.897692
2997.000000;3.417377
2996.000000;3.467333
2995.000000;3.170710
2994.000000;2.971468
2993.000000;2.889014
2992.000000;2.922039
2991.000000;2.990673
2990.000000;3.259971
2989.000000;3.368148
2988.000000;2.942826
2987.000000;2.781094
2986.000000;2.766084
2985.000000;2.864944
2984.000000;3.073196
2983.000000;3.421670
2982.000000;3.565223
2981.000000;3.294193
2980.000000;3.248641
2979.000000;3.325648
2978.000000;3.437362
2977.000000;3.494876
2976.000000;3.617458
2975.000000;3.656690
2974.000000;3.343968
2973.000000;3.128299
2972.000000;3.084838
2971.000000;3.259267
2970.000000;3.083268
2969.000000;2.772759
2968.000000;2.650792
2967.000000;2.651673
2966.000000;2.744224
2965.000000;2.883132
2964.000000;3.040634
2963.000000;3.202622
2962.000000;3.310971
2961.000000;3.281455
2960.000000;3.203747
2959.000000;3.207739
2958.000000;3.552274
2957.000000;3.504832
2956.000000;3.146753
2955.000000;3.228837
2954.000000;3.545489
2953.000000;3.491427
2952.000000;3.350315
2951.000000;3.511923
2950.000000;3.638404
2949.000000;3.421231
2948.000000;3.386894
2947.000000;3.384792
2946.000000;3.323501
2945.000000;3.081057
2944.000000;2.884902
2943.000000;2.861833
2942.000000;3.002186
2941.000000;3.199323
2940.000000;3.250043
2939.000000;3.335406
2938.000000;3.280976
2937.000000;3.018377
2936.000000;2.902195
2935.000000;2.911376
2934.000000;2.945639
2933.000000;2.941082
2932.000000;2.893448
2931.000000;2.904918
2930.000000;3.053943
2929.000000;3.246020
2928.000000;3.145939
2927.000000;3.024079
2926.000000;2.999556
2925.000000;3.072145
2924.000000;3.293803
2923.000000;3.327136
2922.000000;3.081125
2921.000000;3.022899
2920.000000;3.046082
2919.000000;3.191428
2918.000000;3.541431
2917.000000;3.354353
2916.000000;3.238600
2915.000000;3.683352
2914.000000;3.486604
2913.000000;3.358416
2912.000000;3.415805
2911.000000;3.303116
2910.000000;3.406700
2909.000000;3.446496
2908.000000;3.279758
2907.000000;3.325593
2906.000000;3.251006
2905.000000;3.129412
2904.000000;3.116869
2903.000000;3.070174
2902.000000;3.026869
2901.000000;3.118727
2900.000000;3.246699
2899.000000;2.996051
2898.000000;2.807705
2897.000000;2.735140
2896.000000;2.719482
2895.000000;2.765070
2894.000000;2.910203
2893.000000;3.197030
2892.000000;3.480535
2891.000000;3.207686
2890.000000;2.976007
2889.000000;2.929236
2888.000000;3.000773
2887.000000;3.090529
2886.000000;3.010692
2885.000000;2.888883
2884.000000;2.888091
2883.000000;3.062059
2882.000000;3.231382
2881.000000;3.064826
2880.000000;3.037345
2879.000000;3.186199
2878.000000;3.035027
2877.000000;2.875412
2876.000000;2.861866
2875.000000;2.952823
2874.000000;3.284366
2873.000000;3.694387
2872.000000;3.105592
2871.000000;3.023959
2870.000000;3.019904
2869.000000;3.103384
2868.000000;3.483588
2867.000000;3.719985
2866.000000;3.228718
2865.000000;3.171297
2864.000000;3.272577
2863.000000;3.589678
2862.000000;3.130437
2861.000000;2.802920
2860.000000;2.683712
2859.000000;2.686348
2858.000000;2.827138
2857.000000;3.065569
2856.000000;3.073910
2855.000000;3.042079
2854.000000;3.040610
2853.000000;3.000097
2852.000000;3.017852
2851.000000;3.055526
2850.000000;3.052292
2849.000000;3.073563
2848.000000;3.148826
2847.000000;3.237260
2846.000000;3.211123
2845.000000;3.026426
2844.000000;2.851311
2843.000000;2.781861
2842.000000;2.828658
2841.000000;2.917070
2840.000000;2.916565
2839.000000;2.889846
2838.000000;2.868655
2837.000000;2.826699
2836.000000;2.832552
2835.000000;2.938614
2834.000000;3.174732
2833.000000;3.362228
2832.000000;3.619964
2831.000000;3.503699
2830.000000;3.160950
2829.000000;3.023802
2828.000000;2.995596
2827.000000;2.935679
2826.000000;2.834842
2825.000000;2.795111
2824.000000;2.825453
2823.000000;2.859406
2822.000000;2.823568
2821.000000;2.745859
2820.000000;2.685947
2819.000000;2.691872
2818.000000;2.777569
2817.000000;3.168093
2816.000000;3.754874
2815.000000;2.964957
2814.000000;2.821778
2813.000000;2.728663
2812.000000;2.740392
2811.000000;2.866987
2810.000000;3.220514
2809.000000;3.297789
2808.000000;3.187705
2807.000000;3.337667
2806.000000;3.626553
2805.000000;4.081930
2804.000000;3.624490
2803.000000;3.439679
2802.000000;3.350624
2801.000000;3.139972
2800.000000;2.973634
2799.000000;2.951907
2798.000000;3.118552
2797.000000;3.666471
2796.000000;3.477496
2795.000000;3.403071
2794.000000;3.816938
2793.000000;3.436140
2792.000000;3.188726
2791.000000;3.137016
2790.000000;3.248445
2789.000000;3.504192
2788.000000;3.378340
2787.000000;3.278860
2786.000000;3.448076
2785.000000;3.459993
2784.000000;3.218662
2783.000000;3.075944
2782.000000;3.021438
2781.000000;3.042894
2780.000000;3.067869
2779.000000;3.056373
2778.000000;3.014420
2777.000000;2.970173
2776.000000;3.030066
2775.000000;3.090638
2774.000000;2.916618
2773.000000;2.841290
2772.000000;2.918739
2771.000000;2.985683
2770.000000;2.976756
2769.000000;3.137648
2768.000000;3.350014
2767.000000;2.982095
2766.000000;2.897593
2765.000000;2.999350
2764.000000;3.282068
2763.000000;3.722674
2762.000000;3.796720
2761.000000;3.478257
2760.000000;3.231607
2759.000000;3.051356
2758.000000;2.994756
2757.000000;3.072944
2756.000000;3.284990
2755.000000;3.473906
2754.000000;3.450387
2753.000000;3.376053
2752.000000;3.367647
2751.000000;3.376663
2750.000000;3.186367
2749.000000;2.949065
2748.000000;2.807369
2747.000000;2.769518
2746.000000;2.814163
2745.000000;2.900891
2744.000000;2.989107
2743.000000;3.063044
2742.000000;3.154793
2741.000000;3.291194
2740.000000;3.214376
2739.000000;3.073280
2738.000000;3.048841
2737.000000;3.043010
2736.000000;3.007675
2735.000000;2.986930
2734.000000;3.040219
2733.000000;3.244861
2732.000000;3.609489
2731.000000;3.440688
2730.000000;3.197010
2729.000000;3.125868
2728.000000;3.154513
2727.000000;3.366851
2726.000000;3.800293
2725.000000;3.415014
2724.000000;3.108647
2723.000000;2.992149
2722.000000;2.984346
2721.000000;3.043608
2720.000000;3.101861
2719.000000;3.160865
2718.000000;3.233517
2717.000000;3.262360
2716.000000;3.305930
2715.000000;3.511633
2714.000000;3.366308
2713.000000;3.254561
2712.000000;3.284253
2711.000000;3.030855
2710.000000;2.861971
2709.000000;2.826426
2708.000000;2.874777
2707.000000;2.980138
2706.000000;3.158151
2705.000000;3.343596
2704.000000;3.230745
2703.000000;3.040124
2702.000000;2.960231
2701.000000;2.975939
2700.000000;3.071809
2699.000000;3.245335
2698.000000;3.629458
2697.000000;3.468918
2696.000000;3.229323
2695.000000;3.079398
2694.000000;2.983279
2693.000000;3.050406
2692.000000;3.328064
2691.000000;3.395423
2690.000000;3.343947
2689.000000;3.530554
2688.000000;3.438733
2687.000000;3.097618
2686.000000;2.896185
2685.000000;2.843918
2684.000000;2.975717
2683.000000;3.402145
2682.000000;4.178685
2681.000000;4.100415
2680.000000;4.270236
2679.000000;3.553950
2678.000000;3.226204
2677.000000;3.098125
2676.000000;3.124731
2675.000000;3.245721
2674.000000;3.250490
2673.000000;3.148163
2672.000000;3.128502
2671.000000;3.193341
2670.000000;3.202099
2669.000000;3.059340
2668.000000;2.895112
2667.000000;2.800988
2666.000000;2.795774
2665.000000;2.876830
2664.000000;3.036760
2663.000000;3.216873
2662.000000;3.339060
2661.000000;3.308015
2660.000000;3.119760
2659.000000;3.008663
2658.000000;3.011469
2657.000000;3.102974
2656.000000;3.147518
2655.000000;3.112410
2654.000000;3.183704
2653.000000;3.619148
2652.000000;3.538730
2651.000000;3.104416
2650.000000;3.041879
2649.000000;3.035595
2648.000000;3.007835
2647.000000;3.015998
2646.000000;3.149034
2645.000000;3.641268
2644.000000;3.748471
2643.000000;3.339687
2642.000000;3.215949
2641.000000;3.154713
2640.000000;3.155468
2639.000000;3.206460
2638.000000;3.228863
2637.000000;3.210622
2636.000000;3.212670
2635.000000;3.278462
2634.000000;3.451493
2633.000000;3.636820
2632.000000;3.744339
2631.000000;3.646429
2630.000000;3.259159
2629.000000;3.094577
2628.000000;3.009875
2627.000000;2.974345
2626.000000;3.069457
2625.000000;3.357470
2624.000000;4.051733
2623.000000;3.897576
2622.000000;3.476142
2621.000000;3.356627
2620.000000;3.133217
2619.000000;2.960609
2618.000000;2.904768
2617.000000;2.916408
2616.000000;2.921928
2615.000000;2.933779
2614.000000;3.029898
2613.000000;3.257540
2612.000000;3.695459
2611.000000;4.175714
2610.000000;3.818612
2609.000000;3.920287
2608.000000;3.635680
2607.000000;3.235633
2606.000000;3.079729
2605.000000;3.075201
2604.000000;3.146644
2603.000000;3.174311
2602.000000;3.166558
2601.000000;3.209839
2600.000000;3.250142
2599.000000;3.267814
2598.000000;3.482726
2597.000000;3.738519
2596.000000;3.616600
2595.000000;3.956663
2594.000000;3.563210
2593.000000;3.174128
2592.000000;3.132179
2591.000000;3.380812
2590.000000;3.787976
2589.000000;3.361555
2588.000000;3.079043
2587.000000;2.957746
2586.000000;2.969469
2585.000000;3.129097
2584.000000;3.497255
2583.000000;3.738709
2582.000000;3.362682
2581.000000;3.179530
2580.000000;3.115212
2579.000000;3.199133
2578.000000;3.524454
2577.000000;3.606913
2576.000000;3.321689
2575.000000;3.248246
2574.000000;3.212391
2573.000000;3.282322
2572.000000;3.375773
2571.000000;3.316778
2570.000000;3.187674
2569.000000;3.061496
2568.000000;2.984919
2567.000000;2.974342
2566.000000;3.002037
2565.000000;3.011074
2564.000000;3.047070
2563.000000;3.224862
2562.000000;3.278908
2561.000000;3.112426
2560.000000;3.104330
2559.000000;3.239746
2558.000000;3.244581
2557.000000;3.041342
2556.000000;2.908725
2555.000000;2.892383
2554.000000;2.931443
2553.000000;2.985529
2552.000000;3.114789
2551.000000;3.401252
2550.000000;3.515726
2549.000000;3.211393
2548.000000;3.035287
2547.000000;2.934076
2546.000000;2.905548
2545.000000;2.900558
2544.000000;2.868925
2543.000000;2.862755
2542.000000;2.967547
2541.000000;3.111746
2540.000000;3.029830
2539.000000;2.928914
2538.000000;2.968928
2537.000000;3.168104
2536.000000;3.398820
2535.000000;3.310056
2534.000000;3.251085
2533.000000;3.312711
2532.000000;3.402095
2531.000000;3.442274
2530.000000;3.379428
2529.000000;3.237006
2528.000000;3.063452
2527.000000;2.945528
2526.000000;2.901867
2525.000000;2.900556
2524.000000;2.913681
2523.000000;2.931045
2522.000000;2.939126
2521.000000;2.934814
2520.000000;2.955260
2519.000000;3.065022
2518.000000;3.467089
2517.000000;3.958414
2516.000000;3.883628
2515.000000;3.723039
2514.000000;3.218939
2513.000000;3.018147
2512.000000;2.959466
2511.000000;3.025837
2510.000000;3.345996
2509.000000;3.751106
2508.000000;3.515618
2507.000000;3.397982
2506.000000;3.353988
2505.000000;3.341297
2504.000000;3.356674
2503.000000;3.298509
2502.000000;3.161880
2501.000000;3.062851
2500.000000;3.101671
2499.000000;3.289952
2498.000000;3.231392
2497.000000;3.033186
2496.000000;3.015113
2495.000000;3.243932
2494.000000;3.508436
2493.000000;3.412839
2492.000000;3.723423
2491.000000;3.373270
2490.000000;3.081293
2489.000000;3.131021
2488.000000;3.392213
2487.000000;3.634324
2486.000000;3.462529
2485.000000;3.943550
2484.000000;3.622996
2483.000000;3.128563
2482.000000;3.029747
2481.000000;3.100699
2480.000000;3.393511
2479.000000;3.436664
2478.000000;3.217393
2477.000000;3.146698
2476.000000;3.102203
2475.000000;3.035659
2474.000000;2.986698
2473.000000;2.963939
2472.000000;2.950413
2471.000000;2.970191
2470.000000;3.051180
2469.000000;3.183320
2468.000000;3.306628
2467.000000;3.302810
2466.000000;3.192894
2465.000000;3.099690
2464.000000;3.062616
2463.000000;3.083834
2462.000000;3.144496
2461.000000;3.191311
2460.000000;3.172102
2459.000000;3.153568
2458.000000;3.237475
2457.000000;3.447328
2456.000000;3.718251
2455.000000;3.856549
2454.000000;3.675332
2453.000000;3.438250
2452.000000;3.298486
2451.000000;3.231423
2450.000000;3.188869
2449.000000;3.128927
2448.000000;3.052745
2447.000000;3.003723
2446.000000;3.001494
2445.000000;3.033206
2444.000000;3.090046
2443.000000;3.205529
2442.000000;3.391255
2441.000000;3.402358
2440.000000;3.272931
2439.000000;3.254362
2438.000000;3.257947
2437.000000;3.322045
2436.000000;3.601974
2435.000000;3.491577
2434.000000;3.204983
2433.000000;3.160378
2432.000000;3.274275
2431.000000;3.493108
2430.000000;3.411972
2429.000000;3.186959
2428.000000;3.054585
2427.000000;3.086066
2426.000000;3.338111
2425.000000;3.259110
2424.000000;3.071292
2423.000000;3.043228
2422.000000;3.070006
2421.000000;3.131014
2420.000000;3.236842
2419.000000;3.369178
2418.000000;3.390231
2417.000000;3.303260
2416.000000;3.261195
2415.000000;3.342228
2414.000000;3.455894
2413.000000;3.387122
2412.000000;3.278014
2411.000000;3.155845
2410.000000;3.000716
2409.000000;2.924015
2408.000000;2.970095
2407.000000;3.112792
2406.000000;3.232915
2405.000000;3.225330
2404.000000;3.222226
2403.000000;3.354341
2402.000000;3.588537
2401.000000;3.509019
2400.000000;3.394299
2399.000000;3.439206
2398.000000;3.509564
2397.000000;3.535873
2396.000000;3.539385
2395.000000;3.594714
2394.000000;3.741573
2393.000000;3.679419
2392.000000;3.446934
2391.000000;3.347701
2390.000000;3.332880
2389.000000;3.302311
2388.000000;3.237236
2387.000000;3.199225
2386.000000;3.176358
2385.000000;3.127308
2384.000000;3.128399
2383.000000;3.185456
2382.000000;3.197633
2381.000000;3.214639
2380.000000;3.347832
2379.000000;3.497006
2378.000000;3.581557
2377.000000;3.660007
2376.000000;3.358096
2375.000000;3.110947
2374.000000;3.063824
2373.000000;3.140466
2372.000000;3.181807
2371.000000;3.098730
2370.000000;3.059984
2369.000000;3.129337
2368.000000;3.415003
2367.000000;3.424133
2366.000000;2.993890
2365.000000;2.851727
2364.000000;2.925101
2363.000000;3.139283
2362.000000;3.327766
2361.000000;3.331575
2360.000000;3.259270
2359.000000;3.234673
2358.000000;3.403550
2357.000000;3.605744
2356.000000;3.186465
2355.000000;2.894695
2354.000000;2.843748
2353.000000;2.929062
2352.000000;3.118653
2351.000000;3.596138
2350.000000;3.681939
2349.000000;3.296977
2348.000000;3.195680
2347.000000;3.161181
2346.000000;3.123384
2345.000000;3.176838
2344.000000;3.572842
2343.000000;3.404503
2342.000000;3.131397
2341.000000;3.134133
2340.000000;3.168433
2339.000000;3.313358
2338.000000;3.721653
2337.000000;3.811891
2336.000000;3.526747
2335.000000;3.479642
2334.000000;3.607051
2333.000000;3.944011
2332.000000;3.419227
2331.000000;3.115595
2330.000000;3.031329
2329.000000;3.131733
2328.000000;3.538582
2327.000000;3.363404
2326.000000;3.008572
2325.000000;2.873401
2324.000000;2.809416
2323.000000;2.841190
2322.000000;3.044003
2321.000000;3.146796
2320.000000;3.123884
2319.000000;3.539490
2318.000000;3.399261
2317.000000;3.052952
2316.000000;3.038096
2315.000000;3.189269
2314.000000;3.577817
2313.000000;4.165810
2312.000000;3.601356
2311.000000;3.150632
2310.000000;2.978209
2309.000000;3.014378
2308.000000;3.089167
2307.000000;2.966335
2306.000000;2.843588
2305.000000;2.785904
2304.000000;2.763493
2303.000000;2.791906
2302.000000;2.895106
2301.000000;3.082453
2300.000000;3.043363
2299.000000;2.837298
2298.000000;2.745977
2297.000000;2.742821
2296.000000;2.791154
2295.000000;2.881529
2294.000000;3.026426
2293.000000;3.224369
2292.000000;3.526226
2291.000000;3.993743
2290.000000;3.892598
2289.000000;3.830238
2288.000000;3.652860
2287.000000;3.313308
2286.000000;3.074314
2285.000000;2.947244
2284.000000;2.905001
2283.000000;2.897506
2282.000000;2.879230
2281.000000;2.853584
2280.000000;2.860008
2279.000000;2.909573
2278.000000;2.989603
2277.000000;3.065849
2276.000000;3.101946
2275.000000;3.146244
2274.000000;3.404418
2273.000000;3.726148
2272.000000;3.409262
2271.000000;3.250726
2270.000000;3.286412
2269.000000;3.567957
2268.000000;3.739642
2267.000000;3.398268
2266.000000;3.317073
2265.000000;3.305225
2264.000000;3.252345
2263.000000;3.206821
2262.000000;3.340205
2261.000000;3.523804
2260.000000;3.118063
2259.000000;2.874986
2258.000000;2.798149
2257.000000;2.817101
2256.000000;2.912838
2255.000000;3.028932
2254.000000;3.162101
2253.000000;3.545241
2252.000000;3.527830
2251.000000;3.114025
2250.000000;3.060984
2249.000000;3.135673
2248.000000;3.255269
2247.000000;3.436039
2246.000000;3.993100
2245.000000;4.199213
2244.000000;3.890223
2243.000000;3.722279
2242.000000;3.292080
2241.000000;3.138009
2240.000000;3.179841
2239.000000;3.436896
2238.000000;3.583974
2237.000000;3.322404
2236.000000;3.193444
2235.000000;3.158418
2234.000000;3.247422
2233.000000;3.577699
2232.000000;3.633025
2231.000000;3.359007
2230.000000;3.342291
2229.000000;3.512103
2228.000000;3.967058
2227.000000;4.157322
2226.000000;3.606382
2225.000000;3.326089
2224.000000;3.148517
2223.000000;3.073060
2222.000000;3.087550
2221.000000;3.174201
2220.000000;3.311723
2219.000000;3.454452
2218.000000;3.406183
2217.000000;3.228135
2216.000000;3.109561
2215.000000;3.099271
2214.000000;3.200233
2213.000000;3.416685
2212.000000;4.320701
2211.000000;3.791219
2210.000000;3.561199
2209.000000;4.203494
2208.000000;3.407311
2207.000000;3.062290
2206.000000;2.963771
2205.000000;2.941316
2204.000000;2.940212
2203.000000;2.948491
2202.000000;3.059802
2201.000000;3.444747
2200.000000;3.482904
2199.000000;3.035951
2198.000000;2.892074
2197.000000;2.873485
2196.000000;2.950794
2195.000000;3.100178
2194.000000;3.280559
2193.000000;3.359607
2192.000000;3.225476
2191.000000;3.141891
2190.000000;3.100590
2189.000000;3.049823
2188.000000;3.002344
2187.000000;2.977602
2186.000000;2.962914
2185.000000;2.943073
2184.000000;2.953442
2183.000000;3.025827
2182.000000;3.209074
2181.000000;3.592082
2180.000000;3.690335
2179.000000;3.413586
2178.000000;3.242589
2177.000000;3.163978
2176.000000;3.183810
2175.000000;3.415950
2174.000000;3.628395
2173.000000;3.299473
2172.000000;3.203505
2171.000000;3.318337
2170.000000;3.771942
2169.000000;4.026633
2168.000000;3.450718
2167.000000;3.348946
2166.000000;3.453123
2165.000000;3.783172
2164.000000;4.179388
2163.000000;3.969783
2162.000000;3.479599
2161.000000;3.143163
2160.000000;3.015007
2159.000000;3.054098
2158.000000;3.253624
2157.000000;3.657479
2156.000000;4.178910
2155.000000;3.925598
2154.000000;3.559284
2153.000000;3.502628
2152.000000;3.724448
2151.000000;3.609112
2150.000000;3.361066
2149.000000;3.399691
2148.000000;3.562955
2147.000000;3.372046
2146.000000;3.098424
2145.000000;2.981721
2144.000000;2.978108
2143.000000;3.046575
2142.000000;3.467070
2141.000000;3.593297
2140.000000;3.064907
2139.000000;2.966764
2138.000000;3.028392
2137.000000;3.310449
2136.000000;3.453917
2135.000000;3.264912
2134.000000;3.304609
2133.000000;3.249637
2132.000000;3.123154
2131.000000;3.068835
2130.000000;3.044538
2129.000000;2.990709
2128.000000;2.923808
2127.000000;2.875615
2126.000000;2.875790
2125.000000;2.951738
2124.000000;3.134868
2123.000000;3.382510
2122.000000;3.426086
2121.000000;3.377125
2120.000000;3.393411
2119.000000;3.408002
2118.000000;3.370691
2117.000000;3.272007
2116.000000;3.173782
2115.000000;3.132440
2114.000000;3.171476
2113.000000;3.252740
2112.000000;3.293546
2111.000000;3.289235
2110.000000;3.300045
2109.000000;3.342321
2108.000000;3.372712
2107.000000;3.335109
2106.000000;3.281764
2105.000000;3.272846
2104.000000;3.224122
2103.000000;3.131804
2102.000000;3.114515
2101.000000;3.216597
2100.000000;3.433963
2099.000000;3.492810
2098.000000;3.318402
2097.000000;3.205050
2096.000000;3.118890
2095.000000;3.044715
2094.000000;3.034991
2093.000000;3.065718
2092.000000;3.090245
2091.000000;3.128058
2090.000000;3.181024
2089.000000;3.508863
2088.000000;3.810248
2087.000000;3.295942
2086.000000;3.206896
2085.000000;3.358736
2084.000000;3.454315
2083.000000;3.276517
2082.000000;3.144719
2081.000000;3.164581
2080.000000;3.448190
2079.000000;3.800530
2078.000000;3.335101
2077.000000;3.183359
2076.000000;3.208551
2075.000000;3.387052
2074.000000;3.701758
2073.000000;3.368679
2072.000000;3.146029
2071.000000;3.102758
2070.000000;3.147572
2069.000000;3.286339
2068.000000;3.541071
2067.000000;3.856258
2066.000000;3.736127
2065.000000;3.526332
2064.000000;3.453900
2063.000000;3.450932
2062.000000;3.431730
2061.000000;3.429669
2060.000000;3.315770
2059.000000;3.147415
2058.000000;3.073722
2057.000000;3.136293
2056.000000;3.440545
2055.000000;3.704943
2054.000000;3.449687
2053.000000;3.287442
2052.000000;3.184836
2051.000000;3.188652
2050.000000;3.277244
2049.000000;3.222047
2048.000000;3.103097
2047.000000;3.046266
2046.000000;3.028707
2045.000000;3.038341
2044.000000;3.045992
2043.000000;3.025703
2042.000000;3.012550
2041.000000;3.059768
2040.000000;3.177918
2039.000000;3.298966
2038.000000;3.353440
2037.000000;3.383937
2036.000000;3.632082
2035.000000;3.883838
2034.000000;3.522882
2033.000000;3.289619
2032.000000;3.154553
2031.000000;3.078444
2030.000000;3.148559
2029.000000;3.402791
2028.000000;3.653597
2027.000000;3.378374
2026.000000;3.358502
2025.000000;4.068305
2024.000000;3.351189
2023.000000;2.982926
2022.000000;2.974069
2021.000000;3.241752
2020.000000;3.356893
2019.000000;2.986852
2018.000000;2.874146
2017.000000;2.883706
2016.000000;2.894069
2015.000000;2.909549
2014.000000;2.964751
2013.000000;3.211817
2012.000000;3.752511
2011.000000;3.485359
2010.000000;3.223887
2009.000000;3.196434
2008.000000;3.512552
2007.000000;3.748581
2006.000000;3.212293
2005.000000;3.027156
2004.000000;2.958417
2003.000000;2.992004
2002.000000;3.162492
2001.000000;3.416185
2000.000000;3.416838
1999.000000;3.227173
1998.000000;3.172899
1997.000000;3.239481
1996.000000;3.448810
1995.000000;3.620130
1994.000000;3.435554
1993.000000;3.206394
1992.000000;3.090570
1991.000000;3.071018
1990.000000;3.239156
1989.000000;3.712787
1988.000000;3.477939
1987.000000;3.180060
1986.000000;3.069315
1985.000000;2.976174
1984.000000;2.917133
1983.000000;2.919664
1982.000000;3.005741
1981.000000;3.126733
1980.000000;3.186873
1979.000000;3.190103
1978.000000;3.240689
1977.000000;3.382044
1976.000000;3.345288
1975.000000;3.208381
1974.000000;3.191561
1973.000000;3.255003
1972.000000;3.306750
1971.000000;3.459267
1970.000000;4.016239
1969.000000;3.812245
1968.000000;3.592026
1967.000000;3.494813
1966.000000;3.273567
1965.000000;3.192166
1964.000000;3.251328
1963.000000;3.600922
1962.000000;3.807194
1961.000000;3.355932
1960.000000;3.305962
1959.000000;3.429449
1958.000000;3.790095
1957.000000;4.045694
1956.000000;3.511955
1955.000000;3.770579
1954.000000;3.766237
1953.000000;3.199188
1952.000000;3.089464
1951.000000;3.129389
1950.000000;3.205711
1949.000000;3.217855
1948.000000;3.149647
1947.000000;3.082399
1946.000000;3.052555
1945.000000;3.107747
1944.000000;3.254479
1943.000000;3.382239
1942.000000;3.390130
1941.000000;3.453308
1940.000000;3.563709
1939.000000;3.500487
1938.000000;3.439075
1937.000000;3.730125
1936.000000;3.654132
1935.000000;3.147035
1934.000000;2.966882
1933.000000;2.938326
1932.000000;3.014131
1931.000000;3.190708
1930.000000;3.391534
1929.000000;3.467868
1928.000000;3.434767
1927.000000;3.434473
1926.000000;3.452843
1925.000000;3.395579
1924.000000;3.258939
1923.000000;3.166012
1922.000000;3.164540
1921.000000;3.204071
1920.000000;3.212131
1919.000000;3.215199
1918.000000;3.292713
1917.000000;3.483432
1916.000000;3.449248
1915.000000;3.185839
1914.000000;3.016673
1913.000000;2.941856
1912.000000;2.927772
1911.000000;2.944793
1910.000000;3.002887
1909.000000;3.156502
1908.000000;3.567265
1907.000000;3.792609
1906.000000;3.431884
1905.000000;3.312096
1904.000000;3.113505
1903.000000;2.985605
1902.000000;3.014202
1901.000000;3.162901
1900.000000;3.260438
1899.000000;3.351063
1898.000000;3.595178
1897.000000;3.334865
1896.000000;3.092369
1895.000000;3.037167
1894.000000;3.042932
1893.000000;3.078145
1892.000000;3.106849
1891.000000;3.120767
1890.000000;3.116730
1889.000000;3.115206
1888.000000;3.184038
1887.000000;3.330630
1886.000000;3.442802
1885.000000;3.466190
1884.000000;3.660538
1883.000000;4.200216
1882.000000;3.795973
1881.000000;3.438170
1880.000000;3.241283
1879.000000;3.145447
1878.000000;3.190689
1877.000000;3.483757
1876.000000;3.542804
1875.000000;3.200363
1874.000000;3.217513
1873.000000;3.617941
1872.000000;3.533140
1871.000000;3.176508
1870.000000;3.189249
1869.000000;3.361965
1868.000000;3.365041
1867.000000;3.181564
1866.000000;3.083700
1865.000000;3.072667
1864.000000;3.113988
1863.000000;3.214734
1862.000000;3.380494
1861.000000;3.675339
1860.000000;4.220524
1859.000000;4.185848
1858.000000;3.589107
1857.000000;3.245040
1856.000000;3.087482
1855.000000;3.066290
1854.000000;3.215319
1853.000000;3.553475
1852.000000;3.453243
1851.000000;3.240244
1850.000000;3.171538
1849.000000;3.110113
1848.000000;3.057222
1847.000000;3.037074
1846.000000;3.054615
1845.000000;3.126569
1844.000000;3.308819
1843.000000;3.347553
1842.000000;3.170111
1841.000000;3.120479
1840.000000;3.197953
1839.000000;3.370950
1838.000000;3.613626
1837.000000;3.791411
1836.000000;4.036602
1835.000000;3.987580
1834.000000;3.426460
1833.000000;3.131699
1832.000000;3.011950
1831.000000;3.002434
1830.000000;3.058388
1829.000000;3.126437
1828.000000;3.167211
1827.000000;3.137504
1826.000000;3.100301
1825.000000;3.140886
1824.000000;3.489178
1823.000000;4.029315
1822.000000;3.465449
1821.000000;3.404642
1820.000000;3.507864
1819.000000;3.574012
1818.000000;3.467834
1817.000000;3.507700
1816.000000;3.872497
1815.000000;3.799939
1814.000000;3.555954
1813.000000;3.447693
1812.000000;3.329720
1811.000000;3.186978
1810.000000;3.060605
1809.000000;3.027823
1808.000000;3.102386
1807.000000;3.362205
1806.000000;3.686261
1805.000000;3.409253
1804.000000;3.274443
1803.000000;3.140928
1802.000000;2.981721
1801.000000;2.942374
1800.000000;3.029287
1799.000000;3.272683
1798.000000;3.664623
1797.000000;3.525814
1796.000000;3.334911
1795.000000;3.344271
1794.000000;3.474190
1793.000000;3.616046
1792.000000;3.418612
1791.000000;3.173794
1790.000000;3.045956
1789.000000;2.991945
1788.000000;3.012417
1787.000000;3.083155
1786.000000;3.122858
1785.000000;3.118780
1784.000000;3.227901
1783.000000;3.628981
1782.000000;3.507786
1781.000000;3.241293
1780.000000;3.159690
1779.000000;3.135427
1778.000000;3.149229
1777.000000;3.159291
1776.000000;3.174917
1775.000000;3.176089
1774.000000;3.089283
1773.000000;2.982732
1772.000000;2.938254
1771.000000;2.930292
1770.000000;2.895424
1769.000000;2.830553
1768.000000;2.784184
1767.000000;2.791207
1766.000000;2.871005
1765.000000;3.028694
1764.000000;3.239782
1763.000000;3.516106
1762.000000;3.751697
1761.000000;3.397669
1760.000000;3.106411
1759.000000;3.017928
1758.000000;3.079563
1757.000000;3.385751
1756.000000;3.572660
1755.000000;3.165373
1754.000000;2.962423
1753.000000;2.914203
1752.000000;2.960887
1751.000000;3.161153
1750.000000;3.470255
1749.000000;3.191439
1748.000000;3.036391
1747.000000;3.024912
1746.000000;3.103919
1745.000000;3.289965
1744.000000;3.302160
1743.000000;3.197766
1742.000000;3.237718
1741.000000;3.363709
1740.000000;3.574084
1739.000000;3.743802
1738.000000;3.493261
1737.000000;3.305615
1736.000000;3.226554
1735.000000;3.191686
1734.000000;3.246536
1733.000000;3.149415
1732.000000;2.943203
1731.000000;2.897465
1730.000000;3.006979
1729.000000;3.317425
1728.000000;3.516512
1727.000000;3.199652
1726.000000;3.019660
1725.000000;2.940662
1724.000000;2.946089
1723.000000;3.076709
1722.000000;3.400824
1721.000000;3.818419
1720.000000;3.504935
1719.000000;3.636798
1718.000000;4.057179
1717.000000;3.266524
1716.000000;3.103290
1715.000000;3.076104
1714.000000;3.095002
1713.000000;3.128786
1712.000000;3.199620
1711.000000;3.261726
1710.000000;3.228345
1709.000000;3.214266
1708.000000;3.231902
1707.000000;3.192710
1706.000000;3.119212
1705.000000;3.089249
1704.000000;3.103668
1703.000000;3.149432
1702.000000;3.213107
1701.000000;3.226487
1700.000000;3.168961
1699.000000;3.159078
1698.000000;3.125157
1697.000000;3.132504
1696.000000;3.228752
1695.000000;3.474186
1694.000000;3.468660
1693.000000;3.093651
1692.000000;3.023345
1691.000000;3.120205
1690.000000;3.241912
1689.000000;3.183055
1688.000000;3.066399
1687.000000;3.052674
1686.000000;3.122219
1685.000000;3.173394
1684.000000;3.231083
1683.000000;3.493391
1682.000000;3.369486
1681.000000;3.067044
1680.000000;3.021063
1679.000000;3.017197
1678.000000;2.990646
1677.000000;2.967725
1676.000000;3.000530
1675.000000;3.093443
1674.000000;3.205879
1673.000000;3.523729
1672.000000;3.214260
1671.000000;2.986985
1670.000000;2.949585
1669.000000;3.016799
1668.000000;3.159156
1667.000000;3.182839
1666.000000;3.133568
1665.000000;3.200562
1664.000000;3.436942
1663.000000;3.763029
1662.000000;3.620332
1661.000000;3.532069
1660.000000;3.506517
1659.000000;3.423271
1658.000000;3.352771
1657.000000;3.356068
1656.000000;3.549847
1655.000000;3.848568
1654.000000;3.245877
1653.000000;2.960668
1652.000000;2.993560
1651.000000;3.227909
1650.000000;3.623193
1649.000000;3.883020
1648.000000;3.623007
1647.000000;3.432396
1646.000000;3.618837
1645.000000;3.547342
1644.000000;3.075970
1643.000000;2.911745
1642.000000;2.883594
1641.000000;2.894680
1640.000000;2.954565
1639.000000;3.107837
1638.000000;3.281823
1637.000000;3.198360
1636.000000;3.123133
1635.000000;3.128339
1634.000000;3.282395
1633.000000;3.625336
1632.000000;3.194402
1631.000000;3.003205
1630.000000;3.021087
1629.000000;3.243946
1628.000000;3.441867
1627.000000;3.150774
1626.000000;3.013692
1625.000000;2.968964
1624.000000;2.858665
1623.000000;2.781806
1622.000000;2.847178
1621.000000;3.067267
1620.000000;3.167519
1619.000000;3.054916
1618.000000;3.047793
1617.000000;3.119384
1616.000000;3.041712
1615.000000;2.935435
1614.000000;2.943659
1613.000000;3.138463
1612.000000;3.221099
1611.000000;2.967388
1610.000000;2.920918
1609.000000;2.960280
1608.000000;2.930926
1607.000000;2.936871
1606.000000;3.105670
1605.000000;3.507018
1604.000000;3.875166
1603.000000;3.484427
1602.000000;3.196349
1601.000000;3.054242
1600.000000;3.024429
1599.000000;3.107758
1598.000000;3.240598
1597.000000;3.301884
1596.000000;3.370840
1595.000000;3.981101
1594.000000;3.751811
1593.000000;3.308843
1592.000000;3.147754
1591.000000;3.069101
1590.000000;3.090241
1589.000000;3.258743
1588.000000;3.676189
1587.000000;3.237651
1586.000000;3.025157
1585.000000;2.990518
1584.000000;2.977425
1583.000000;2.951605
1582.000000;3.092137
1581.000000;3.519756
1580.000000;3.259452
1579.000000;2.963372
1578.000000;2.908108
1577.000000;3.012837
1576.000000;3.301341
1575.000000;3.318953
1574.000000;3.128218
1573.000000;3.130787
1572.000000;3.177741
1571.000000;3.118568
1570.000000;3.063960
1569.000000;3.133080
1568.000000;3.113595
1567.000000;3.049371
1566.000000;3.145863
1565.000000;3.473232
1564.000000;3.522021
1563.000000;3.284005
1562.000000;3.185026
1561.000000;3.192256
1560.000000;3.500231
1559.000000;3.363235
1558.000000;3.139564
1557.000000;3.227165
1556.000000;3.004954
1555.000000;2.909279
1554.000000;3.069901
1553.000000;3.468004
1552.000000;3.377880
1551.000000;3.106646
1550.000000;3.010649
1549.000000;2.943552
1548.000000;2.910757
1547.000000;2.882921
1546.000000;2.855925
1545.000000;2.861648
1544.000000;2.923949
1543.000000;2.983028
1542.000000;2.992150
1541.000000;3.013234
1540.000000;3.093432
1539.000000;3.176327
1538.000000;3.203545
1537.000000;3.332626
1536.000000;3.431621
1535.000000;3.216883
1534.000000;3.095731
1533.000000;3.088196
1532.000000;3.127450
1531.000000;3.159504
1530.000000;3.157848
1529.000000;3.066551
1528.000000;2.906624
1527.000000;2.788154
1526.000000;2.790166
1525.000000;2.959386
1524.000000;3.374414
1523.000000;3.399686
1522.000000;3.068035
1521.000000;3.006680
1520.000000;3.216362
1519.000000;3.003862
1518.000000;2.662113
1517.000000;2.573028
1516.000000;2.562754
1515.000000;2.565309
1514.000000;2.560734
1513.000000;2.597829
1512.000000;2.695798
1511.000000;2.822097
1510.000000;2.899893
1509.000000;2.952296
1508.000000;3.076686
1507.000000;3.097463
1506.000000;2.953660
1505.000000;2.809958
1504.000000;2.801204
1503.000000;3.023171
1502.000000;3.534898
1501.000000;3.416558
1500.000000;3.048676
1499.000000;2.997506
1498.000000;3.097624
1497.000000;3.266271
1496.000000;3.221800
1495.000000;3.026660
1494.000000;2.886564
1493.000000;2.845060
1492.000000;2.874165
1491.000000;2.928826
1490.000000;2.908022
1489.000000;2.890470
1488.000000;2.990398
1487.000000;3.249599
1486.000000;3.267475
1485.000000;2.976177
1484.000000;2.813334
1483.000000;2.787467
1482.000000;2.899306
1481.000000;3.275624
1480.000000;3.424778
1479.000000;3.127312
1478.000000;3.212832
1477.000000;3.997720
1476.000000;2.969469
1475.000000;2.639417
1474.000000;2.470655
1473.000000;2.396970
1472.000000;2.373669
1471.000000;2.423858
1470.000000;2.622961
1469.000000;3.193798
1468.000000;3.032217
1467.000000;2.631338
1466.000000;2.544434
1465.000000;2.595221
1464.000000;2.927847
1463.000000;2.862684
1462.000000;2.714739
1461.000000;2.827809
1460.000000;2.816846
1459.000000;2.601280
1458.000000;2.432185
1457.000000;2.401898
1456.000000;2.590200
1455.000000;2.647232
1454.000000;2.510717
1453.000000;2.573824
1452.000000;2.660120
1451.000000;2.689220
1450.000000;2.656973
1449.000000;2.614815
1448.000000;2.667139
1447.000000;2.753705
1446.000000;2.598344
1445.000000;2.461406
1444.000000;2.467787
1443.000000;2.611215
1442.000000;3.051189
1441.000000;3.194796
1440.000000;2.890432
1439.000000;2.929243
1438.000000;2.799974
1437.000000;2.678966
1436.000000;2.848602
1435.000000;3.037820
1434.000000;2.892208
1433.000000;2.865138
1432.000000;2.882442
1431.000000;2.992261
1430.000000;3.240952
1429.000000;3.064037
1428.000000;2.937190
1427.000000;2.997918
1426.000000;3.064829
1425.000000;3.005579
1424.000000;3.052935
1423.000000;3.308686
1422.000000;3.573815
1421.000000;3.559328
1420.000000;3.501403
1419.000000;3.294113
1418.000000;3.316108
1417.000000;3.161160
1416.000000;3.068674
1415.000000;3.125026
1414.000000;3.191911
1413.000000;3.130626
1412.000000;2.969926
1411.000000;2.843524
1410.000000;2.806842
1409.000000;2.865429
1408.000000;2.991904
1407.000000;3.117496
1406.000000;3.186270
1405.000000;3.173323
1404.000000;3.053776
1403.000000;2.913814
1402.000000;2.843273
1401.000000;2.862205
1400.000000;2.960727
1399.000000;3.143603
1398.000000;3.087474
1397.000000;2.836362
1396.000000;2.757335
1395.000000;2.844966
1394.000000;3.232621
1393.000000;3.351322
1392.000000;2.890567
1391.000000;2.840015
1390.000000;2.861548
1389.000000;2.935226
1388.000000;3.006734
1387.000000;3.040023
1386.000000;3.066780
1385.000000;3.192371
1384.000000;3.431558
1383.000000;3.622900
1382.000000;3.425454
1381.000000;3.143915
1380.000000;2.936957
1379.000000;2.808472
1378.000000;2.757015
1377.000000;2.774265
1376.000000;2.832750
1375.000000;2.879962
1374.000000;2.923738
1373.000000;2.991343
1372.000000;2.990953
1371.000000;2.982923
1370.000000;3.112339
1369.000000;3.401235
1368.000000;3.627243
1367.000000;3.516277
1366.000000;3.283173
1365.000000;3.091973
1364.000000;2.952878
1363.000000;2.870172
1362.000000;2.869675
1361.000000;2.916955
1360.000000;2.933160
1359.000000;2.932910
1358.000000;2.985321
1357.000000;3.120317
1356.000000;3.331387
1355.000000;3.550279
1354.000000;3.622272
1353.000000;3.393450
1352.000000;3.088384
1351.000000;2.859737
1350.000000;2.728887
1349.000000;2.704695
1348.000000;2.797542
1347.000000;3.039792
1346.000000;3.453737
1345.000000;4.419784
1344.000000;3.465659
1343.000000;3.280502
1342.000000;3.432355
1341.000000;3.714692
1340.000000;3.478878
1339.000000;3.456160
1338.000000;3.304108
1337.000000;3.213064
1336.000000;3.179356
1335.000000;3.085939
1334.000000;2.974306
1333.000000;2.925233
1332.000000;2.957584
1331.000000;2.978870
1330.000000;2.886666
1329.000000;2.802692
1328.000000;2.808424
1327.000000;2.900812
1326.000000;3.024933
1325.000000;3.072383
1324.000000;3.033039
1323.000000;2.981273
1322.000000;2.970044
1321.000000;2.977006
1320.000000;2.945285
1319.000000;2.942225
1318.000000;3.067814
1317.000000;3.456830
1316.000000;3.937266
1315.000000;3.496824
1314.000000;3.608774
1313.000000;3.288858
1312.000000;2.987473
1311.000000;2.899519
1310.000000;2.978722
1309.000000;3.202347
1308.000000;3.391430
1307.000000;3.256277
1306.000000;3.038988
1305.000000;2.890941
1304.000000;2.818645
1303.000000;2.815379
1302.000000;2.853236
1301.000000;2.886480
1300.000000;2.941675
1299.000000;3.098502
1298.000000;3.225296
1297.000000;3.231848
1296.000000;3.291152
1295.000000;3.230361
1294.000000;3.190111
1293.000000;3.129679
1292.000000;3.051891
1291.000000;3.150202
1290.000000;3.537746
1289.000000;3.292457
1288.000000;3.116377
1287.000000;3.078772
1286.000000;2.928906
1285.000000;2.780668
1284.000000;2.754018
1283.000000;2.827482
1282.000000;2.901285
1281.000000;2.946456
1280.000000;3.041571
1279.000000;3.042907
1278.000000;2.978700
1277.000000;3.038256
1276.000000;3.212239
1275.000000;3.219416
1274.000000;3.093987
1273.000000;3.037788
1272.000000;3.018426
1271.000000;3.005835
1270.000000;2.997572
1269.000000;3.065234
1268.000000;3.297787
1267.000000;3.599649
1266.000000;3.362931
1265.000000;3.054113
1264.000000;2.944265
1263.000000;3.015257
1262.000000;3.040662
1261.000000;2.902866
1260.000000;2.861296
1259.000000;2.925437
1258.000000;3.141206
1257.000000;3.450737
1256.000000;3.158692
1255.000000;2.932768
1254.000000;2.862495
1253.000000;2.850839
1252.000000;2.827083
1251.000000;2.787914
1250.000000;2.799042
1249.000000;2.902736
1248.000000;3.076989
1247.000000;3.184849
1246.000000;3.253721
1245.000000;3.310802
1244.000000;3.299390
1243.000000;3.294280
1242.000000;3.251211
1241.000000;3.259347
1240.000000;3.160806
1239.000000;2.983870
1238.000000;2.965900
1237.000000;3.163794
1236.000000;3.257495
1235.000000;2.989964
1234.000000;2.890396
1233.000000;2.915128
1232.000000;3.044665
1231.000000;3.276074
1230.000000;3.474671
1229.000000;3.314958
1228.000000;3.211775
1227.000000;3.286600
1226.000000;3.429820
1225.000000;3.598515
1224.000000;3.464074
1223.000000;3.207174
1222.000000;3.146790
1221.000000;3.227340
1220.000000;3.567580
1219.000000;3.707574
1218.000000;3.236301
1217.000000;3.029927
1216.000000;3.011422
1215.000000;3.087733
1214.000000;3.083890
1213.000000;3.068460
1212.000000;3.168378
1211.000000;3.338908
1210.000000;3.396553
1209.000000;3.286937
1208.000000;3.182669
1207.000000;3.161156
1206.000000;3.240529
1205.000000;3.395163
1204.000000;3.430688
1203.000000;3.321594
1202.000000;3.375922
1201.000000;3.391530
1200.000000;3.081947
