Criado como novo conjunto de dados;"0307_DANIEL.spp","14402.5 Secs"
cm-1;Abs
10000.000000;0.847667
9999.000000;0.846225
9998.000000;0.844788
9997.000000;0.843356
9996.000000;0.841928
9995.000000;0.840505
9994.000000;0.839085
9993.000000;0.837674
9992.000000;0.836261
9991.000000;0.834863
9990.000000;0.833447
9989.000000;0.832139
9988.000000;0.830982
9987.000000;0.829913
9986.000000;0.828963
9985.000000;0.828070
9984.000000;0.827086
9983.000000;0.825870
9982.000000;0.824422
9981.000000;0.822892
9980.000000;0.821479
9979.000000;0.820300
9978.000000;0.819291
9977.000000;0.818243
9976.000000;0.816993
9975.000000;0.815622
9974.000000;0.814446
9973.000000;0.813723
9972.000000;0.813324
9971.000000;0.812736
9970.000000;0.811505
9969.000000;0.809715
9968.000000;0.807961
9967.000000;0.806770
9966.000000;0.806108
9965.000000;0.805521
9964.000000;0.804665
9963.000000;0.803551
9962.000000;0.802326
9961.000000;0.801022
9960.000000;0.799598
9959.000000;0.798078
9958.000000;0.796539
9957.000000;0.795046
9956.000000;0.793676
9955.000000;0.792510
9954.000000;0.791482
9953.000000;0.790318
9952.000000;0.788748
9951.000000;0.786814
9950.000000;0.784896
9949.000000;0.783402
9948.000000;0.782430
9947.000000;0.781706
9946.000000;0.780844
9945.000000;0.779714
9944.000000;0.778563
9943.000000;0.777731
9942.000000;0.777241
9941.000000;0.776725
9940.000000;0.775764
9939.000000;0.774251
9938.000000;0.772416
9937.000000;0.770595
9936.000000;0.769012
9935.000000;0.767711
9934.000000;0.766613
9933.000000;0.765608
9932.000000;0.764590
9931.000000;0.763410
9930.000000;0.761877
9929.000000;0.759941
9928.000000;0.757850
9927.000000;0.756013
9926.000000;0.754659
9925.000000;0.753726
9924.000000;0.753022
9923.000000;0.752372
9922.000000;0.751582
9921.000000;0.750465
9920.000000;0.749026
9919.000000;0.747505
9918.000000;0.746106
9917.000000;0.744773
9916.000000;0.743338
9915.000000;0.741801
9914.000000;0.740329
9913.000000;0.739038
9912.000000;0.737924
9911.000000;0.736942
9910.000000;0.735993
9909.000000;0.734868
9908.000000;0.733391
9907.000000;0.731678
9906.000000;0.730104
9905.000000;0.728931
9904.000000;0.728034
9903.000000;0.727056
9902.000000;0.725789
9901.000000;0.724347
9900.000000;0.722962
9899.000000;0.721724
9898.000000;0.720521
9897.000000;0.719215
9896.000000;0.717793
9895.000000;0.716354
9894.000000;0.714971
9893.000000;0.713634
9892.000000;0.712288
9891.000000;0.710886
9890.000000;0.709417
9889.000000;0.707926
9888.000000;0.706518
9887.000000;0.705263
9886.000000;0.704105
9885.000000;0.702901
9884.000000;0.701584
9883.000000;0.700244
9882.000000;0.699019
9881.000000;0.697936
9880.000000;0.696857
9879.000000;0.695580
9878.000000;0.693998
9877.000000;0.692220
9876.000000;0.690535
9875.000000;0.689187
9874.000000;0.688148
9873.000000;0.687144
9872.000000;0.685922
9871.000000;0.684449
9870.000000;0.682835
9869.000000;0.681183
9868.000000;0.679559
9867.000000;0.678032
9866.000000;0.676616
9865.000000;0.675205
9864.000000;0.673686
9863.000000;0.672116
9862.000000;0.670710
9861.000000;0.669584
9860.000000;0.668581
9859.000000;0.667406
9858.000000;0.665931
9857.000000;0.664316
9856.000000;0.662823
9855.000000;0.661543
9854.000000;0.660324
9853.000000;0.658958
9852.000000;0.657384
9851.000000;0.655707
9850.000000;0.654053
9849.000000;0.652460
9848.000000;0.650914
9847.000000;0.649416
9846.000000;0.647954
9845.000000;0.646460
9844.000000;0.644867
9843.000000;0.643228
9842.000000;0.641707
9841.000000;0.640391
9840.000000;0.639133
9839.000000;0.637677
9838.000000;0.635933
9837.000000;0.634080
9836.000000;0.632373
9835.000000;0.630918
9834.000000;0.629681
9833.000000;0.628598
9832.000000;0.627578
9831.000000;0.626449
9830.000000;0.625048
9829.000000;0.623379
9828.000000;0.621609
9827.000000;0.619876
9826.000000;0.618195
9825.000000;0.616548
9824.000000;0.614962
9823.000000;0.613449
9822.000000;0.611965
9821.000000;0.610481
9820.000000;0.608997
9819.000000;0.607479
9818.000000;0.605853
9817.000000;0.604118
9816.000000;0.602371
9815.000000;0.600687
9814.000000;0.599062
9813.000000;0.597495
9812.000000;0.596019
9811.000000;0.594601
9810.000000;0.593145
9809.000000;0.591665
9808.000000;0.590312
9807.000000;0.589108
9806.000000;0.587807
9805.000000;0.586165
9804.000000;0.584263
9803.000000;0.582407
9802.000000;0.580764
9801.000000;0.579255
9800.000000;0.577743
9799.000000;0.576161
9798.000000;0.574503
9797.000000;0.572826
9796.000000;0.571283
9795.000000;0.569991
9794.000000;0.568865
9793.000000;0.567687
9792.000000;0.566325
9791.000000;0.564801
9790.000000;0.563153
9789.000000;0.561336
9788.000000;0.559272
9787.000000;0.556958
9786.000000;0.554551
9785.000000;0.552384
9784.000000;0.550760
9783.000000;0.549624
9782.000000;0.548523
9781.000000;0.547079
9780.000000;0.545403
9779.000000;0.543877
9778.000000;0.542620
9777.000000;0.541393
9776.000000;0.540017
9775.000000;0.538578
9774.000000;0.537176
9773.000000;0.535676
9772.000000;0.533873
9771.000000;0.531748
9770.000000;0.529489
9769.000000;0.527337
9768.000000;0.525455
9767.000000;0.523855
9766.000000;0.522372
9765.000000;0.520835
9764.000000;0.519269
9763.000000;0.517825
9762.000000;0.516509
9761.000000;0.515126
9760.000000;0.513536
9759.000000;0.511788
9758.000000;0.509956
9757.000000;0.508034
9756.000000;0.506087
9755.000000;0.504331
9754.000000;0.502852
9753.000000;0.501377
9752.000000;0.499522
9751.000000;0.497255
9750.000000;0.494948
9749.000000;0.492959
9748.000000;0.491305
9747.000000;0.489763
9746.000000;0.488171
9745.000000;0.486550
9744.000000;0.484963
9743.000000;0.483382
9742.000000;0.481728
9741.000000;0.480009
9740.000000;0.478333
9739.000000;0.476765
9738.000000;0.475231
9737.000000;0.473601
9736.000000;0.471814
9735.000000;0.469858
9734.000000;0.467714
9733.000000;0.465428
9732.000000;0.463192
9731.000000;0.461202
9730.000000;0.459449
9729.000000;0.457771
9728.000000;0.456126
9727.000000;0.454642
9726.000000;0.453334
9725.000000;0.451937
9724.000000;0.450168
9723.000000;0.448055
9722.000000;0.445904
9721.000000;0.443970
9720.000000;0.442277
9719.000000;0.440709
9718.000000;0.439132
9717.000000;0.437423
9716.000000;0.435491
9715.000000;0.433327
9714.000000;0.431019
9713.000000;0.428687
9712.000000;0.426418
9711.000000;0.424280
9710.000000;0.422326
9709.000000;0.420551
9708.000000;0.418845
9707.000000;0.417046
9706.000000;0.415076
9705.000000;0.413019
9704.000000;0.411031
9703.000000;0.409181
9702.000000;0.407392
9701.000000;0.405526
9700.000000;0.403514
9699.000000;0.401398
9698.000000;0.399295
9697.000000;0.397310
9696.000000;0.395479
9695.000000;0.393771
9694.000000;0.392144
9693.000000;0.390569
9692.000000;0.388954
9691.000000;0.387129
9690.000000;0.385007
9689.000000;0.382755
9688.000000;0.380669
9687.000000;0.378846
9686.000000;0.377068
9685.000000;0.375047
9684.000000;0.372699
9683.000000;0.370155
9682.000000;0.367642
9681.000000;0.365422
9680.000000;0.363667
9679.000000;0.362254
9678.000000;0.360776
9677.000000;0.358916
9676.000000;0.356772
9675.000000;0.354666
9674.000000;0.352731
9673.000000;0.350829
9672.000000;0.348831
9671.000000;0.346761
9670.000000;0.344668
9669.000000;0.342517
9668.000000;0.340310
9667.000000;0.338160
9666.000000;0.336174
9665.000000;0.334290
9664.000000;0.332332
9663.000000;0.330201
9662.000000;0.328009
9661.000000;0.325985
9660.000000;0.324236
9659.000000;0.322589
9658.000000;0.320726
9657.000000;0.318481
9656.000000;0.315977
9655.000000;0.313450
9654.000000;0.311053
9653.000000;0.308871
9652.000000;0.306977
9651.000000;0.305313
9650.000000;0.303603
9649.000000;0.301554
9648.000000;0.299172
9647.000000;0.296748
9646.000000;0.294546
9645.000000;0.292577
9644.000000;0.290664
9643.000000;0.288613
9642.000000;0.286315
9641.000000;0.283799
9640.000000;0.281240
9639.000000;0.278870
9638.000000;0.276842
9637.000000;0.275131
9636.000000;0.273526
9635.000000;0.271722
9634.000000;0.269525
9633.000000;0.267033
9632.000000;0.264540
9631.000000;0.262244
9630.000000;0.260118
9629.000000;0.258065
9628.000000;0.256038
9627.000000;0.253929
9626.000000;0.251564
9625.000000;0.248961
9624.000000;0.246446
9623.000000;0.244298
9622.000000;0.242383
9621.000000;0.240340
9620.000000;0.238024
9619.000000;0.235568
9618.000000;0.233082
9617.000000;0.230593
9616.000000;0.228246
9615.000000;0.226271
9614.000000;0.224666
9613.000000;0.223117
9612.000000;0.221308
9611.000000;0.219178
9610.000000;0.216816
9609.000000;0.214281
9608.000000;0.211613
9607.000000;0.208877
9606.000000;0.206127
9605.000000;0.203419
9604.000000;0.200883
9603.000000;0.198656
9602.000000;0.196679
9601.000000;0.194702
9600.000000;0.192535
9599.000000;0.190203
9598.000000;0.187816
9597.000000;0.185427
9596.000000;0.183059
9595.000000;0.180749
9594.000000;0.178455
9593.000000;0.176049
9592.000000;0.173486
9591.000000;0.170926
9590.000000;0.168571
9589.000000;0.166442
9588.000000;0.164354
9587.000000;0.162089
9586.000000;0.159568
9585.000000;0.156908
9584.000000;0.154342
9583.000000;0.152018
9582.000000;0.149860
9581.000000;0.147666
9580.000000;0.145385
9579.000000;0.143212
9578.000000;0.141379
9577.000000;0.139876
9576.000000;0.138427
9575.000000;0.136689
9574.000000;0.134444
9573.000000;0.131661
9572.000000;0.128474
9571.000000;0.125157
9570.000000;0.122086
9569.000000;0.119580
9568.000000;0.117642
9567.000000;0.115889
9566.000000;0.113885
9565.000000;0.111589
9564.000000;0.109335
9563.000000;0.107303
9562.000000;0.105204
9561.000000;0.102620
9560.000000;0.099536
9559.000000;0.096375
9558.000000;0.093584
9557.000000;0.091326
9556.000000;0.089487
9555.000000;0.087775
9554.000000;0.085875
9553.000000;0.083696
9552.000000;0.081447
9551.000000;0.079342
9550.000000;0.077286
9549.000000;0.075070
9548.000000;0.072766
9547.000000;0.070680
9546.000000;0.068881
9545.000000;0.067059
9544.000000;0.064943
9543.000000;0.062610
9542.000000;0.060276
9541.000000;0.057966
9540.000000;0.055569
9539.000000;0.053125
9538.000000;0.050833
9537.000000;0.048814
9536.000000;0.046938
9535.000000;0.044944
9534.000000;0.042694
9533.000000;0.040311
9532.000000;0.038031
9531.000000;0.035911
9530.000000;0.033755
9529.000000;0.031420
9528.000000;0.029094
9527.000000;0.027125
9526.000000;0.025581
9525.000000;0.024137
9524.000000;0.022416
9523.000000;0.020295
9522.000000;0.017908
9521.000000;0.015482
9520.000000;0.013222
9519.000000;0.011210
9518.000000;0.009360
9517.000000;0.007527
9516.000000;0.005666
9515.000000;0.003810
9514.000000;0.001951
9513.000000;0.000086
9512.000000;-0.001652
9511.000000;-0.003132
9510.000000;-0.004492
9509.000000;-0.006103
9508.000000;-0.008158
9507.000000;-0.010462
9506.000000;-0.012688
9505.000000;-0.014696
9504.000000;-0.016539
9503.000000;-0.018285
9502.000000;-0.019937
9501.000000;-0.021459
9500.000000;-0.022831
9499.000000;-0.024125
9498.000000;-0.025523
9497.000000;-0.027156
9496.000000;-0.028946
9495.000000;-0.030718
9494.000000;-0.032442
9493.000000;-0.034190
9492.000000;-0.035881
9491.000000;-0.037298
9490.000000;-0.038398
9489.000000;-0.039401
9488.000000;-0.040491
9487.000000;-0.041631
9486.000000;-0.042767
9485.000000;-0.043994
9484.000000;-0.045383
9483.000000;-0.046817
9482.000000;-0.048142
9481.000000;-0.049350
9480.000000;-0.050478
9479.000000;-0.051481
9478.000000;-0.052354
9477.000000;-0.053253
9476.000000;-0.054299
9475.000000;-0.055373
9474.000000;-0.056278
9473.000000;-0.057023
9472.000000;-0.057816
9471.000000;-0.058823
9470.000000;-0.060066
9469.000000;-0.061492
9468.000000;-0.062962
9467.000000;-0.064244
9466.000000;-0.065171
9465.000000;-0.065802
9464.000000;-0.066326
9463.000000;-0.066843
9462.000000;-0.067355
9461.000000;-0.067890
9460.000000;-0.068483
9459.000000;-0.069073
9458.000000;-0.069553
9457.000000;-0.069929
9456.000000;-0.070304
9455.000000;-0.070710
9454.000000;-0.071058
9453.000000;-0.071264
9452.000000;-0.071346
9451.000000;-0.071401
9450.000000;-0.071553
9449.000000;-0.071889
9448.000000;-0.072351
9447.000000;-0.072748
9446.000000;-0.072942
9445.000000;-0.072987
9444.000000;-0.073022
9443.000000;-0.073077
9442.000000;-0.073097
9441.000000;-0.073072
9440.000000;-0.073023
9439.000000;-0.072904
9438.000000;-0.072690
9437.000000;-0.072515
9436.000000;-0.072555
9435.000000;-0.072759
9434.000000;-0.072885
9433.000000;-0.072807
9432.000000;-0.072640
9431.000000;-0.072495
9430.000000;-0.072310
9429.000000;-0.072011
9428.000000;-0.071672
9427.000000;-0.071385
9426.000000;-0.071078
9425.000000;-0.070624
9424.000000;-0.070062
9423.000000;-0.069559
9422.000000;-0.069173
9421.000000;-0.068788
9420.000000;-0.068284
9419.000000;-0.067662
9418.000000;-0.066967
9417.000000;-0.066219
9416.000000;-0.065460
9415.000000;-0.064788
9414.000000;-0.064258
9413.000000;-0.063815
9412.000000;-0.063377
9411.000000;-0.062920
9410.000000;-0.062419
9409.000000;-0.061758
9408.000000;-0.060850
9407.000000;-0.059831
9406.000000;-0.058992
9405.000000;-0.058446
9404.000000;-0.057975
9403.000000;-0.057309
9402.000000;-0.056425
9401.000000;-0.055477
9400.000000;-0.054502
9399.000000;-0.053396
9398.000000;-0.052172
9397.000000;-0.051050
9396.000000;-0.050221
9395.000000;-0.049633
9394.000000;-0.049088
9393.000000;-0.048446
9392.000000;-0.047645
9391.000000;-0.046646
9390.000000;-0.045498
9389.000000;-0.044407
9388.000000;-0.043579
9387.000000;-0.042978
9386.000000;-0.042309
9385.000000;-0.041298
9384.000000;-0.039946
9383.000000;-0.038497
9382.000000;-0.037207
9381.000000;-0.036152
9380.000000;-0.035223
9379.000000;-0.034264
9378.000000;-0.033187
9377.000000;-0.031971
9376.000000;-0.030634
9375.000000;-0.029247
9374.000000;-0.027953
9373.000000;-0.026851
9372.000000;-0.025850
9371.000000;-0.024741
9370.000000;-0.023468
9369.000000;-0.022225
9368.000000;-0.021203
9367.000000;-0.020320
9366.000000;-0.019321
9365.000000;-0.018113
9364.000000;-0.016855
9363.000000;-0.015702
9362.000000;-0.014599
9361.000000;-0.013406
9360.000000;-0.012140
9359.000000;-0.010973
9358.000000;-0.010004
9357.000000;-0.009113
9356.000000;-0.008088
9355.000000;-0.006838
9354.000000;-0.005453
9353.000000;-0.004072
9352.000000;-0.002763
9351.000000;-0.001541
9350.000000;-0.000414
9349.000000;0.000625
9348.000000;0.001640
9347.000000;0.002703
9346.000000;0.003829
9345.000000;0.004991
9344.000000;0.006175
9343.000000;0.007362
9342.000000;0.008518
9341.000000;0.009655
9340.000000;0.010896
9339.000000;0.012339
9338.000000;0.013872
9337.000000;0.015214
9336.000000;0.016215
9335.000000;0.017038
9334.000000;0.017986
9333.000000;0.019209
9332.000000;0.020606
9331.000000;0.021947
9330.000000;0.023061
9329.000000;0.023974
9328.000000;0.024904
9327.000000;0.026073
9326.000000;0.027463
9325.000000;0.028844
9324.000000;0.030069
9323.000000;0.031237
9322.000000;0.032487
9321.000000;0.033755
9320.000000;0.034888
9319.000000;0.035914
9318.000000;0.037023
9317.000000;0.038271
9316.000000;0.039467
9315.000000;0.040423
9314.000000;0.041214
9313.000000;0.042097
9312.000000;0.043234
9311.000000;0.044570
9310.000000;0.045973
9309.000000;0.047403
9308.000000;0.048896
9307.000000;0.050424
9306.000000;0.051824
9305.000000;0.052942
9304.000000;0.053811
9303.000000;0.054643
9302.000000;0.055615
9301.000000;0.056737
9300.000000;0.057926
9299.000000;0.059135
9298.000000;0.060332
9297.000000;0.061434
9296.000000;0.062387
9295.000000;0.063287
9294.000000;0.064299
9293.000000;0.065424
9292.000000;0.066468
9291.000000;0.067297
9290.000000;0.068036
9289.000000;0.068945
9288.000000;0.070134
9287.000000;0.071476
9286.000000;0.072755
9285.000000;0.073850
9284.000000;0.074794
9283.000000;0.075732
9282.000000;0.076807
9281.000000;0.078034
9280.000000;0.079277
9279.000000;0.080396
9278.000000;0.081414
9277.000000;0.082491
9276.000000;0.083701
9275.000000;0.084936
9274.000000;0.086042
9273.000000;0.087002
9272.000000;0.087933
9271.000000;0.088941
9270.000000;0.090056
9269.000000;0.091257
9268.000000;0.092472
9267.000000;0.093555
9266.000000;0.094382
9265.000000;0.095003
9264.000000;0.095637
9263.000000;0.096469
9262.000000;0.097497
9261.000000;0.098613
9260.000000;0.099763
9259.000000;0.100963
9258.000000;0.102180
9257.000000;0.103294
9256.000000;0.104189
9255.000000;0.104849
9254.000000;0.105360
9253.000000;0.105863
9252.000000;0.106489
9251.000000;0.107314
9250.000000;0.108314
9249.000000;0.109389
9248.000000;0.110427
9247.000000;0.111369
9246.000000;0.112218
9245.000000;0.113012
9244.000000;0.113794
9243.000000;0.114598
9242.000000;0.115469
9241.000000;0.116443
9240.000000;0.117486
9239.000000;0.118475
9238.000000;0.119306
9237.000000;0.120024
9236.000000;0.120782
9235.000000;0.121668
9234.000000;0.122616
9233.000000;0.123512
9232.000000;0.124348
9231.000000;0.125207
9230.000000;0.126146
9229.000000;0.127138
9228.000000;0.128099
9227.000000;0.128953
9226.000000;0.129685
9225.000000;0.130354
9224.000000;0.131047
9223.000000;0.131799
9222.000000;0.132601
9221.000000;0.133481
9220.000000;0.134490
9219.000000;0.135581
9218.000000;0.136561
9217.000000;0.137250
9216.000000;0.137658
9215.000000;0.137986
9214.000000;0.138466
9213.000000;0.139232
9212.000000;0.140258
9211.000000;0.141376
9210.000000;0.142371
9209.000000;0.143146
9208.000000;0.143782
9207.000000;0.144426
9206.000000;0.145164
9205.000000;0.146008
9204.000000;0.146916
9203.000000;0.147769
9202.000000;0.148428
9201.000000;0.148914
9200.000000;0.149473
9199.000000;0.150347
9198.000000;0.151480
9197.000000;0.152550
9196.000000;0.153280
9195.000000;0.153668
9194.000000;0.153928
9193.000000;0.154291
9192.000000;0.154879
9191.000000;0.155690
9190.000000;0.156658
9189.000000;0.157702
9188.000000;0.158719
9187.000000;0.159580
9186.000000;0.160222
9185.000000;0.160756
9184.000000;0.161378
9183.000000;0.162116
9182.000000;0.162781
9181.000000;0.163237
9180.000000;0.163609
9179.000000;0.164112
9178.000000;0.164783
9177.000000;0.165490
9176.000000;0.166127
9175.000000;0.166667
9174.000000;0.167093
9173.000000;0.167466
9172.000000;0.167999
9171.000000;0.168876
9170.000000;0.169973
9169.000000;0.170924
9168.000000;0.171479
9167.000000;0.171708
9166.000000;0.171844
9165.000000;0.172093
9164.000000;0.172582
9163.000000;0.173332
9162.000000;0.174199
9161.000000;0.174965
9160.000000;0.175554
9159.000000;0.176086
9158.000000;0.176684
9157.000000;0.177340
9156.000000;0.177991
9155.000000;0.178622
9154.000000;0.179235
9153.000000;0.179786
9152.000000;0.180230
9151.000000;0.180589
9150.000000;0.180943
9149.000000;0.181400
9148.000000;0.182057
9147.000000;0.182915
9146.000000;0.183824
9145.000000;0.184588
9144.000000;0.185154
9143.000000;0.185623
9142.000000;0.186078
9141.000000;0.186504
9140.000000;0.186897
9139.000000;0.187335
9138.000000;0.187875
9137.000000;0.188485
9136.000000;0.189105
9135.000000;0.189719
9134.000000;0.190307
9133.000000;0.190792
9132.000000;0.191109
9131.000000;0.191311
9130.000000;0.191552
9129.000000;0.191982
9128.000000;0.192630
9127.000000;0.193340
9126.000000;0.193856
9125.000000;0.194052
9124.000000;0.194091
9123.000000;0.194260
9122.000000;0.194677
9121.000000;0.195226
9120.000000;0.195775
9119.000000;0.196309
9118.000000;0.196840
9117.000000;0.197348
9116.000000;0.197870
9115.000000;0.198516
9114.000000;0.199297
9113.000000;0.200045
9112.000000;0.200594
9111.000000;0.200975
9110.000000;0.201322
9109.000000;0.201683
9108.000000;0.202008
9107.000000;0.202284
9106.000000;0.202560
9105.000000;0.202875
9104.000000;0.203247
9103.000000;0.203704
9102.000000;0.204225
9101.000000;0.204700
9100.000000;0.205019
9099.000000;0.205219
9098.000000;0.205458
9097.000000;0.205834
9096.000000;0.206291
9095.000000;0.206721
9094.000000;0.207088
9093.000000;0.207440
9092.000000;0.207830
9091.000000;0.208262
9090.000000;0.208696
9089.000000;0.209091
9088.000000;0.209433
9087.000000;0.209738
9086.000000;0.210039
9085.000000;0.210378
9084.000000;0.210807
9083.000000;0.211345
9082.000000;0.211938
9081.000000;0.212458
9080.000000;0.212778
9079.000000;0.212888
9078.000000;0.212925
9077.000000;0.213091
9076.000000;0.213477
9075.000000;0.213975
9074.000000;0.214383
9073.000000;0.214634
9072.000000;0.214863
9071.000000;0.215219
9070.000000;0.215689
9069.000000;0.216139
9068.000000;0.216509
9067.000000;0.216849
9066.000000;0.217193
9065.000000;0.217502
9064.000000;0.217752
9063.000000;0.218005
9062.000000;0.218336
9061.000000;0.218724
9060.000000;0.219067
9059.000000;0.219284
9058.000000;0.219396
9057.000000;0.219504
9056.000000;0.219697
9055.000000;0.219980
9054.000000;0.220315
9053.000000;0.220697
9052.000000;0.221118
9051.000000;0.221478
9050.000000;0.221639
9049.000000;0.221636
9048.000000;0.221717
9047.000000;0.222081
9046.000000;0.222625
9045.000000;0.223064
9044.000000;0.223263
9043.000000;0.223333
9042.000000;0.223432
9041.000000;0.223609
9040.000000;0.223838
9039.000000;0.224081
9038.000000;0.224287
9037.000000;0.224428
9036.000000;0.224568
9035.000000;0.224820
9034.000000;0.225217
9033.000000;0.225694
9032.000000;0.226193
9031.000000;0.226696
9030.000000;0.227151
9029.000000;0.227454
9028.000000;0.227553
9027.000000;0.227517
9026.000000;0.227466
9025.000000;0.227491
9024.000000;0.227633
9023.000000;0.227874
9022.000000;0.228155
9021.000000;0.228434
9020.000000;0.228726
9019.000000;0.229032
9018.000000;0.229248
9017.000000;0.229265
9016.000000;0.229150
9015.000000;0.229125
9014.000000;0.229341
9013.000000;0.229727
9012.000000;0.230091
9011.000000;0.230303
9010.000000;0.230370
9009.000000;0.230422
9008.000000;0.230624
9007.000000;0.231036
9006.000000;0.231516
9005.000000;0.231836
9004.000000;0.231907
9003.000000;0.231834
9002.000000;0.231771
9001.000000;0.231817
9000.000000;0.232044
8999.000000;0.232477
8998.000000;0.232977
8997.000000;0.233274
8996.000000;0.233212
8995.000000;0.232923
8994.000000;0.232694
8993.000000;0.232684
8992.000000;0.232828
8991.000000;0.232975
8990.000000;0.233058
8989.000000;0.233138
8988.000000;0.233321
8987.000000;0.233622
8986.000000;0.233940
8985.000000;0.234161
8984.000000;0.234293
8983.000000;0.234444
8982.000000;0.234691
8981.000000;0.235019
8980.000000;0.235346
8979.000000;0.235549
8978.000000;0.235508
8977.000000;0.235240
8976.000000;0.234964
8975.000000;0.234920
8974.000000;0.235120
8973.000000;0.235362
8972.000000;0.235510
8971.000000;0.235650
8970.000000;0.235913
8969.000000;0.236271
8968.000000;0.236570
8967.000000;0.236691
8966.000000;0.236637
8965.000000;0.236490
8964.000000;0.236352
8963.000000;0.236298
8962.000000;0.236341
8961.000000;0.236462
8960.000000;0.236668
8959.000000;0.236968
8958.000000;0.237290
8957.000000;0.237500
8956.000000;0.237524
8955.000000;0.237412
8954.000000;0.237280
8953.000000;0.237241
8952.000000;0.237383
8951.000000;0.237714
8950.000000;0.238092
8949.000000;0.238304
8948.000000;0.238251
8947.000000;0.238034
8946.000000;0.237837
8945.000000;0.237785
8944.000000;0.237896
8943.000000;0.238121
8942.000000;0.238375
8941.000000;0.238596
8940.000000;0.238764
8939.000000;0.238865
8938.000000;0.238864
8937.000000;0.238779
8936.000000;0.238753
8935.000000;0.238915
8934.000000;0.239201
8933.000000;0.239403
8932.000000;0.239404
8931.000000;0.239267
8930.000000;0.239115
8929.000000;0.239029
8928.000000;0.239079
8927.000000;0.239306
8926.000000;0.239610
8925.000000;0.239780
8924.000000;0.239676
8923.000000;0.239341
8922.000000;0.238925
8921.000000;0.238607
8920.000000;0.238577
8919.000000;0.238914
8918.000000;0.239436
8917.000000;0.239804
8916.000000;0.239855
8915.000000;0.239750
8914.000000;0.239731
8913.000000;0.239852
8912.000000;0.240039
8911.000000;0.240262
8910.000000;0.240524
8909.000000;0.240745
8908.000000;0.240806
8907.000000;0.240670
8906.000000;0.240383
8905.000000;0.239998
8904.000000;0.239588
8903.000000;0.239287
8902.000000;0.239219
8901.000000;0.239382
8900.000000;0.239654
8899.000000;0.239888
8898.000000;0.239977
8897.000000;0.239880
8896.000000;0.239669
8895.000000;0.239489
8894.000000;0.239413
8893.000000;0.239375
8892.000000;0.239298
8891.000000;0.239244
8890.000000;0.239354
8889.000000;0.239651
8888.000000;0.239992
8887.000000;0.240236
8886.000000;0.240368
8885.000000;0.240445
8884.000000;0.240454
8883.000000;0.240297
8882.000000;0.239939
8881.000000;0.239532
8880.000000;0.239307
8879.000000;0.239337
8878.000000;0.239460
8877.000000;0.239489
8876.000000;0.239447
8875.000000;0.239490
8874.000000;0.239663
8873.000000;0.239841
8872.000000;0.239909
8871.000000;0.239870
8870.000000;0.239780
8869.000000;0.239690
8868.000000;0.239680
8867.000000;0.239801
8866.000000;0.239928
8865.000000;0.239827
8864.000000;0.239435
8863.000000;0.239000
8862.000000;0.238813
8861.000000;0.238924
8860.000000;0.239168
8859.000000;0.239397
8858.000000;0.239530
8857.000000;0.239489
8856.000000;0.239231
8855.000000;0.238870
8854.000000;0.238625
8853.000000;0.238621
8852.000000;0.238797
8851.000000;0.239003
8850.000000;0.239140
8849.000000;0.239188
8848.000000;0.239162
8847.000000;0.239069
8846.000000;0.238903
8845.000000;0.238680
8844.000000;0.238459
8843.000000;0.238316
8842.000000;0.238284
8841.000000;0.238341
8840.000000;0.238458
8839.000000;0.238600
8838.000000;0.238705
8837.000000;0.238730
8836.000000;0.238726
8835.000000;0.238801
8834.000000;0.238977
8833.000000;0.239166
8832.000000;0.239286
8831.000000;0.239322
8830.000000;0.239249
8829.000000;0.239003
8828.000000;0.238620
8827.000000;0.238307
8826.000000;0.238266
8825.000000;0.238478
8824.000000;0.238742
8823.000000;0.238878
8822.000000;0.238844
8821.000000;0.238718
8820.000000;0.238628
8819.000000;0.238682
8818.000000;0.238889
8817.000000;0.239150
8816.000000;0.239389
8815.000000;0.239644
8814.000000;0.239982
8813.000000;0.240343
8812.000000;0.240548
8811.000000;0.240450
8810.000000;0.240057
8809.000000;0.239540
8808.000000;0.239135
8807.000000;0.239002
8806.000000;0.239115
8805.000000;0.239315
8804.000000;0.239485
8803.000000;0.239627
8802.000000;0.239754
8801.000000;0.239785
8800.000000;0.239635
8799.000000;0.239365
8798.000000;0.239150
8797.000000;0.239104
8796.000000;0.239180
8795.000000;0.239244
8794.000000;0.239194
8793.000000;0.239026
8792.000000;0.238854
8791.000000;0.238844
8790.000000;0.239066
8789.000000;0.239402
8788.000000;0.239632
8787.000000;0.239644
8786.000000;0.239545
8785.000000;0.239542
8784.000000;0.239728
8783.000000;0.239958
8782.000000;0.239990
8781.000000;0.239746
8780.000000;0.239422
8779.000000;0.239289
8778.000000;0.239407
8777.000000;0.239600
8776.000000;0.239698
8775.000000;0.239718
8774.000000;0.239789
8773.000000;0.239992
8772.000000;0.240312
8771.000000;0.240658
8770.000000;0.240870
8769.000000;0.240814
8768.000000;0.240542
8767.000000;0.240295
8766.000000;0.240259
8765.000000;0.240367
8764.000000;0.240416
8763.000000;0.240334
8762.000000;0.240225
8761.000000;0.240202
8760.000000;0.240277
8759.000000;0.240433
8758.000000;0.240672
8757.000000;0.240950
8756.000000;0.241134
8755.000000;0.241106
8754.000000;0.240902
8753.000000;0.240696
8752.000000;0.240634
8751.000000;0.240696
8750.000000;0.240741
8749.000000;0.240678
8748.000000;0.240580
8747.000000;0.240590
8746.000000;0.240741
8745.000000;0.240897
8744.000000;0.240900
8743.000000;0.240735
8742.000000;0.240552
8741.000000;0.240545
8740.000000;0.240800
8739.000000;0.241221
8738.000000;0.241589
8737.000000;0.241732
8736.000000;0.241662
8735.000000;0.241518
8734.000000;0.241424
8733.000000;0.241427
8732.000000;0.241522
8731.000000;0.241640
8730.000000;0.241644
8729.000000;0.241435
8728.000000;0.241095
8727.000000;0.240832
8726.000000;0.240773
8725.000000;0.240882
8724.000000;0.241088
8723.000000;0.241357
8722.000000;0.241628
8721.000000;0.241788
8720.000000;0.241794
8719.000000;0.241716
8718.000000;0.241615
8717.000000;0.241481
8716.000000;0.241348
8715.000000;0.241362
8714.000000;0.241594
8713.000000;0.241881
8712.000000;0.241963
8711.000000;0.241737
8710.000000;0.241312
8709.000000;0.240862
8708.000000;0.240543
8707.000000;0.240472
8706.000000;0.240641
8705.000000;0.240861
8704.000000;0.240904
8703.000000;0.240731
8702.000000;0.240492
8701.000000;0.240329
8700.000000;0.240280
8699.000000;0.240335
8698.000000;0.240480
8697.000000;0.240645
8696.000000;0.240734
8695.000000;0.240735
8694.000000;0.240754
8693.000000;0.240868
8692.000000;0.241011
8691.000000;0.241033
8690.000000;0.240862
8689.000000;0.240574
8688.000000;0.240328
8687.000000;0.240236
8686.000000;0.240253
8685.000000;0.240209
8684.000000;0.239990
8683.000000;0.239669
8682.000000;0.239410
8681.000000;0.239270
8680.000000;0.239151
8679.000000;0.238970
8678.000000;0.238802
8677.000000;0.238783
8676.000000;0.238911
8675.000000;0.239013
8674.000000;0.238914
8673.000000;0.238613
8672.000000;0.238253
8671.000000;0.237929
8670.000000;0.237593
8669.000000;0.237171
8668.000000;0.236701
8667.000000;0.236315
8666.000000;0.236078
8665.000000;0.235939
8664.000000;0.235827
8663.000000;0.235725
8662.000000;0.235621
8661.000000;0.235466
8660.000000;0.235244
8659.000000;0.235018
8658.000000;0.234835
8657.000000;0.234642
8656.000000;0.234358
8655.000000;0.234008
8654.000000;0.233717
8653.000000;0.233572
8652.000000;0.233560
8651.000000;0.233602
8650.000000;0.233609
8649.000000;0.233496
8648.000000;0.233226
8647.000000;0.232860
8646.000000;0.232523
8645.000000;0.232282
8644.000000;0.232091
8643.000000;0.231848
8642.000000;0.231502
8641.000000;0.231097
8640.000000;0.230735
8639.000000;0.230495
8638.000000;0.230374
8637.000000;0.230302
8636.000000;0.230202
8635.000000;0.230024
8634.000000;0.229731
8633.000000;0.229311
8632.000000;0.228825
8631.000000;0.228384
8630.000000;0.228047
8629.000000;0.227779
8628.000000;0.227527
8627.000000;0.227312
8626.000000;0.227177
8625.000000;0.227086
8624.000000;0.226932
8623.000000;0.226645
8622.000000;0.226258
8621.000000;0.225847
8620.000000;0.225456
8619.000000;0.225083
8618.000000;0.224714
8617.000000;0.224362
8616.000000;0.224075
8615.000000;0.223898
8614.000000;0.223816
8613.000000;0.223739
8612.000000;0.223575
8611.000000;0.223301
8610.000000;0.222959
8609.000000;0.222608
8608.000000;0.222294
8607.000000;0.222033
8606.000000;0.221803
8605.000000;0.221564
8604.000000;0.221299
8603.000000;0.221024
8602.000000;0.220743
8601.000000;0.220416
8600.000000;0.219999
8599.000000;0.219484
8598.000000;0.218911
8597.000000;0.218364
8596.000000;0.217966
8595.000000;0.217796
8594.000000;0.217771
8593.000000;0.217662
8592.000000;0.217300
8591.000000;0.216734
8590.000000;0.216162
8589.000000;0.215745
8588.000000;0.215508
8587.000000;0.215383
8586.000000;0.215267
8585.000000;0.215069
8584.000000;0.214774
8583.000000;0.214463
8582.000000;0.214225
8581.000000;0.214037
8580.000000;0.213789
8579.000000;0.213418
8578.000000;0.212982
8577.000000;0.212585
8576.000000;0.212281
8575.000000;0.212040
8574.000000;0.211781
8573.000000;0.211422
8572.000000;0.210939
8571.000000;0.210395
8570.000000;0.209894
8569.000000;0.209495
8568.000000;0.209188
8567.000000;0.208920
8566.000000;0.208641
8565.000000;0.208326
8564.000000;0.208003
8563.000000;0.207720
8562.000000;0.207484
8561.000000;0.207220
8560.000000;0.206846
8559.000000;0.206375
8558.000000;0.205914
8557.000000;0.205561
8556.000000;0.205323
8555.000000;0.205144
8554.000000;0.204964
8553.000000;0.204751
8552.000000;0.204495
8551.000000;0.204199
8550.000000;0.203870
8549.000000;0.203512
8548.000000;0.203136
8547.000000;0.202745
8546.000000;0.202321
8545.000000;0.201840
8544.000000;0.201314
8543.000000;0.200813
8542.000000;0.200397
8541.000000;0.200052
8540.000000;0.199716
8539.000000;0.199352
8538.000000;0.198993
8537.000000;0.198689
8536.000000;0.198456
8535.000000;0.198255
8534.000000;0.198023
8533.000000;0.197702
8532.000000;0.197274
8531.000000;0.196779
8530.000000;0.196299
8529.000000;0.195916
8528.000000;0.195671
8527.000000;0.195534
8526.000000;0.195404
8525.000000;0.195175
8524.000000;0.194828
8523.000000;0.194455
8522.000000;0.194160
8521.000000;0.193941
8520.000000;0.193692
8519.000000;0.193320
8518.000000;0.192842
8517.000000;0.192352
8516.000000;0.191917
8515.000000;0.191530
8514.000000;0.191158
8513.000000;0.190823
8512.000000;0.190589
8511.000000;0.190475
8510.000000;0.190394
8509.000000;0.190223
8508.000000;0.189914
8507.000000;0.189513
8506.000000;0.189078
8505.000000;0.188643
8504.000000;0.188242
8503.000000;0.187928
8502.000000;0.187708
8501.000000;0.187500
8500.000000;0.187202
8499.000000;0.186779
8498.000000;0.186257
8497.000000;0.185658
8496.000000;0.185005
8495.000000;0.184392
8494.000000;0.183983
8493.000000;0.183886
8492.000000;0.184027
8491.000000;0.184175
8490.000000;0.184114
8489.000000;0.183795
8488.000000;0.183334
8487.000000;0.182890
8486.000000;0.182542
8485.000000;0.182273
8484.000000;0.182020
8483.000000;0.181723
8482.000000;0.181365
8481.000000;0.180989
8480.000000;0.180677
8479.000000;0.180473
8478.000000;0.180319
8477.000000;0.180102
8476.000000;0.179759
8475.000000;0.179319
8474.000000;0.178844
8473.000000;0.178379
8472.000000;0.177967
8471.000000;0.177659
8470.000000;0.177464
8469.000000;0.177325
8468.000000;0.177163
8467.000000;0.176935
8466.000000;0.176628
8465.000000;0.176234
8464.000000;0.175762
8463.000000;0.175275
8462.000000;0.174836
8461.000000;0.174445
8460.000000;0.174052
8459.000000;0.173647
8458.000000;0.173278
8457.000000;0.172979
8456.000000;0.172736
8455.000000;0.172536
8454.000000;0.172389
8453.000000;0.172275
8452.000000;0.172113
8451.000000;0.171845
8450.000000;0.171518
8449.000000;0.171219
8448.000000;0.170924
8447.000000;0.170513
8446.000000;0.169953
8445.000000;0.169399
8444.000000;0.169039
8443.000000;0.168884
8442.000000;0.168775
8441.000000;0.168577
8440.000000;0.168289
8439.000000;0.167979
8438.000000;0.167685
8437.000000;0.167430
8436.000000;0.167246
8435.000000;0.167144
8434.000000;0.167069
8433.000000;0.166929
8432.000000;0.166672
8431.000000;0.166318
8430.000000;0.165935
8429.000000;0.165588
8428.000000;0.165291
8427.000000;0.164984
8426.000000;0.164596
8425.000000;0.164151
8424.000000;0.163760
8423.000000;0.163524
8422.000000;0.163432
8421.000000;0.163386
8420.000000;0.163266
8419.000000;0.162979
8418.000000;0.162525
8417.000000;0.162032
8416.000000;0.161672
8415.000000;0.161483
8414.000000;0.161336
8413.000000;0.161102
8412.000000;0.160804
8411.000000;0.160544
8410.000000;0.160360
8409.000000;0.160218
8408.000000;0.160104
8407.000000;0.160014
8406.000000;0.159887
8405.000000;0.159641
8404.000000;0.159269
8403.000000;0.158826
8402.000000;0.158335
8401.000000;0.157796
8400.000000;0.157273
8399.000000;0.156890
8398.000000;0.156708
8397.000000;0.156690
8396.000000;0.156757
8395.000000;0.156829
8394.000000;0.156796
8393.000000;0.156557
8392.000000;0.156113
8391.000000;0.155571
8390.000000;0.155023
8389.000000;0.154494
8388.000000;0.154025
8387.000000;0.153698
8386.000000;0.153536
8385.000000;0.153439
8384.000000;0.153287
8383.000000;0.153055
8382.000000;0.152794
8381.000000;0.152546
8380.000000;0.152335
8379.000000;0.152182
8378.000000;0.152065
8377.000000;0.151904
8376.000000;0.151646
8375.000000;0.151326
8374.000000;0.151015
8373.000000;0.150719
8372.000000;0.150406
8371.000000;0.150099
8370.000000;0.149855
8369.000000;0.149666
8368.000000;0.149437
8367.000000;0.149100
8366.000000;0.148716
8365.000000;0.148423
8364.000000;0.148278
8363.000000;0.148178
8362.000000;0.147959
8361.000000;0.147570
8360.000000;0.147129
8359.000000;0.146782
8358.000000;0.146552
8357.000000;0.146355
8356.000000;0.146146
8355.000000;0.145973
8354.000000;0.145862
8353.000000;0.145724
8352.000000;0.145443
8351.000000;0.145019
8350.000000;0.144575
8349.000000;0.144240
8348.000000;0.144043
8347.000000;0.143908
8346.000000;0.143736
8345.000000;0.143472
8344.000000;0.143134
8343.000000;0.142782
8342.000000;0.142463
8341.000000;0.142194
8340.000000;0.141979
8339.000000;0.141811
8338.000000;0.141664
8337.000000;0.141500
8336.000000;0.141296
8335.000000;0.141052
8334.000000;0.140757
8333.000000;0.140411
8332.000000;0.140063
8331.000000;0.139795
8330.000000;0.139644
8329.000000;0.139555
8328.000000;0.139433
8327.000000;0.139215
8326.000000;0.138895
8325.000000;0.138515
8324.000000;0.138135
8323.000000;0.137800
8322.000000;0.137521
8321.000000;0.137296
8320.000000;0.137138
8319.000000;0.137043
8318.000000;0.136949
8317.000000;0.136787
8316.000000;0.136564
8315.000000;0.136350
8314.000000;0.136172
8313.000000;0.135983
8312.000000;0.135750
8311.000000;0.135528
8310.000000;0.135382
8309.000000;0.135304
8308.000000;0.135232
8307.000000;0.135105
8306.000000;0.134884
8305.000000;0.134545
8304.000000;0.134124
8303.000000;0.133725
8302.000000;0.133438
8301.000000;0.133259
8300.000000;0.133115
8299.000000;0.132957
8298.000000;0.132784
8297.000000;0.132609
8296.000000;0.132441
8295.000000;0.132290
8294.000000;0.132149
8293.000000;0.131970
8292.000000;0.131695
8291.000000;0.131321
8290.000000;0.130912
8289.000000;0.130540
8288.000000;0.130240
8287.000000;0.130013
8286.000000;0.129851
8285.000000;0.129746
8284.000000;0.129679
8283.000000;0.129613
8282.000000;0.129490
8281.000000;0.129268
8280.000000;0.128966
8279.000000;0.128668
8278.000000;0.128452
8277.000000;0.128315
8276.000000;0.128181
8275.000000;0.127988
8274.000000;0.127744
8273.000000;0.127518
8272.000000;0.127362
8271.000000;0.127275
8270.000000;0.127211
8269.000000;0.127117
8268.000000;0.126962
8267.000000;0.126736
8266.000000;0.126450
8265.000000;0.126145
8264.000000;0.125878
8263.000000;0.125679
8262.000000;0.125513
8261.000000;0.125331
8260.000000;0.125133
8259.000000;0.124970
8258.000000;0.124871
8257.000000;0.124801
8256.000000;0.124690
8255.000000;0.124495
8254.000000;0.124222
8253.000000;0.123918
8252.000000;0.123633
8251.000000;0.123380
8250.000000;0.123145
8249.000000;0.122940
8248.000000;0.122824
8247.000000;0.122824
8246.000000;0.122864
8245.000000;0.122826
8244.000000;0.122680
8243.000000;0.122502
8242.000000;0.122346
8241.000000;0.122175
8240.000000;0.121946
8239.000000;0.121692
8238.000000;0.121478
8237.000000;0.121319
8236.000000;0.121183
8235.000000;0.121055
8234.000000;0.120938
8233.000000;0.120818
8232.000000;0.120654
8231.000000;0.120435
8230.000000;0.120199
8229.000000;0.119995
8228.000000;0.119842
8227.000000;0.119723
8226.000000;0.119611
8225.000000;0.119483
8224.000000;0.119319
8223.000000;0.119104
8222.000000;0.118842
8221.000000;0.118589
8220.000000;0.118428
8219.000000;0.118397
8218.000000;0.118431
8217.000000;0.118419
8216.000000;0.118316
8215.000000;0.118170
8214.000000;0.118025
8213.000000;0.117864
8212.000000;0.117654
8211.000000;0.117428
8210.000000;0.117262
8209.000000;0.117190
8208.000000;0.117155
8207.000000;0.117067
8206.000000;0.116882
8205.000000;0.116644
8204.000000;0.116437
8203.000000;0.116311
8202.000000;0.116229
8201.000000;0.116118
8200.000000;0.115956
8199.000000;0.115792
8198.000000;0.115693
8197.000000;0.115669
8196.000000;0.115669
8195.000000;0.115625
8194.000000;0.115512
8193.000000;0.115369
8192.000000;0.115263
8191.000000;0.115210
8190.000000;0.115156
8189.000000;0.115045
8188.000000;0.114896
8187.000000;0.114775
8186.000000;0.114696
8185.000000;0.114598
8184.000000;0.114430
8183.000000;0.114216
8182.000000;0.114017
8181.000000;0.113878
8180.000000;0.113796
8179.000000;0.113728
8178.000000;0.113605
8177.000000;0.113385
8176.000000;0.113119
8175.000000;0.112922
8174.000000;0.112870
8173.000000;0.112932
8172.000000;0.113005
8171.000000;0.112987
8170.000000;0.112838
8169.000000;0.112606
8168.000000;0.112420
8167.000000;0.112383
8166.000000;0.112452
8165.000000;0.112474
8164.000000;0.112358
8163.000000;0.112168
8162.000000;0.112027
8161.000000;0.111972
8160.000000;0.111945
8159.000000;0.111878
8158.000000;0.111742
8157.000000;0.111547
8156.000000;0.111353
8155.000000;0.111239
8154.000000;0.111231
8153.000000;0.111258
8152.000000;0.111232
8151.000000;0.111134
8150.000000;0.110992
8149.000000;0.110815
8148.000000;0.110614
8147.000000;0.110443
8146.000000;0.110358
8145.000000;0.110339
8144.000000;0.110309
8143.000000;0.110249
8142.000000;0.110205
8141.000000;0.110203
8140.000000;0.110192
8139.000000;0.110117
8138.000000;0.109991
8137.000000;0.109863
8136.000000;0.109755
8135.000000;0.109668
8134.000000;0.109613
8133.000000;0.109601
8132.000000;0.109606
8131.000000;0.109565
8130.000000;0.109430
8129.000000;0.109219
8128.000000;0.109008
8127.000000;0.108887
8126.000000;0.108897
8125.000000;0.109006
8124.000000;0.109135
8123.000000;0.109214
8122.000000;0.109203
8121.000000;0.109089
8120.000000;0.108880
8119.000000;0.108626
8118.000000;0.108405
8117.000000;0.108280
8116.000000;0.108254
8115.000000;0.108279
8114.000000;0.108289
8113.000000;0.108246
8112.000000;0.108155
8111.000000;0.108062
8110.000000;0.108019
8109.000000;0.108029
8108.000000;0.108038
8107.000000;0.107990
8106.000000;0.107883
8105.000000;0.107769
8104.000000;0.107684
8103.000000;0.107607
8102.000000;0.107500
8101.000000;0.107370
8100.000000;0.107276
8099.000000;0.107269
8098.000000;0.107333
8097.000000;0.107413
8096.000000;0.107456
8095.000000;0.107435
8094.000000;0.107340
8093.000000;0.107191
8092.000000;0.107042
8091.000000;0.106950
8090.000000;0.106924
8089.000000;0.106922
8088.000000;0.106903
8087.000000;0.106875
8086.000000;0.106873
8085.000000;0.106899
8084.000000;0.106909
8083.000000;0.106867
8082.000000;0.106788
8081.000000;0.106726
8080.000000;0.106719
8079.000000;0.106749
8078.000000;0.106760
8077.000000;0.106714
8076.000000;0.106618
8075.000000;0.106512
8074.000000;0.106426
8073.000000;0.106355
8072.000000;0.106274
8071.000000;0.106179
8070.000000;0.106100
8069.000000;0.106081
8068.000000;0.106122
8067.000000;0.106153
8066.000000;0.106096
8065.000000;0.105960
8064.000000;0.105828
8063.000000;0.105773
8062.000000;0.105787
8061.000000;0.105815
8060.000000;0.105825
8059.000000;0.105813
8058.000000;0.105778
8057.000000;0.105726
8056.000000;0.105679
8055.000000;0.105647
8054.000000;0.105612
8053.000000;0.105575
8052.000000;0.105572
8051.000000;0.105620
8050.000000;0.105656
8049.000000;0.105600
8048.000000;0.105458
8047.000000;0.105320
8046.000000;0.105237
8045.000000;0.105167
8044.000000;0.105053
8043.000000;0.104922
8042.000000;0.104856
8041.000000;0.104917
8040.000000;0.105094
8039.000000;0.105313
8038.000000;0.105476
8037.000000;0.105520
8036.000000;0.105463
8035.000000;0.105374
8034.000000;0.105307
8033.000000;0.105276
8032.000000;0.105277
8031.000000;0.105307
8030.000000;0.105339
8029.000000;0.105328
8028.000000;0.105264
8027.000000;0.105190
8026.000000;0.105159
8025.000000;0.105177
8024.000000;0.105228
8023.000000;0.105295
8022.000000;0.105357
8021.000000;0.105372
8020.000000;0.105313
8019.000000;0.105200
8018.000000;0.105080
8017.000000;0.104972
8016.000000;0.104867
8015.000000;0.104763
8014.000000;0.104684
8013.000000;0.104659
8012.000000;0.104686
8011.000000;0.104731
8010.000000;0.104756
8009.000000;0.104749
8008.000000;0.104727
8007.000000;0.104707
8006.000000;0.104689
8005.000000;0.104662
8004.000000;0.104614
8003.000000;0.104545
8002.000000;0.104485
8001.000000;0.104501
8000.000000;0.104650
7999.000000;0.104901
7998.000000;0.105117
7997.000000;0.105181
7996.000000;0.105102
7995.000000;0.104976
7994.000000;0.104861
7993.000000;0.104757
7992.000000;0.104683
7991.000000;0.104698
7990.000000;0.104804
7989.000000;0.104899
7988.000000;0.104881
7987.000000;0.104762
7986.000000;0.104649
7985.000000;0.104621
7984.000000;0.104661
7983.000000;0.104692
7982.000000;0.104657
7981.000000;0.104579
7980.000000;0.104537
7979.000000;0.104587
7978.000000;0.104697
7977.000000;0.104774
7976.000000;0.104750
7975.000000;0.104631
7974.000000;0.104472
7973.000000;0.104339
7972.000000;0.104299
7971.000000;0.104377
7970.000000;0.104523
7969.000000;0.104647
7968.000000;0.104695
7967.000000;0.104682
7966.000000;0.104638
7965.000000;0.104580
7964.000000;0.104535
7963.000000;0.104542
7962.000000;0.104617
7961.000000;0.104724
7960.000000;0.104819
7959.000000;0.104866
7958.000000;0.104832
7957.000000;0.104706
7956.000000;0.104560
7955.000000;0.104522
7954.000000;0.104643
7953.000000;0.104828
7952.000000;0.104940
7951.000000;0.104945
7950.000000;0.104912
7949.000000;0.104913
7948.000000;0.104961
7947.000000;0.105029
7946.000000;0.105077
7945.000000;0.105076
7944.000000;0.105034
7943.000000;0.104990
7942.000000;0.104956
7941.000000;0.104902
7940.000000;0.104824
7939.000000;0.104790
7938.000000;0.104860
7937.000000;0.104994
7936.000000;0.105088
7935.000000;0.105092
7934.000000;0.105044
7933.000000;0.104995
7932.000000;0.104968
7931.000000;0.104972
7930.000000;0.105010
7929.000000;0.105044
7928.000000;0.105013
7927.000000;0.104909
7926.000000;0.104810
7925.000000;0.104800
7924.000000;0.104889
7923.000000;0.105004
7922.000000;0.105070
7921.000000;0.105067
7920.000000;0.105030
7919.000000;0.105016
7918.000000;0.105056
7917.000000;0.105131
7916.000000;0.105188
7915.000000;0.105193
7914.000000;0.105162
7913.000000;0.105152
7912.000000;0.105207
7911.000000;0.105311
7910.000000;0.105398
7909.000000;0.105429
7908.000000;0.105435
7907.000000;0.105468
7906.000000;0.105523
7905.000000;0.105551
7904.000000;0.105546
7903.000000;0.105563
7902.000000;0.105627
7901.000000;0.105690
7900.000000;0.105702
7899.000000;0.105686
7898.000000;0.105692
7897.000000;0.105710
7896.000000;0.105694
7895.000000;0.105657
7894.000000;0.105665
7893.000000;0.105753
7892.000000;0.105880
7891.000000;0.106000
7890.000000;0.106105
7889.000000;0.106201
7888.000000;0.106269
7887.000000;0.106299
7886.000000;0.106313
7885.000000;0.106342
7884.000000;0.106392
7883.000000;0.106445
7882.000000;0.106488
7881.000000;0.106515
7880.000000;0.106532
7879.000000;0.106569
7878.000000;0.106663
7877.000000;0.106803
7876.000000;0.106914
7875.000000;0.106916
7874.000000;0.106812
7873.000000;0.106686
7872.000000;0.106631
7871.000000;0.106675
7870.000000;0.106784
7869.000000;0.106901
7868.000000;0.106986
7867.000000;0.107037
7866.000000;0.107080
7865.000000;0.107144
7864.000000;0.107229
7863.000000;0.107296
7862.000000;0.107303
7861.000000;0.107253
7860.000000;0.107201
7859.000000;0.107203
7858.000000;0.107264
7857.000000;0.107338
7856.000000;0.107388
7855.000000;0.107431
7854.000000;0.107522
7853.000000;0.107684
7852.000000;0.107868
7851.000000;0.107995
7850.000000;0.108037
7849.000000;0.108042
7848.000000;0.108085
7847.000000;0.108182
7846.000000;0.108279
7845.000000;0.108313
7844.000000;0.108283
7843.000000;0.108243
7842.000000;0.108236
7841.000000;0.108254
7840.000000;0.108258
7839.000000;0.108233
7838.000000;0.108206
7837.000000;0.108231
7836.000000;0.108343
7835.000000;0.108525
7834.000000;0.108705
7833.000000;0.108827
7832.000000;0.108906
7831.000000;0.109007
7830.000000;0.109154
7829.000000;0.109294
7828.000000;0.109350
7827.000000;0.109305
7826.000000;0.109212
7825.000000;0.109148
7824.000000;0.109168
7823.000000;0.109280
7822.000000;0.109447
7821.000000;0.109603
7820.000000;0.109698
7819.000000;0.109735
7818.000000;0.109749
7817.000000;0.109769
7816.000000;0.109793
7815.000000;0.109813
7814.000000;0.109840
7813.000000;0.109893
7812.000000;0.109971
7811.000000;0.110046
7810.000000;0.110095
7809.000000;0.110140
7808.000000;0.110236
7807.000000;0.110417
7806.000000;0.110644
7805.000000;0.110840
7804.000000;0.110957
7803.000000;0.111005
7802.000000;0.111022
7801.000000;0.111028
7800.000000;0.111032
7799.000000;0.111056
7798.000000;0.111129
7797.000000;0.111258
7796.000000;0.111406
7795.000000;0.111504
7794.000000;0.111501
7793.000000;0.111434
7792.000000;0.111408
7791.000000;0.111508
7790.000000;0.111705
7789.000000;0.111883
7788.000000;0.111967
7787.000000;0.111993
7786.000000;0.112042
7785.000000;0.112145
7784.000000;0.112275
7783.000000;0.112400
7782.000000;0.112516
7781.000000;0.112628
7780.000000;0.112728
7779.000000;0.112814
7778.000000;0.112900
7777.000000;0.113004
7776.000000;0.113126
7775.000000;0.113249
7774.000000;0.113364
7773.000000;0.113476
7772.000000;0.113598
7771.000000;0.113711
7770.000000;0.113778
7769.000000;0.113791
7768.000000;0.113808
7767.000000;0.113902
7766.000000;0.114082
7765.000000;0.114279
7764.000000;0.114425
7763.000000;0.114504
7762.000000;0.114543
7761.000000;0.114570
7760.000000;0.114603
7759.000000;0.114655
7758.000000;0.114740
7757.000000;0.114875
7756.000000;0.115083
7755.000000;0.115367
7754.000000;0.115663
7753.000000;0.115858
7752.000000;0.115891
7751.000000;0.115824
7750.000000;0.115780
7749.000000;0.115835
7748.000000;0.115968
7747.000000;0.116117
7746.000000;0.116242
7745.000000;0.116335
7744.000000;0.116403
7743.000000;0.116466
7742.000000;0.116547
7741.000000;0.116660
7740.000000;0.116801
7739.000000;0.116943
7738.000000;0.117048
7737.000000;0.117102
7736.000000;0.117129
7735.000000;0.117168
7734.000000;0.117235
7733.000000;0.117315
7732.000000;0.117406
7731.000000;0.117527
7730.000000;0.117683
7729.000000;0.117843
7728.000000;0.117978
7727.000000;0.118111
7726.000000;0.118287
7725.000000;0.118506
7724.000000;0.118712
7723.000000;0.118845
7722.000000;0.118901
7721.000000;0.118935
7720.000000;0.119021
7719.000000;0.119188
7718.000000;0.119406
7717.000000;0.119624
7716.000000;0.119829
7715.000000;0.120045
7714.000000;0.120261
7713.000000;0.120409
7712.000000;0.120442
7711.000000;0.120421
7710.000000;0.120482
7709.000000;0.120685
7708.000000;0.120947
7707.000000;0.121144
7706.000000;0.121237
7705.000000;0.121301
7704.000000;0.121418
7703.000000;0.121589
7702.000000;0.121747
7701.000000;0.121848
7700.000000;0.121923
7699.000000;0.122037
7698.000000;0.122222
7697.000000;0.122445
7696.000000;0.122643
7695.000000;0.122783
7694.000000;0.122893
7693.000000;0.123034
7692.000000;0.123235
7691.000000;0.123457
7690.000000;0.123615
7689.000000;0.123671
7688.000000;0.123671
7687.000000;0.123707
7686.000000;0.123828
7685.000000;0.124017
7684.000000;0.124225
7683.000000;0.124416
7682.000000;0.124576
7681.000000;0.124711
7680.000000;0.124837
7679.000000;0.124975
7678.000000;0.125140
7677.000000;0.125349
7676.000000;0.125624
7675.000000;0.125949
7674.000000;0.126260
7673.000000;0.126493
7672.000000;0.126645
7671.000000;0.126759
7670.000000;0.126858
7669.000000;0.126945
7668.000000;0.127035
7667.000000;0.127163
7666.000000;0.127328
7665.000000;0.127501
7664.000000;0.127679
7663.000000;0.127888
7662.000000;0.128122
7661.000000;0.128334
7660.000000;0.128500
7659.000000;0.128654
7658.000000;0.128820
7657.000000;0.128973
7656.000000;0.129100
7655.000000;0.129246
7654.000000;0.129461
7653.000000;0.129723
7652.000000;0.129983
7651.000000;0.130235
7650.000000;0.130501
7649.000000;0.130771
7648.000000;0.131006
7647.000000;0.131204
7646.000000;0.131407
7645.000000;0.131640
7644.000000;0.131873
7643.000000;0.132054
7642.000000;0.132164
7641.000000;0.132236
7640.000000;0.132345
7639.000000;0.132561
7638.000000;0.132883
7637.000000;0.133231
7636.000000;0.133510
7635.000000;0.133688
7634.000000;0.133804
7633.000000;0.133927
7632.000000;0.134116
7631.000000;0.134401
7630.000000;0.134747
7629.000000;0.135078
7628.000000;0.135339
7627.000000;0.135536
7626.000000;0.135705
7625.000000;0.135870
7624.000000;0.136053
7623.000000;0.136282
7622.000000;0.136547
7621.000000;0.136802
7620.000000;0.137030
7619.000000;0.137288
7618.000000;0.137626
7617.000000;0.137992
7616.000000;0.138286
7615.000000;0.138490
7614.000000;0.138682
7613.000000;0.138923
7612.000000;0.139184
7611.000000;0.139420
7610.000000;0.139634
7609.000000;0.139871
7608.000000;0.140161
7607.000000;0.140486
7606.000000;0.140800
7605.000000;0.141058
7604.000000;0.141264
7603.000000;0.141477
7602.000000;0.141741
7601.000000;0.142039
7600.000000;0.142322
7599.000000;0.142581
7598.000000;0.142830
7597.000000;0.143059
7596.000000;0.143245
7595.000000;0.143410
7594.000000;0.143621
7593.000000;0.143903
7592.000000;0.144221
7591.000000;0.144534
7590.000000;0.144832
7589.000000;0.145116
7588.000000;0.145392
7587.000000;0.145687
7586.000000;0.146027
7585.000000;0.146390
7584.000000;0.146712
7583.000000;0.146973
7582.000000;0.147221
7581.000000;0.147504
7580.000000;0.147815
7579.000000;0.148126
7578.000000;0.148437
7577.000000;0.148756
7576.000000;0.149064
7575.000000;0.149339
7574.000000;0.149602
7573.000000;0.149897
7572.000000;0.150246
7571.000000;0.150628
7570.000000;0.151010
7569.000000;0.151376
7568.000000;0.151725
7567.000000;0.152057
7566.000000;0.152362
7565.000000;0.152632
7564.000000;0.152891
7563.000000;0.153203
7562.000000;0.153607
7561.000000;0.154070
7560.000000;0.154506
7559.000000;0.154866
7558.000000;0.155164
7557.000000;0.155435
7556.000000;0.155702
7555.000000;0.155993
7554.000000;0.156336
7553.000000;0.156723
7552.000000;0.157113
7551.000000;0.157480
7550.000000;0.157837
7549.000000;0.158197
7548.000000;0.158541
7547.000000;0.158852
7546.000000;0.159163
7545.000000;0.159523
7544.000000;0.159931
7543.000000;0.160324
7542.000000;0.160650
7541.000000;0.160928
7540.000000;0.161227
7539.000000;0.161599
7538.000000;0.162028
7537.000000;0.162462
7536.000000;0.162872
7535.000000;0.163267
7534.000000;0.163657
7533.000000;0.164035
7532.000000;0.164399
7531.000000;0.164767
7530.000000;0.165145
7529.000000;0.165518
7528.000000;0.165878
7527.000000;0.166250
7526.000000;0.166649
7525.000000;0.167042
7524.000000;0.167384
7523.000000;0.167678
7522.000000;0.167986
7521.000000;0.168367
7520.000000;0.168836
7519.000000;0.169359
7518.000000;0.169869
7517.000000;0.170307
7516.000000;0.170671
7515.000000;0.171020
7514.000000;0.171402
7513.000000;0.171807
7512.000000;0.172202
7511.000000;0.172582
7510.000000;0.172958
7509.000000;0.173339
7508.000000;0.173752
7507.000000;0.174234
7506.000000;0.174759
7505.000000;0.175227
7504.000000;0.175574
7503.000000;0.175868
7502.000000;0.176226
7501.000000;0.176674
7500.000000;0.177152
7499.000000;0.177631
7498.000000;0.178122
7497.000000;0.178591
7496.000000;0.178982
7495.000000;0.179318
7494.000000;0.179700
7493.000000;0.180168
7492.000000;0.180672
7491.000000;0.181140
7490.000000;0.181749
7489.000000;0.182195
7488.000000;0.182596
7487.000000;0.182977
7486.000000;0.183382
7485.000000;0.183832
7484.000000;0.184274
7483.000000;0.184671
7482.000000;0.185066
7481.000000;0.185524
7480.000000;0.186049
7479.000000;0.186594
7478.000000;0.187104
7477.000000;0.187540
7476.000000;0.187901
7475.000000;0.188243
7474.000000;0.188630
7473.000000;0.189055
7472.000000;0.189464
7471.000000;0.189854
7470.000000;0.190286
7469.000000;0.190780
7468.000000;0.191281
7467.000000;0.191738
7466.000000;0.192164
7465.000000;0.192585
7464.000000;0.193003
7463.000000;0.193432
7462.000000;0.193903
7461.000000;0.194409
7460.000000;0.194890
7459.000000;0.195315
7458.000000;0.195712
7457.000000;0.196110
7456.000000;0.196498
7455.000000;0.196874
7454.000000;0.197267
7453.000000;0.197685
7452.000000;0.198097
7451.000000;0.198491
7450.000000;0.198903
7449.000000;0.199349
7448.000000;0.199797
7447.000000;0.200214
7446.000000;0.200618
7445.000000;0.201039
7444.000000;0.201501
7443.000000;0.202034
7442.000000;0.202639
7441.000000;0.203235
7440.000000;0.203719
7439.000000;0.204110
7438.000000;0.204533
7437.000000;0.205045
7436.000000;0.205574
7435.000000;0.206056
7434.000000;0.206532
7433.000000;0.207044
7432.000000;0.207535
7431.000000;0.207930
7430.000000;0.208257
7429.000000;0.208615
7428.000000;0.209058
7427.000000;0.209554
7426.000000;0.210013
7425.000000;0.210357
7424.000000;0.210614
7423.000000;0.210968
7422.000000;0.211632
7421.000000;0.212585
7420.000000;0.213534
7419.000000;0.214215
7418.000000;0.214685
7417.000000;0.215210
7416.000000;0.215928
7415.000000;0.216740
7414.000000;0.217483
7413.000000;0.218102
7412.000000;0.218655
7411.000000;0.219201
7410.000000;0.219708
7409.000000;0.220090
7408.000000;0.220347
7407.000000;0.220620
7406.000000;0.221003
7405.000000;0.221398
7404.000000;0.221692
7403.000000;0.222021
7402.000000;0.222674
7401.000000;0.223707
7400.000000;0.224792
7399.000000;0.225574
7398.000000;0.226023
7397.000000;0.226406
7396.000000;0.227012
7395.000000;0.227894
7394.000000;0.228767
7393.000000;0.229293
7392.000000;0.229553
7391.000000;0.229990
7390.000000;0.230855
7389.000000;0.231953
7388.000000;0.233016
7387.000000;0.234112
7386.000000;0.235398
7385.000000;0.236691
7384.000000;0.237718
7383.000000;0.238640
7382.000000;0.239809
7381.000000;0.241055
7380.000000;0.241838
7379.000000;0.242285
7378.000000;0.243427
7377.000000;0.245798
7376.000000;0.248360
7375.000000;0.249543
7374.000000;0.249176
7373.000000;0.248684
7372.000000;0.249324
7371.000000;0.250803
7370.000000;0.251786
7369.000000;0.251353
7368.000000;0.249819
7367.000000;0.248462
7366.000000;0.248423
7365.000000;0.249631
7364.000000;0.250946
7363.000000;0.251427
7362.000000;0.251174
7361.000000;0.250903
7360.000000;0.251131
7359.000000;0.252058
7358.000000;0.253889
7357.000000;0.256391
7356.000000;0.258327
7355.000000;0.258444
7354.000000;0.257192
7353.000000;0.256537
7352.000000;0.257760
7351.000000;0.260243
7350.000000;0.262397
7349.000000;0.263224
7348.000000;0.262950
7347.000000;0.262833
7346.000000;0.264312
7345.000000;0.267593
7344.000000;0.271233
7343.000000;0.273899
7342.000000;0.276277
7341.000000;0.279940
7340.000000;0.284541
7339.000000;0.287699
7338.000000;0.288115
7337.000000;0.287182
7336.000000;0.286686
7335.000000;0.286348
7334.000000;0.284697
7333.000000;0.281511
7332.000000;0.278146
7331.000000;0.276013
7330.000000;0.275658
7329.000000;0.276598
7328.000000;0.277374
7327.000000;0.276838
7326.000000;0.276050
7325.000000;0.277516
7324.000000;0.281723
7323.000000;0.285885
7322.000000;0.287269
7321.000000;0.286482
7320.000000;0.286173
7319.000000;0.287299
7318.000000;0.288177
7317.000000;0.286971
7316.000000;0.283821
7315.000000;0.280372
7314.000000;0.278203
7313.000000;0.277910
7312.000000;0.278883
7311.000000;0.279869
7310.000000;0.280588
7309.000000;0.282416
7308.000000;0.286332
7307.000000;0.290818
7306.000000;0.293329
7305.000000;0.293650
7304.000000;0.294184
7303.000000;0.296608
7302.000000;0.299745
7301.000000;0.301287
7300.000000;0.300440
7299.000000;0.298370
7298.000000;0.296882
7297.000000;0.297359
7296.000000;0.300017
7295.000000;0.303202
7294.000000;0.304406
7293.000000;0.303054
7292.000000;0.301700
7291.000000;0.303216
7290.000000;0.307274
7289.000000;0.310782
7288.000000;0.311397
7287.000000;0.309664
7286.000000;0.307818
7285.000000;0.307333
7284.000000;0.307889
7283.000000;0.308177
7282.000000;0.307368
7281.000000;0.305865
7280.000000;0.304780
7279.000000;0.304864
7278.000000;0.305904
7277.000000;0.307177
7276.000000;0.308350
7275.000000;0.309597
7274.000000;0.311047
7273.000000;0.312554
7272.000000;0.313969
7271.000000;0.315383
7270.000000;0.317057
7269.000000;0.319069
7268.000000;0.321127
7267.000000;0.322854
7266.000000;0.324314
7265.000000;0.326088
7264.000000;0.328618
7263.000000;0.331496
7262.000000;0.333735
7261.000000;0.334910
7260.000000;0.335723
7259.000000;0.337169
7258.000000;0.339428
7257.000000;0.341915
7256.000000;0.344252
7255.000000;0.346714
7254.000000;0.349555
7253.000000;0.352367
7252.000000;0.354519
7251.000000;0.356042
7250.000000;0.357655
7249.000000;0.359894
7248.000000;0.362613
7247.000000;0.365493
7246.000000;0.368917
7245.000000;0.373911
7244.000000;0.380592
7243.000000;0.387197
7242.000000;0.391695
7241.000000;0.394248
7240.000000;0.397044
7239.000000;0.401441
7238.000000;0.406275
7237.000000;0.409636
7236.000000;0.411673
7235.000000;0.414646
7234.000000;0.420101
7233.000000;0.426632
7232.000000;0.431119
7231.000000;0.432194
7230.000000;0.431926
7229.000000;0.433672
7228.000000;0.438566
7227.000000;0.444442
7226.000000;0.448353
7225.000000;0.449826
7224.000000;0.450896
7223.000000;0.453308
7222.000000;0.456657
7221.000000;0.459231
7220.000000;0.459982
7219.000000;0.459575
7218.000000;0.459838
7217.000000;0.462225
7216.000000;0.466540
7215.000000;0.471163
7214.000000;0.474688
7213.000000;0.477241
7212.000000;0.480033
7211.000000;0.483768
7210.000000;0.487891
7209.000000;0.491516
7208.000000;0.494710
7207.000000;0.498329
7206.000000;0.502868
7205.000000;0.507968
7204.000000;0.512939
7203.000000;0.517459
7202.000000;0.521818
7201.000000;0.526508
7200.000000;0.531598
7199.000000;0.536617
7198.000000;0.541172
7197.000000;0.545497
7196.000000;0.550058
7195.000000;0.554694
7194.000000;0.558622
7193.000000;0.561521
7192.000000;0.564153
7191.000000;0.567505
7190.000000;0.571721
7189.000000;0.576333
7188.000000;0.581183
7187.000000;0.586483
7186.000000;0.592248
7185.000000;0.598376
7184.000000;0.605180
7183.000000;0.613040
7182.000000;0.621395
7181.000000;0.629023
7180.000000;0.635685
7179.000000;0.642597
7178.000000;0.650676
7177.000000;0.659040
7176.000000;0.665924
7175.000000;0.670690
7174.000000;0.674358
7173.000000;0.678302
7172.000000;0.683028
7171.000000;0.688264
7170.000000;0.693599
7169.000000;0.698831
7168.000000;0.704188
7167.000000;0.710193
7166.000000;0.717126
7165.000000;0.724789
7164.000000;0.733042
7163.000000;0.742082
7162.000000;0.751597
7161.000000;0.760338
7160.000000;0.767386
7159.000000;0.773475
7158.000000;0.780079
7157.000000;0.787267
7156.000000;0.793401
7155.000000;0.797276
7154.000000;0.799812
7153.000000;0.802981
7152.000000;0.807479
7151.000000;0.812279
7150.000000;0.816306
7149.000000;0.819800
7148.000000;0.824002
7147.000000;0.829807
7146.000000;0.836882
7145.000000;0.844181
7144.000000;0.851217
7143.000000;0.858585
7142.000000;0.867213
7141.000000;0.877153
7140.000000;0.887101
7139.000000;0.895508
7138.000000;0.902351
7137.000000;0.909305
7136.000000;0.917630
7135.000000;0.926384
7134.000000;0.933480
7133.000000;0.938331
7132.000000;0.942501
7131.000000;0.947507
7130.000000;0.952977
7129.000000;0.957514
7128.000000;0.960695
7127.000000;0.963433
7126.000000;0.966689
7125.000000;0.970795
7124.000000;0.975781
7123.000000;0.981534
7122.000000;0.987747
7121.000000;0.994343
7120.000000;1.001776
7119.000000;1.010277
7118.000000;1.018955
7117.000000;1.026520
7116.000000;1.032955
7115.000000;1.039597
7114.000000;1.047250
7113.000000;1.054985
7112.000000;1.061276
7111.000000;1.065825
7110.000000;1.069714
7109.000000;1.074006
7108.000000;1.078769
7107.000000;1.083363
7106.000000;1.087263
7105.000000;1.090598
7104.000000;1.094180
7103.000000;1.098938
7102.000000;1.105004
7101.000000;1.111486
7100.000000;1.117437
7099.000000;1.122754
7098.000000;1.127968
7097.000000;1.133440
7096.000000;1.138864
7095.000000;1.143595
7094.000000;1.147545
7093.000000;1.151546
7092.000000;1.156548
7091.000000;1.162497
7090.000000;1.168303
7089.000000;1.173041
7088.000000;1.176877
7087.000000;1.180522
7086.000000;1.184115
7085.000000;1.187169
7084.000000;1.189481
7083.000000;1.191525
7082.000000;1.193846
7081.000000;1.196568
7080.000000;1.199627
7079.000000;1.203073
7078.000000;1.206900
7077.000000;1.210803
7076.000000;1.214316
7075.000000;1.217285
7074.000000;1.220227
7073.000000;1.224004
7072.000000;1.228928
7071.000000;1.234383
7070.000000;1.239453
7069.000000;1.243816
7068.000000;1.247824
7067.000000;1.251814
7066.000000;1.255687
7065.000000;1.259160
7064.000000;1.262097
7063.000000;1.264474
7062.000000;1.266353
7061.000000;1.267958
7060.000000;1.269559
7059.000000;1.271170
7058.000000;1.272652
7057.000000;1.274174
7056.000000;1.276120
7055.000000;1.278428
7054.000000;1.280643
7053.000000;1.282747
7052.000000;1.285312
7051.000000;1.288711
7050.000000;1.292656
7049.000000;1.296622
7048.000000;1.300309
7047.000000;1.303537
7046.000000;1.306171
7045.000000;1.308425
7044.000000;1.310714
7043.000000;1.312933
7042.000000;1.314522
7041.000000;1.315545
7040.000000;1.316987
7039.000000;1.319469
7038.000000;1.322300
7037.000000;1.324382
7036.000000;1.325532
7035.000000;1.326276
7034.000000;1.326926
7033.000000;1.327596
7032.000000;1.328680
7031.000000;1.330494
7030.000000;1.332599
7029.000000;1.334132
7028.000000;1.334856
7027.000000;1.335453
7026.000000;1.336814
7025.000000;1.339299
7024.000000;1.342485
7023.000000;1.345300
7022.000000;1.346755
7021.000000;1.346923
7020.000000;1.346914
7019.000000;1.347632
7018.000000;1.348963
7017.000000;1.350418
7016.000000;1.351999
7015.000000;1.353918
7014.000000;1.355880
7013.000000;1.357277
7012.000000;1.357900
7011.000000;1.358000
7010.000000;1.357885
7009.000000;1.357892
7008.000000;1.358451
7007.000000;1.359649
7006.000000;1.360959
7005.000000;1.361822
7004.000000;1.362265
7003.000000;1.362670
7002.000000;1.363267
7001.000000;1.364194
7000.000000;1.365615
6999.000000;1.367332
6998.000000;1.368667
6997.000000;1.369241
6996.000000;1.369536
6995.000000;1.370219
6994.000000;1.371283
6993.000000;1.372295
6992.000000;1.373108
6991.000000;1.373790
6990.000000;1.374223
6989.000000;1.374327
6988.000000;1.374389
6987.000000;1.374640
6986.000000;1.374797
6985.000000;1.374525
6984.000000;1.374148
6983.000000;1.374347
6982.000000;1.375342
6981.000000;1.376852
6980.000000;1.378566
6979.000000;1.380167
6978.000000;1.381155
6977.000000;1.381222
6976.000000;1.380709
6975.000000;1.380296
6974.000000;1.380389
6973.000000;1.381026
6972.000000;1.382022
6971.000000;1.382898
6970.000000;1.383094
6969.000000;1.382618
6968.000000;1.382138
6967.000000;1.382051
6966.000000;1.381900
6965.000000;1.381121
6964.000000;1.379988
6963.000000;1.379293
6962.000000;1.379384
6961.000000;1.379994
6960.000000;1.380644
6959.000000;1.380771
6958.000000;1.379950
6957.000000;1.378530
6956.000000;1.377590
6955.000000;1.377744
6954.000000;1.378388
6953.000000;1.378584
6952.000000;1.378288
6951.000000;1.378095
6950.000000;1.378211
6949.000000;1.378366
6948.000000;1.378431
6947.000000;1.378404
6946.000000;1.378074
6945.000000;1.377358
6944.000000;1.376737
6943.000000;1.376663
6942.000000;1.376777
6941.000000;1.376413
6940.000000;1.375706
6939.000000;1.375417
6938.000000;1.375758
6937.000000;1.376156
6936.000000;1.376138
6935.000000;1.375745
6934.000000;1.375063
6933.000000;1.374031
6932.000000;1.372877
6931.000000;1.372153
6930.000000;1.372123
6929.000000;1.372469
6928.000000;1.372642
6927.000000;1.372200
6926.000000;1.370892
6925.000000;1.368854
6924.000000;1.366749
6923.000000;1.365363
6922.000000;1.365005
6921.000000;1.365492
6920.000000;1.366569
6919.000000;1.367917
6918.000000;1.368920
6917.000000;1.368985
6916.000000;1.368176
6915.000000;1.367102
6914.000000;1.366191
6913.000000;1.365443
6912.000000;1.364803
6911.000000;1.364337
6910.000000;1.364015
6909.000000;1.363653
6908.000000;1.363118
6907.000000;1.362364
6906.000000;1.361340
6905.000000;1.360129
6904.000000;1.359110
6903.000000;1.358645
6902.000000;1.358615
6901.000000;1.358516
6900.000000;1.358022
6899.000000;1.357209
6898.000000;1.356263
6897.000000;1.355279
6896.000000;1.354318
6895.000000;1.353382
6894.000000;1.352366
6893.000000;1.351233
6892.000000;1.350193
6891.000000;1.349533
6890.000000;1.349364
6889.000000;1.349617
6888.000000;1.350109
6887.000000;1.350498
6886.000000;1.350383
6885.000000;1.349642
6884.000000;1.348472
6883.000000;1.347011
6882.000000;1.345239
6881.000000;1.343427
6880.000000;1.342237
6879.000000;1.342043
6878.000000;1.342424
6877.000000;1.342640
6876.000000;1.342354
6875.000000;1.341599
6874.000000;1.340367
6873.000000;1.338698
6872.000000;1.336970
6871.000000;1.335699
6870.000000;1.335113
6869.000000;1.335078
6868.000000;1.335239
6867.000000;1.335071
6866.000000;1.334151
6865.000000;1.332693
6864.000000;1.331447
6863.000000;1.330782
6862.000000;1.330241
6861.000000;1.329320
6860.000000;1.328215
6859.000000;1.327337
6858.000000;1.326503
6857.000000;1.325249
6856.000000;1.323663
6855.000000;1.322268
6854.000000;1.321246
6853.000000;1.320360
6852.000000;1.319525
6851.000000;1.318863
6850.000000;1.318216
6849.000000;1.317143
6848.000000;1.315538
6847.000000;1.313839
6846.000000;1.312503
6845.000000;1.311554
6844.000000;1.310647
6843.000000;1.309374
6842.000000;1.307565
6841.000000;1.305494
6840.000000;1.303688
6839.000000;1.302323
6838.000000;1.300960
6837.000000;1.299117
6836.000000;1.296866
6835.000000;1.294571
6834.000000;1.292372
6833.000000;1.290342
6832.000000;1.288828
6831.000000;1.288033
6830.000000;1.287395
6829.000000;1.286021
6828.000000;1.283799
6827.000000;1.281548
6826.000000;1.279914
6825.000000;1.278624
6824.000000;1.276993
6823.000000;1.274779
6822.000000;1.272269
6821.000000;1.269824
6820.000000;1.267601
6819.000000;1.265562
6818.000000;1.263538
6817.000000;1.261360
6816.000000;1.259060
6815.000000;1.256841
6814.000000;1.254776
6813.000000;1.252650
6812.000000;1.250181
6811.000000;1.247317
6810.000000;1.244295
6809.000000;1.241458
6808.000000;1.239062
6807.000000;1.237150
6806.000000;1.235486
6805.000000;1.233658
6804.000000;1.231360
6803.000000;1.228652
6802.000000;1.225920
6801.000000;1.223501
6800.000000;1.221330
6799.000000;1.219065
6798.000000;1.216541
6797.000000;1.213949
6796.000000;1.211453
6795.000000;1.208890
6794.000000;1.206065
6793.000000;1.203171
6792.000000;1.200584
6791.000000;1.198324
6790.000000;1.196029
6789.000000;1.193458
6788.000000;1.190669
6787.000000;1.187714
6786.000000;1.184542
6785.000000;1.181324
6784.000000;1.178459
6783.000000;1.176070
6782.000000;1.173792
6781.000000;1.171242
6780.000000;1.168446
6779.000000;1.165616
6778.000000;1.162795
6777.000000;1.159912
6776.000000;1.156967
6775.000000;1.153955
6774.000000;1.150808
6773.000000;1.147575
6772.000000;1.144485
6771.000000;1.141684
6770.000000;1.139096
6769.000000;1.136668
6768.000000;1.134485
6767.000000;1.132465
6766.000000;1.130208
6765.000000;1.127403
6764.000000;1.124226
6763.000000;1.121113
6762.000000;1.118287
6761.000000;1.115652
6760.000000;1.112982
6759.000000;1.110080
6758.000000;1.106915
6757.000000;1.103709
6756.000000;1.100741
6755.000000;1.097987
6754.000000;1.095189
6753.000000;1.092320
6752.000000;1.089674
6751.000000;1.087323
6750.000000;1.084860
6749.000000;1.081957
6748.000000;1.078852
6747.000000;1.075984
6746.000000;1.073398
6745.000000;1.070822
6744.000000;1.068124
6743.000000;1.065348
6742.000000;1.062465
6741.000000;1.059425
6740.000000;1.056366
6739.000000;1.053480
6738.000000;1.050712
6737.000000;1.047858
6736.000000;1.044900
6735.000000;1.042011
6734.000000;1.039293
6733.000000;1.036709
6732.000000;1.034239
6731.000000;1.031900
6730.000000;1.029641
6729.000000;1.027358
6728.000000;1.024961
6727.000000;1.022334
6726.000000;1.019346
6725.000000;1.016048
6724.000000;1.012724
6723.000000;1.009601
6722.000000;1.006637
6721.000000;1.003728
6720.000000;1.000942
6719.000000;0.998350
6718.000000;0.995783
6717.000000;0.993010
6716.000000;0.990091
6715.000000;0.987299
6714.000000;0.984764
6713.000000;0.982386
6712.000000;0.980002
6711.000000;0.977476
6710.000000;0.974693
6709.000000;0.971711
6708.000000;0.968860
6707.000000;0.966456
6706.000000;0.964472
6705.000000;0.962483
6704.000000;0.960149
6703.000000;0.957446
6702.000000;0.954483
6701.000000;0.951376
6700.000000;0.948335
6699.000000;0.945413
6698.000000;0.942712
6697.000000;0.939845
6696.000000;0.937121
6695.000000;0.934498
6694.000000;0.931738
6693.000000;0.929003
6692.000000;0.926424
6691.000000;0.924078
6690.000000;0.921768
6689.000000;0.919314
6688.000000;0.916775
6687.000000;0.914314
6686.000000;0.911925
6685.000000;0.909494
6684.000000;0.907007
6683.000000;0.904517
6682.000000;0.901976
6681.000000;0.899311
6680.000000;0.896615
6679.000000;0.894062
6678.000000;0.891674
6677.000000;0.889335
6676.000000;0.886997
6675.000000;0.884690
6674.000000;0.882379
6673.000000;0.879992
6672.000000;0.877554
6671.000000;0.875139
6670.000000;0.872702
6669.000000;0.870134
6668.000000;0.867455
6667.000000;0.864795
6666.000000;0.862212
6665.000000;0.859676
6664.000000;0.857210
6663.000000;0.854872
6662.000000;0.852604
6661.000000;0.850268
6660.000000;0.847845
6659.000000;0.845448
6658.000000;0.843139
6657.000000;0.840862
6656.000000;0.838565
6655.000000;0.836256
6654.000000;0.833931
6653.000000;0.831583
6652.000000;0.829276
6651.000000;0.827085
6650.000000;0.824953
6649.000000;0.822736
6648.000000;0.820387
6647.000000;0.818007
6646.000000;0.815699
6645.000000;0.813494
6644.000000;0.811397
6643.000000;0.809383
6642.000000;0.807347
6641.000000;0.805170
6640.000000;0.802863
6639.000000;0.800537
6638.000000;0.798242
6637.000000;0.795937
6636.000000;0.793614
6635.000000;0.791317
6634.000000;0.789045
6633.000000;0.786753
6632.000000;0.784453
6631.000000;0.782202
6630.000000;0.779990
6629.000000;0.777754
6628.000000;0.775506
6627.000000;0.773332
6626.000000;0.771241
6625.000000;0.769125
6624.000000;0.766917
6623.000000;0.764670
6622.000000;0.762460
6621.000000;0.760305
6620.000000;0.758214
6619.000000;0.756205
6618.000000;0.754236
6617.000000;0.752207
6616.000000;0.750082
6615.000000;0.747938
6614.000000;0.745866
6613.000000;0.743881
6612.000000;0.741948
6611.000000;0.740022
6610.000000;0.738047
6609.000000;0.735973
6608.000000;0.733830
6607.000000;0.731707
6606.000000;0.729639
6605.000000;0.727582
6604.000000;0.725520
6603.000000;0.723509
6602.000000;0.721574
6601.000000;0.719636
6600.000000;0.717620
6599.000000;0.715578
6598.000000;0.713642
6597.000000;0.711874
6596.000000;0.710203
6595.000000;0.708497
6594.000000;0.706668
6593.000000;0.704737
6592.000000;0.702813
6591.000000;0.700989
6590.000000;0.699228
6589.000000;0.697386
6588.000000;0.695359
6587.000000;0.693202
6586.000000;0.691072
6585.000000;0.689071
6584.000000;0.687178
6583.000000;0.685318
6582.000000;0.683448
6581.000000;0.681570
6580.000000;0.679674
6579.000000;0.677729
6578.000000;0.675741
6577.000000;0.673798
6576.000000;0.671997
6575.000000;0.670337
6574.000000;0.668720
6573.000000;0.667076
6572.000000;0.665422
6571.000000;0.663787
6570.000000;0.662135
6569.000000;0.660404
6568.000000;0.658596
6567.000000;0.656761
6566.000000;0.654931
6565.000000;0.653101
6564.000000;0.651272
6563.000000;0.649463
6562.000000;0.647689
6561.000000;0.645963
6560.000000;0.644300
6559.000000;0.642680
6558.000000;0.641043
6557.000000;0.639346
6556.000000;0.637613
6555.000000;0.635918
6554.000000;0.634303
6553.000000;0.632763
6552.000000;0.631261
6551.000000;0.629742
6550.000000;0.628153
6549.000000;0.626485
6548.000000;0.624793
6547.000000;0.623130
6546.000000;0.621501
6545.000000;0.619882
6544.000000;0.618260
6543.000000;0.616629
6542.000000;0.614968
6541.000000;0.613269
6540.000000;0.611569
6539.000000;0.609913
6538.000000;0.608305
6537.000000;0.606728
6536.000000;0.605172
6535.000000;0.603630
6534.000000;0.602078
6533.000000;0.600517
6532.000000;0.598978
6531.000000;0.597478
6530.000000;0.595979
6529.000000;0.594450
6528.000000;0.592906
6527.000000;0.591375
6526.000000;0.589842
6525.000000;0.588291
6524.000000;0.586764
6523.000000;0.585314
6522.000000;0.583925
6521.000000;0.582525
6520.000000;0.581075
6519.000000;0.579606
6518.000000;0.578165
6517.000000;0.576777
6516.000000;0.575431
6515.000000;0.574069
6514.000000;0.572624
6513.000000;0.571089
6512.000000;0.569544
6511.000000;0.568072
6510.000000;0.566677
6509.000000;0.565304
6508.000000;0.563918
6507.000000;0.562530
6506.000000;0.561152
6505.000000;0.559796
6504.000000;0.558490
6503.000000;0.557248
6502.000000;0.556030
6501.000000;0.554759
6500.000000;0.553386
6499.000000;0.551926
6498.000000;0.550438
6497.000000;0.548985
6496.000000;0.547607
6495.000000;0.546286
6494.000000;0.544969
6493.000000;0.543628
6492.000000;0.542290
6491.000000;0.540980
6490.000000;0.539683
6489.000000;0.538383
6488.000000;0.537107
6487.000000;0.535884
6486.000000;0.534684
6485.000000;0.533454
6484.000000;0.532189
6483.000000;0.530929
6482.000000;0.529707
6481.000000;0.528515
6480.000000;0.527323
6479.000000;0.526084
6478.000000;0.524760
6477.000000;0.523360
6476.000000;0.521958
6475.000000;0.520621
6474.000000;0.519353
6473.000000;0.518111
6472.000000;0.516863
6471.000000;0.515601
6470.000000;0.514335
6469.000000;0.513102
6468.000000;0.511954
6467.000000;0.510893
6466.000000;0.509857
6465.000000;0.508789
6464.000000;0.507690
6463.000000;0.506571
6462.000000;0.505411
6461.000000;0.504205
6460.000000;0.503019
6459.000000;0.501918
6458.000000;0.500860
6457.000000;0.499741
6456.000000;0.498524
6455.000000;0.497271
6454.000000;0.496051
6453.000000;0.494878
6452.000000;0.493728
6451.000000;0.492585
6450.000000;0.491440
6449.000000;0.490294
6448.000000;0.489168
6447.000000;0.488071
6446.000000;0.486982
6445.000000;0.485871
6444.000000;0.484740
6443.000000;0.483622
6442.000000;0.482538
6441.000000;0.481496
6440.000000;0.480495
6439.000000;0.479519
6438.000000;0.478525
6437.000000;0.477491
6436.000000;0.476444
6435.000000;0.475410
6434.000000;0.474364
6433.000000;0.473272
6432.000000;0.472162
6431.000000;0.471103
6430.000000;0.470126
6429.000000;0.469198
6428.000000;0.468275
6427.000000;0.467330
6426.000000;0.466353
6425.000000;0.465351
6424.000000;0.464350
6423.000000;0.463370
6422.000000;0.462396
6421.000000;0.461410
6420.000000;0.460426
6419.000000;0.459469
6418.000000;0.458532
6417.000000;0.457580
6416.000000;0.456602
6415.000000;0.455610
6414.000000;0.454609
6413.000000;0.453597
6412.000000;0.452590
6411.000000;0.451609
6410.000000;0.450654
6409.000000;0.449711
6408.000000;0.448783
6407.000000;0.447883
6406.000000;0.447003
6405.000000;0.446126
6404.000000;0.445253
6403.000000;0.444396
6402.000000;0.443535
6401.000000;0.442633
6400.000000;0.441680
6399.000000;0.440712
6398.000000;0.439776
6397.000000;0.438896
6396.000000;0.438069
6395.000000;0.437263
6394.000000;0.436427
6393.000000;0.435541
6392.000000;0.434637
6391.000000;0.433764
6390.000000;0.432934
6389.000000;0.432125
6388.000000;0.431311
6387.000000;0.430486
6386.000000;0.429659
6385.000000;0.428857
6384.000000;0.428108
6383.000000;0.427394
6382.000000;0.426648
6381.000000;0.425814
6380.000000;0.424914
6379.000000;0.424014
6378.000000;0.423163
6377.000000;0.422358
6376.000000;0.421565
6375.000000;0.420740
6374.000000;0.419857
6373.000000;0.418941
6372.000000;0.418069
6371.000000;0.417289
6370.000000;0.416572
6369.000000;0.415862
6368.000000;0.415147
6367.000000;0.414446
6366.000000;0.413742
6365.000000;0.412985
6364.000000;0.412155
6363.000000;0.411282
6362.000000;0.410421
6361.000000;0.409613
6360.000000;0.408876
6359.000000;0.408181
6358.000000;0.407476
6357.000000;0.406738
6356.000000;0.406002
6355.000000;0.405298
6354.000000;0.404601
6353.000000;0.403874
6352.000000;0.403129
6351.000000;0.402416
6350.000000;0.401749
6349.000000;0.401098
6348.000000;0.400453
6347.000000;0.399818
6346.000000;0.399175
6345.000000;0.398481
6344.000000;0.397729
6343.000000;0.396957
6342.000000;0.396205
6341.000000;0.395480
6340.000000;0.394784
6339.000000;0.394121
6338.000000;0.393485
6337.000000;0.392855
6336.000000;0.392210
6335.000000;0.391547
6334.000000;0.390870
6333.000000;0.390191
6332.000000;0.389538
6331.000000;0.388917
6330.000000;0.388294
6329.000000;0.387628
6328.000000;0.386927
6327.000000;0.386234
6326.000000;0.385565
6325.000000;0.384903
6324.000000;0.384238
6323.000000;0.383586
6322.000000;0.382962
6321.000000;0.382356
6320.000000;0.381750
6319.000000;0.381135
6318.000000;0.380508
6317.000000;0.379886
6316.000000;0.379296
6315.000000;0.378748
6314.000000;0.378210
6313.000000;0.377641
6312.000000;0.377039
6311.000000;0.376435
6310.000000;0.375848
6309.000000;0.375266
6308.000000;0.374672
6307.000000;0.374072
6306.000000;0.373479
6305.000000;0.372900
6304.000000;0.372324
6303.000000;0.371733
6302.000000;0.371122
6301.000000;0.370512
6300.000000;0.369933
6299.000000;0.369386
6298.000000;0.368837
6297.000000;0.368267
6296.000000;0.367709
6295.000000;0.367196
6294.000000;0.366707
6293.000000;0.366196
6292.000000;0.365657
6291.000000;0.365119
6290.000000;0.364600
6289.000000;0.364092
6288.000000;0.363582
6287.000000;0.363074
6286.000000;0.362564
6285.000000;0.362043
6284.000000;0.361514
6283.000000;0.360983
6282.000000;0.360443
6281.000000;0.359888
6280.000000;0.359331
6279.000000;0.358801
6278.000000;0.358307
6277.000000;0.357835
6276.000000;0.357362
6275.000000;0.356863
6274.000000;0.356319
6273.000000;0.355749
6272.000000;0.355201
6271.000000;0.354714
6270.000000;0.354271
6269.000000;0.353837
6268.000000;0.353397
6267.000000;0.352952
6266.000000;0.352497
6265.000000;0.352016
6264.000000;0.351514
6263.000000;0.350999
6262.000000;0.350468
6261.000000;0.349929
6260.000000;0.349421
6259.000000;0.348975
6258.000000;0.348570
6257.000000;0.348157
6256.000000;0.347717
6255.000000;0.347268
6254.000000;0.346819
6253.000000;0.346362
6252.000000;0.345896
6251.000000;0.345434
6250.000000;0.344978
6249.000000;0.344527
6248.000000;0.344094
6247.000000;0.343694
6246.000000;0.343301
6245.000000;0.342872
6244.000000;0.342394
6243.000000;0.341898
6242.000000;0.341405
6241.000000;0.340914
6240.000000;0.340421
6239.000000;0.339948
6238.000000;0.339514
6237.000000;0.339123
6236.000000;0.338763
6235.000000;0.338414
6234.000000;0.338050
6233.000000;0.337650
6232.000000;0.337221
6231.000000;0.336788
6230.000000;0.336373
6229.000000;0.335980
6228.000000;0.335608
6227.000000;0.335241
6226.000000;0.334858
6225.000000;0.334448
6224.000000;0.334024
6223.000000;0.333610
6222.000000;0.333204
6221.000000;0.332799
6220.000000;0.332395
6219.000000;0.332002
6218.000000;0.331612
6217.000000;0.331213
6216.000000;0.330814
6215.000000;0.330433
6214.000000;0.330074
6213.000000;0.329728
6212.000000;0.329384
6211.000000;0.329032
6210.000000;0.328658
6209.000000;0.328258
6208.000000;0.327845
6207.000000;0.327435
6206.000000;0.327030
6205.000000;0.326635
6204.000000;0.326281
6203.000000;0.325981
6202.000000;0.325705
6201.000000;0.325401
6200.000000;0.325057
6199.000000;0.324694
6198.000000;0.324336
6197.000000;0.323983
6196.000000;0.323628
6195.000000;0.323261
6194.000000;0.322863
6193.000000;0.322437
6192.000000;0.322021
6191.000000;0.321652
6190.000000;0.321326
6189.000000;0.321014
6188.000000;0.320708
6187.000000;0.320419
6186.000000;0.320133
6185.000000;0.319812
6184.000000;0.319443
6183.000000;0.319062
6182.000000;0.318712
6181.000000;0.318403
6180.000000;0.318114
6179.000000;0.317814
6178.000000;0.317486
6177.000000;0.317138
6176.000000;0.316800
6175.000000;0.316494
6174.000000;0.316208
6173.000000;0.315917
6172.000000;0.315611
6171.000000;0.315297
6170.000000;0.314978
6169.000000;0.314652
6168.000000;0.314332
6167.000000;0.314030
6166.000000;0.313742
6165.000000;0.313446
6164.000000;0.313122
6163.000000;0.312773
6162.000000;0.312411
6161.000000;0.312061
6160.000000;0.311740
6159.000000;0.311450
6158.000000;0.311172
6157.000000;0.310895
6156.000000;0.310626
6155.000000;0.310368
6154.000000;0.310106
6153.000000;0.309837
6152.000000;0.309574
6151.000000;0.309317
6150.000000;0.309038
6149.000000;0.308715
6148.000000;0.308374
6147.000000;0.308062
6146.000000;0.307799
6145.000000;0.307570
6144.000000;0.307354
6143.000000;0.307128
6142.000000;0.306866
6141.000000;0.306563
6140.000000;0.306250
6139.000000;0.305964
6138.000000;0.305703
6137.000000;0.305438
6136.000000;0.305162
6135.000000;0.304882
6134.000000;0.304592
6133.000000;0.304285
6132.000000;0.303983
6131.000000;0.303722
6130.000000;0.303502
6129.000000;0.303282
6128.000000;0.303027
6127.000000;0.302745
6126.000000;0.302463
6125.000000;0.302203
6124.000000;0.301963
6123.000000;0.301725
6122.000000;0.301468
6121.000000;0.301185
6120.000000;0.300897
6119.000000;0.300620
6118.000000;0.300355
6117.000000;0.300107
6116.000000;0.299901
6115.000000;0.299748
6114.000000;0.299616
6113.000000;0.299447
6112.000000;0.299221
6111.000000;0.298956
6110.000000;0.298677
6109.000000;0.298405
6108.000000;0.298148
6107.000000;0.297906
6106.000000;0.297660
6105.000000;0.297402
6104.000000;0.297150
6103.000000;0.296923
6102.000000;0.296710
6101.000000;0.296495
6100.000000;0.296287
6099.000000;0.296098
6098.000000;0.295904
6097.000000;0.295667
6096.000000;0.295389
6095.000000;0.295110
6094.000000;0.294859
6093.000000;0.294633
6092.000000;0.294426
6091.000000;0.294235
6090.000000;0.294053
6089.000000;0.293865
6088.000000;0.293667
6087.000000;0.293464
6086.000000;0.293254
6085.000000;0.293029
6084.000000;0.292807
6083.000000;0.292619
6082.000000;0.292470
6081.000000;0.292336
6080.000000;0.292196
6079.000000;0.292048
6078.000000;0.291894
6077.000000;0.291727
6076.000000;0.291543
6075.000000;0.291339
6074.000000;0.291106
6073.000000;0.290850
6072.000000;0.290606
6071.000000;0.290411
6070.000000;0.290258
6069.000000;0.290091
6068.000000;0.289876
6067.000000;0.289637
6066.000000;0.289427
6065.000000;0.289267
6064.000000;0.289127
6063.000000;0.288967
6062.000000;0.288775
6061.000000;0.288581
6060.000000;0.288418
6059.000000;0.288285
6058.000000;0.288148
6057.000000;0.287989
6056.000000;0.287823
6055.000000;0.287673
6054.000000;0.287538
6053.000000;0.287402
6052.000000;0.287256
6051.000000;0.287093
6050.000000;0.286908
6049.000000;0.286710
6048.000000;0.286529
6047.000000;0.286387
6046.000000;0.286263
6045.000000;0.286119
6044.000000;0.285946
6043.000000;0.285773
6042.000000;0.285629
6041.000000;0.285521
6040.000000;0.285433
6039.000000;0.285333
6038.000000;0.285201
6037.000000;0.285046
6036.000000;0.284898
6035.000000;0.284774
6034.000000;0.284655
6033.000000;0.284521
6032.000000;0.284381
6031.000000;0.284253
6030.000000;0.284133
6029.000000;0.284005
6028.000000;0.283867
6027.000000;0.283733
6026.000000;0.283605
6025.000000;0.283479
6024.000000;0.283353
6023.000000;0.283224
6022.000000;0.283083
6021.000000;0.282928
6020.000000;0.282773
6019.000000;0.282631
6018.000000;0.282497
6017.000000;0.282376
6016.000000;0.282290
6015.000000;0.282242
6014.000000;0.282191
6013.000000;0.282096
6012.000000;0.281963
6011.000000;0.281831
6010.000000;0.281720
6009.000000;0.281621
6008.000000;0.281527
6007.000000;0.281440
6006.000000;0.281357
6005.000000;0.281274
6004.000000;0.281200
6003.000000;0.281136
6002.000000;0.281058
6001.000000;0.280949
6000.000000;0.280834
5999.000000;0.280752
5998.000000;0.280709
5997.000000;0.280686
5996.000000;0.280665
5995.000000;0.280635
5994.000000;0.280573
5993.000000;0.280461
5992.000000;0.280323
5991.000000;0.280206
5990.000000;0.280127
5989.000000;0.280060
5988.000000;0.279984
5987.000000;0.279901
5986.000000;0.279815
5985.000000;0.279725
5984.000000;0.279638
5983.000000;0.279580
5982.000000;0.279560
5981.000000;0.279568
5980.000000;0.279579
5979.000000;0.279572
5978.000000;0.279530
5977.000000;0.279461
5976.000000;0.279396
5975.000000;0.279361
5974.000000;0.279348
5973.000000;0.279326
5972.000000;0.279282
5971.000000;0.279230
5970.000000;0.279182
5969.000000;0.279135
5968.000000;0.279085
5967.000000;0.279035
5966.000000;0.278994
5965.000000;0.278980
5964.000000;0.279005
5963.000000;0.279058
5962.000000;0.279101
5961.000000;0.279103
5960.000000;0.279071
5959.000000;0.279026
5958.000000;0.278974
5957.000000;0.278923
5956.000000;0.278889
5955.000000;0.278883
5954.000000;0.278887
5953.000000;0.278879
5952.000000;0.278869
5951.000000;0.278874
5950.000000;0.278893
5949.000000;0.278904
5948.000000;0.278905
5947.000000;0.278900
5946.000000;0.278885
5945.000000;0.278856
5944.000000;0.278829
5943.000000;0.278823
5942.000000;0.278830
5941.000000;0.278830
5940.000000;0.278833
5939.000000;0.278868
5938.000000;0.278934
5937.000000;0.278997
5936.000000;0.279027
5935.000000;0.279030
5934.000000;0.279025
5933.000000;0.279032
5932.000000;0.279060
5931.000000;0.279101
5930.000000;0.279133
5929.000000;0.279149
5928.000000;0.279168
5927.000000;0.279205
5926.000000;0.279251
5925.000000;0.279289
5924.000000;0.279330
5923.000000;0.279394
5922.000000;0.279473
5921.000000;0.279541
5920.000000;0.279592
5919.000000;0.279641
5918.000000;0.279689
5917.000000;0.279732
5916.000000;0.279771
5915.000000;0.279815
5914.000000;0.279858
5913.000000;0.279892
5912.000000;0.279926
5911.000000;0.279971
5910.000000;0.280017
5909.000000;0.280049
5908.000000;0.280080
5907.000000;0.280129
5906.000000;0.280194
5905.000000;0.280263
5904.000000;0.280337
5903.000000;0.280426
5902.000000;0.280518
5901.000000;0.280597
5900.000000;0.280666
5899.000000;0.280733
5898.000000;0.280784
5897.000000;0.280809
5896.000000;0.280834
5895.000000;0.280898
5894.000000;0.280999
5893.000000;0.281106
5892.000000;0.281203
5891.000000;0.281299
5890.000000;0.281385
5889.000000;0.281448
5888.000000;0.281503
5887.000000;0.281590
5886.000000;0.281717
5885.000000;0.281843
5884.000000;0.281936
5883.000000;0.282008
5882.000000;0.282084
5881.000000;0.282172
5880.000000;0.282260
5879.000000;0.282338
5878.000000;0.282409
5877.000000;0.282488
5876.000000;0.282608
5875.000000;0.282787
5874.000000;0.283004
5873.000000;0.283210
5872.000000;0.283366
5871.000000;0.283471
5870.000000;0.283547
5869.000000;0.283629
5868.000000;0.283754
5867.000000;0.283932
5866.000000;0.284134
5865.000000;0.284314
5864.000000;0.284455
5863.000000;0.284580
5862.000000;0.284715
5861.000000;0.284873
5860.000000;0.285048
5859.000000;0.285228
5858.000000;0.285397
5857.000000;0.285557
5856.000000;0.285725
5855.000000;0.285913
5854.000000;0.286102
5853.000000;0.286275
5852.000000;0.286439
5851.000000;0.286607
5850.000000;0.286781
5849.000000;0.286959
5848.000000;0.287157
5847.000000;0.287384
5846.000000;0.287620
5845.000000;0.287836
5844.000000;0.288037
5843.000000;0.288246
5842.000000;0.288468
5841.000000;0.288692
5840.000000;0.288924
5839.000000;0.289181
5838.000000;0.289461
5837.000000;0.289736
5836.000000;0.289993
5835.000000;0.290232
5834.000000;0.290452
5833.000000;0.290647
5832.000000;0.290818
5831.000000;0.290983
5830.000000;0.291162
5829.000000;0.291379
5828.000000;0.291649
5827.000000;0.291960
5826.000000;0.292271
5825.000000;0.292556
5824.000000;0.292835
5823.000000;0.293134
5822.000000;0.293439
5821.000000;0.293722
5820.000000;0.293985
5819.000000;0.294260
5818.000000;0.294553
5817.000000;0.294839
5816.000000;0.295102
5815.000000;0.295339
5814.000000;0.295562
5813.000000;0.295791
5812.000000;0.296069
5811.000000;0.296418
5810.000000;0.296810
5809.000000;0.297191
5808.000000;0.297534
5807.000000;0.297850
5806.000000;0.298154
5805.000000;0.298455
5804.000000;0.298767
5803.000000;0.299099
5802.000000;0.299434
5801.000000;0.299758
5800.000000;0.300084
5799.000000;0.300440
5798.000000;0.300820
5797.000000;0.301199
5796.000000;0.301572
5795.000000;0.301946
5794.000000;0.302314
5793.000000;0.302665
5792.000000;0.303011
5791.000000;0.303378
5790.000000;0.303763
5789.000000;0.304149
5788.000000;0.304542
5787.000000;0.304963
5786.000000;0.305402
5785.000000;0.305819
5784.000000;0.306201
5783.000000;0.306570
5782.000000;0.306954
5781.000000;0.307354
5780.000000;0.307766
5779.000000;0.308186
5778.000000;0.308599
5777.000000;0.308998
5776.000000;0.309394
5775.000000;0.309811
5774.000000;0.310247
5773.000000;0.310687
5772.000000;0.311136
5771.000000;0.311612
5770.000000;0.312114
5769.000000;0.312616
5768.000000;0.313098
5767.000000;0.313558
5766.000000;0.313993
5765.000000;0.314403
5764.000000;0.314808
5763.000000;0.315238
5762.000000;0.315700
5761.000000;0.316180
5760.000000;0.316667
5759.000000;0.317161
5758.000000;0.317662
5757.000000;0.318167
5756.000000;0.318685
5755.000000;0.319223
5754.000000;0.319776
5753.000000;0.320335
5752.000000;0.320899
5751.000000;0.321462
5750.000000;0.321997
5749.000000;0.322489
5748.000000;0.322970
5747.000000;0.323485
5746.000000;0.324046
5745.000000;0.324632
5744.000000;0.325228
5743.000000;0.325827
5742.000000;0.326413
5741.000000;0.326976
5740.000000;0.327536
5739.000000;0.328118
5738.000000;0.328716
5737.000000;0.329309
5736.000000;0.329895
5735.000000;0.330480
5734.000000;0.331057
5733.000000;0.331627
5732.000000;0.332215
5731.000000;0.332842
5730.000000;0.333489
5729.000000;0.334122
5728.000000;0.334745
5727.000000;0.335384
5726.000000;0.336040
5725.000000;0.336696
5724.000000;0.337358
5723.000000;0.338038
5722.000000;0.338720
5721.000000;0.339367
5720.000000;0.339987
5719.000000;0.340620
5718.000000;0.341288
5717.000000;0.341978
5716.000000;0.342679
5715.000000;0.343388
5714.000000;0.344086
5713.000000;0.344753
5712.000000;0.345400
5711.000000;0.346064
5710.000000;0.346752
5709.000000;0.347444
5708.000000;0.348129
5707.000000;0.348823
5706.000000;0.349538
5705.000000;0.350269
5704.000000;0.351013
5703.000000;0.351767
5702.000000;0.352518
5701.000000;0.353252
5700.000000;0.353977
5699.000000;0.354703
5698.000000;0.355409
5697.000000;0.356085
5696.000000;0.356746
5695.000000;0.357461
5694.000000;0.358220
5693.000000;0.359124
5692.000000;0.360033
5691.000000;0.360876
5690.000000;0.361683
5689.000000;0.362398
5688.000000;0.363076
5687.000000;0.363760
5686.000000;0.364465
5685.000000;0.365172
5684.000000;0.365894
5683.000000;0.366660
5682.000000;0.367467
5681.000000;0.368274
5680.000000;0.369056
5679.000000;0.369804
5678.000000;0.370509
5677.000000;0.371175
5676.000000;0.371858
5675.000000;0.372618
5674.000000;0.373441
5673.000000;0.374251
5672.000000;0.375006
5671.000000;0.375726
5670.000000;0.376442
5669.000000;0.377153
5668.000000;0.377853
5667.000000;0.378544
5666.000000;0.379240
5665.000000;0.379954
5664.000000;0.380705
5663.000000;0.381492
5662.000000;0.382281
5661.000000;0.383047
5660.000000;0.383796
5659.000000;0.384544
5658.000000;0.385271
5657.000000;0.385958
5656.000000;0.386628
5655.000000;0.387319
5654.000000;0.388022
5653.000000;0.388699
5652.000000;0.389343
5651.000000;0.389981
5650.000000;0.390620
5649.000000;0.391245
5648.000000;0.391847
5647.000000;0.392438
5646.000000;0.393025
5645.000000;0.393623
5644.000000;0.394263
5643.000000;0.394958
5642.000000;0.395666
5641.000000;0.396322
5640.000000;0.396920
5639.000000;0.397499
5638.000000;0.398088
5637.000000;0.398675
5636.000000;0.399252
5635.000000;0.399824
5634.000000;0.400397
5633.000000;0.400967
5632.000000;0.401537
5631.000000;0.402102
5630.000000;0.402641
5629.000000;0.403146
5628.000000;0.403645
5627.000000;0.404162
5626.000000;0.404682
5625.000000;0.405183
5624.000000;0.405681
5623.000000;0.406194
5622.000000;0.406697
5621.000000;0.407160
5620.000000;0.407596
5619.000000;0.408042
5618.000000;0.408499
5617.000000;0.408947
5616.000000;0.409386
5615.000000;0.409820
5614.000000;0.410222
5613.000000;0.410573
5612.000000;0.410899
5611.000000;0.411229
5610.000000;0.411549
5609.000000;0.411835
5608.000000;0.412114
5607.000000;0.412424
5606.000000;0.412756
5605.000000;0.413086
5604.000000;0.413429
5603.000000;0.413814
5602.000000;0.414228
5601.000000;0.414632
5600.000000;0.415013
5599.000000;0.415374
5598.000000;0.415703
5597.000000;0.415993
5596.000000;0.416262
5595.000000;0.416509
5594.000000;0.416694
5593.000000;0.416796
5592.000000;0.416856
5591.000000;0.416925
5590.000000;0.416996
5589.000000;0.417056
5588.000000;0.417137
5587.000000;0.417262
5586.000000;0.417389
5585.000000;0.417476
5584.000000;0.417553
5583.000000;0.417675
5582.000000;0.417832
5581.000000;0.417987
5580.000000;0.418146
5579.000000;0.418332
5578.000000;0.418517
5577.000000;0.418658
5576.000000;0.418772
5575.000000;0.418903
5574.000000;0.419048
5573.000000;0.419189
5572.000000;0.419341
5571.000000;0.419503
5570.000000;0.419601
5569.000000;0.419590
5568.000000;0.419552
5567.000000;0.419601
5566.000000;0.419713
5565.000000;0.419780
5564.000000;0.419794
5563.000000;0.419835
5562.000000;0.419905
5561.000000;0.419900
5560.000000;0.419787
5559.000000;0.419657
5558.000000;0.419583
5557.000000;0.419544
5556.000000;0.419531
5555.000000;0.419631
5554.000000;0.419895
5553.000000;0.420257
5552.000000;0.420638
5551.000000;0.421064
5550.000000;0.421581
5549.000000;0.422105
5548.000000;0.422481
5547.000000;0.422634
5546.000000;0.422588
5545.000000;0.422376
5544.000000;0.422013
5543.000000;0.421526
5542.000000;0.420973
5541.000000;0.420428
5540.000000;0.420015
5539.000000;0.419868
5538.000000;0.420002
5537.000000;0.420280
5536.000000;0.420587
5535.000000;0.420955
5534.000000;0.421419
5533.000000;0.421858
5532.000000;0.422107
5531.000000;0.422144
5530.000000;0.422029
5529.000000;0.421725
5528.000000;0.421144
5527.000000;0.420368
5526.000000;0.419676
5525.000000;0.419338
5524.000000;0.419424
5523.000000;0.419795
5522.000000;0.420252
5521.000000;0.420693
5520.000000;0.421191
5519.000000;0.421879
5518.000000;0.422706
5517.000000;0.423407
5516.000000;0.423781
5515.000000;0.423857
5514.000000;0.423746
5513.000000;0.423436
5512.000000;0.422939
5511.000000;0.422556
5510.000000;0.422644
5509.000000;0.423163
5508.000000;0.423702
5507.000000;0.424047
5506.000000;0.424448
5505.000000;0.425199
5504.000000;0.426128
5503.000000;0.426755
5502.000000;0.426873
5501.000000;0.426640
5500.000000;0.426151
5499.000000;0.425252
5498.000000;0.423946
5497.000000;0.422881
5496.000000;0.423091
5495.000000;0.424941
5494.000000;0.427686
5493.000000;0.430296
5492.000000;0.432569
5491.000000;0.435058
5490.000000;0.437885
5489.000000;0.440266
5488.000000;0.441448
5487.000000;0.441505
5486.000000;0.440815
5485.000000;0.439244
5484.000000;0.436518
5483.000000;0.433092
5482.000000;0.429958
5481.000000;0.427559
5480.000000;0.425617
5479.000000;0.424318
5478.000000;0.424686
5477.000000;0.427264
5476.000000;0.431103
5475.000000;0.434556
5474.000000;0.436974
5473.000000;0.438909
5472.000000;0.440692
5471.000000;0.441837
5470.000000;0.441986
5469.000000;0.441557
5468.000000;0.441111
5467.000000;0.440683
5466.000000;0.440066
5465.000000;0.439607
5464.000000;0.440253
5463.000000;0.442493
5462.000000;0.445596
5461.000000;0.448176
5460.000000;0.449468
5459.000000;0.449879
5458.000000;0.450109
5457.000000;0.450137
5456.000000;0.449500
5455.000000;0.448128
5454.000000;0.446500
5453.000000;0.445201
5452.000000;0.444571
5451.000000;0.444602
5450.000000;0.445226
5449.000000;0.446799
5448.000000;0.449932
5447.000000;0.454506
5446.000000;0.459203
5445.000000;0.463029
5444.000000;0.466766
5443.000000;0.471548
5442.000000;0.476524
5441.000000;0.479496
5440.000000;0.479684
5439.000000;0.478668
5438.000000;0.478254
5437.000000;0.478486
5436.000000;0.478450
5435.000000;0.477921
5434.000000;0.477440
5433.000000;0.477781
5432.000000;0.479616
5431.000000;0.482997
5430.000000;0.487165
5429.000000;0.491123
5428.000000;0.494249
5427.000000;0.496319
5426.000000;0.497122
5425.000000;0.496519
5424.000000;0.494806
5423.000000;0.492533
5422.000000;0.489907
5421.000000;0.486703
5420.000000;0.482776
5419.000000;0.478624
5418.000000;0.475724
5417.000000;0.475996
5416.000000;0.480230
5415.000000;0.487290
5414.000000;0.495317
5413.000000;0.503741
5412.000000;0.513279
5411.000000;0.523614
5410.000000;0.532549
5409.000000;0.538269
5408.000000;0.541153
5407.000000;0.542279
5406.000000;0.541331
5405.000000;0.537563
5404.000000;0.531977
5403.000000;0.526878
5402.000000;0.523560
5401.000000;0.521740
5400.000000;0.521228
5399.000000;0.522396
5398.000000;0.525331
5397.000000;0.529889
5396.000000;0.536069
5395.000000;0.543672
5394.000000;0.551689
5393.000000;0.558974
5392.000000;0.565453
5391.000000;0.571547
5390.000000;0.576933
5389.000000;0.580993
5388.000000;0.584052
5387.000000;0.587069
5386.000000;0.590145
5385.000000;0.592564
5384.000000;0.594482
5383.000000;0.597206
5382.000000;0.601218
5381.000000;0.605769
5380.000000;0.610776
5379.000000;0.617050
5378.000000;0.624619
5377.000000;0.632358
5376.000000;0.639653
5375.000000;0.647315
5374.000000;0.655924
5373.000000;0.664421
5372.000000;0.671510
5371.000000;0.677192
5370.000000;0.681989
5369.000000;0.685693
5368.000000;0.688028
5367.000000;0.690110
5366.000000;0.693903
5365.000000;0.700251
5364.000000;0.708382
5363.000000;0.717393
5362.000000;0.727048
5361.000000;0.737183
5360.000000;0.747312
5359.000000;0.757092
5358.000000;0.766909
5357.000000;0.777634
5356.000000;0.789955
5355.000000;0.803997
5354.000000;0.819235
5353.000000;0.834871
5352.000000;0.850580
5351.000000;0.866635
5350.000000;0.882833
5349.000000;0.898285
5348.000000;0.912981
5347.000000;0.928400
5346.000000;0.945615
5345.000000;0.963569
5344.000000;0.980339
5343.000000;0.996031
5342.000000;1.012938
5341.000000;1.032179
5340.000000;1.052388
5339.000000;1.072155
5338.000000;1.091650
5337.000000;1.111155
5336.000000;1.129831
5335.000000;1.147088
5334.000000;1.163852
5333.000000;1.181357
5332.000000;1.199396
5331.000000;1.217112
5330.000000;1.234843
5329.000000;1.253923
5328.000000;1.275064
5327.000000;1.297973
5326.000000;1.322338
5325.000000;1.347892
5324.000000;1.373579
5323.000000;1.398341
5322.000000;1.422804
5321.000000;1.448411
5320.000000;1.475217
5319.000000;1.502158
5318.000000;1.529169
5317.000000;1.557278
5316.000000;1.586897
5315.000000;1.617664
5314.000000;1.649590
5313.000000;1.682635
5312.000000;1.715691
5311.000000;1.748137
5310.000000;1.781560
5309.000000;1.817734
5308.000000;1.855633
5307.000000;1.892716
5306.000000;1.928699
5305.000000;1.965254
5304.000000;2.002547
5303.000000;2.039181
5302.000000;2.074955
5301.000000;2.110357
5300.000000;2.143858
5299.000000;2.173484
5298.000000;2.200754
5297.000000;2.229315
5296.000000;2.260173
5295.000000;2.291508
5294.000000;2.321891
5293.000000;2.349856
5292.000000;2.372437
5291.000000;2.389428
5290.000000;2.406390
5289.000000;2.428078
5288.000000;2.451837
5287.000000;2.471925
5286.000000;2.487180
5285.000000;2.499531
5284.000000;2.509266
5283.000000;2.517122
5282.000000;2.526658
5281.000000;2.539304
5280.000000;2.551251
5279.000000;2.559812
5278.000000;2.568038
5277.000000;2.577696
5276.000000;2.583962
5275.000000;2.583173
5274.000000;2.579664
5273.000000;2.578566
5272.000000;2.578980
5271.000000;2.579534
5270.000000;2.583369
5269.000000;2.591645
5268.000000;2.598806
5267.000000;2.601083
5266.000000;2.603357
5265.000000;2.610980
5264.000000;2.621908
5263.000000;2.631630
5262.000000;2.639725
5261.000000;2.645946
5260.000000;2.645755
5259.000000;2.637784
5258.000000;2.629158
5257.000000;2.625627
5256.000000;2.624519
5255.000000;2.622166
5254.000000;2.620127
5253.000000;2.619289
5252.000000;2.615244
5251.000000;2.606279
5250.000000;2.599265
5249.000000;2.600446
5248.000000;2.606865
5247.000000;2.612132
5246.000000;2.615932
5245.000000;2.620926
5244.000000;2.624951
5243.000000;2.624292
5242.000000;2.620545
5241.000000;2.617286
5240.000000;2.614090
5239.000000;2.609462
5238.000000;2.604870
5237.000000;2.601032
5236.000000;2.595023
5235.000000;2.586298
5234.000000;2.580752
5233.000000;2.583258
5232.000000;2.590540
5231.000000;2.596328
5230.000000;2.600513
5229.000000;2.607210
5228.000000;2.616419
5227.000000;2.623604
5226.000000;2.625895
5225.000000;2.624291
5224.000000;2.620753
5223.000000;2.617061
5222.000000;2.614614
5221.000000;2.612452
5220.000000;2.608236
5219.000000;2.603260
5218.000000;2.602690
5217.000000;2.608233
5216.000000;2.614715
5215.000000;2.617386
5214.000000;2.618429
5213.000000;2.621151
5212.000000;2.622859
5211.000000;2.619556
5210.000000;2.613921
5209.000000;2.612110
5208.000000;2.615525
5207.000000;2.620086
5206.000000;2.621533
5205.000000;2.618743
5204.000000;2.613411
5203.000000;2.608515
5202.000000;2.605662
5201.000000;2.603266
5200.000000;2.599401
5199.000000;2.596424
5198.000000;2.599010
5197.000000;2.606671
5196.000000;2.612564
5195.000000;2.611865
5194.000000;2.606537
5193.000000;2.600249
5192.000000;2.594533
5191.000000;2.591155
5190.000000;2.592201
5189.000000;2.594639
5188.000000;2.590478
5187.000000;2.577386
5186.000000;2.563572
5185.000000;2.557483
5184.000000;2.558874
5183.000000;2.562334
5182.000000;2.564820
5181.000000;2.566068
5180.000000;2.565764
5179.000000;2.565327
5178.000000;2.568952
5177.000000;2.578209
5176.000000;2.587799
5175.000000;2.590414
5174.000000;2.584797
5173.000000;2.575188
5172.000000;2.565123
5171.000000;2.556196
5170.000000;2.550028
5169.000000;2.547296
5168.000000;2.546480
5167.000000;2.546263
5166.000000;2.547846
5165.000000;2.552825
5164.000000;2.559991
5163.000000;2.565865
5162.000000;2.567199
5161.000000;2.562087
5160.000000;2.551900
5159.000000;2.543242
5158.000000;2.543233
5157.000000;2.551975
5156.000000;2.562576
5155.000000;2.569364
5154.000000;2.572878
5153.000000;2.574306
5152.000000;2.570801
5151.000000;2.561295
5150.000000;2.551390
5149.000000;2.546969
5148.000000;2.547115
5147.000000;2.546983
5146.000000;2.544832
5145.000000;2.542303
5144.000000;2.540134
5143.000000;2.538396
5142.000000;2.539198
5141.000000;2.544554
5140.000000;2.551798
5139.000000;2.555372
5138.000000;2.554305
5137.000000;2.553363
5136.000000;2.556116
5135.000000;2.560453
5134.000000;2.561996
5133.000000;2.560018
5132.000000;2.557275
5131.000000;2.555224
5130.000000;2.552546
5129.000000;2.548622
5128.000000;2.546409
5127.000000;2.549715
5126.000000;2.557927
5125.000000;2.565763
5124.000000;2.569752
5123.000000;2.572447
5122.000000;2.576867
5121.000000;2.579700
5120.000000;2.575018
5119.000000;2.563579
5118.000000;2.552354
5117.000000;2.545914
5116.000000;2.544071
5115.000000;2.546355
5114.000000;2.552796
5113.000000;2.559597
5112.000000;2.559962
5111.000000;2.552128
5110.000000;2.541565
5109.000000;2.533324
5108.000000;2.527660
5107.000000;2.524391
5106.000000;2.525922
5105.000000;2.532835
5104.000000;2.540571
5103.000000;2.544183
5102.000000;2.543734
5101.000000;2.541746
5100.000000;2.539063
5099.000000;2.536836
5098.000000;2.538325
5097.000000;2.544400
5096.000000;2.550321
5095.000000;2.551098
5094.000000;2.548108
5093.000000;2.545970
5092.000000;2.545644
5091.000000;2.545392
5090.000000;2.546130
5089.000000;2.550726
5088.000000;2.558736
5087.000000;2.565803
5086.000000;2.568251
5085.000000;2.565351
5084.000000;2.557483
5083.000000;2.546113
5082.000000;2.535484
5081.000000;2.529749
5080.000000;2.528487
5079.000000;2.528231
5078.000000;2.527991
5077.000000;2.530438
5076.000000;2.537159
5075.000000;2.545330
5074.000000;2.550556
5073.000000;2.551542
5072.000000;2.550331
5071.000000;2.548784
5070.000000;2.546407
5069.000000;2.541638
5068.000000;2.534398
5067.000000;2.526467
5066.000000;2.519220
5065.000000;2.512118
5064.000000;2.504590
5063.000000;2.498719
5062.000000;2.498136
5061.000000;2.503682
5060.000000;2.511166
5059.000000;2.514361
5058.000000;2.510525
5057.000000;2.502544
5056.000000;2.496149
5055.000000;2.495594
5054.000000;2.500547
5053.000000;2.506047
5052.000000;2.506841
5051.000000;2.502727
5050.000000;2.497976
5049.000000;2.495437
5048.000000;2.493645
5047.000000;2.490223
5046.000000;2.485947
5045.000000;2.483630
5044.000000;2.484274
5043.000000;2.486128
5042.000000;2.486849
5041.000000;2.485321
5040.000000;2.481659
5039.000000;2.476781
5038.000000;2.472348
5037.000000;2.470147
5036.000000;2.470989
5035.000000;2.474088
5034.000000;2.477249
5033.000000;2.477986
5032.000000;2.475341
5031.000000;2.470473
5030.000000;2.464630
5029.000000;2.457422
5028.000000;2.448519
5027.000000;2.439891
5026.000000;2.434215
5025.000000;2.431704
5024.000000;2.430367
5023.000000;2.429301
5022.000000;2.429663
5021.000000;2.431744
5020.000000;2.432999
5019.000000;2.430276
5018.000000;2.423293
5017.000000;2.414923
5016.000000;2.408360
5015.000000;2.404666
5014.000000;2.402641
5013.000000;2.400602
5012.000000;2.398228
5011.000000;2.396220
5010.000000;2.394308
5009.000000;2.391202
5008.000000;2.387290
5007.000000;2.385427
5006.000000;2.387156
5005.000000;2.389499
5004.000000;2.387986
5003.000000;2.382542
5002.000000;2.377270
5001.000000;2.374638
5000.000000;2.372774
4999.000000;2.368731
4998.000000;2.361625
4997.000000;2.352125
4996.000000;2.341316
4995.000000;2.331065
4994.000000;2.323790
4993.000000;2.319603
4992.000000;2.315789
4991.000000;2.309947
4990.000000;2.302583
4989.000000;2.295602
4988.000000;2.289817
4987.000000;2.285056
4986.000000;2.281085
4985.000000;2.277114
4984.000000;2.271878
4983.000000;2.265501
4982.000000;2.260017
4981.000000;2.256782
4980.000000;2.254173
4979.000000;2.249129
4978.000000;2.240681
4977.000000;2.230734
4976.000000;2.221722
4975.000000;2.214752
4974.000000;2.209725
4973.000000;2.205746
4972.000000;2.201177
4971.000000;2.194706
4970.000000;2.187041
4969.000000;2.180657
4968.000000;2.177285
4967.000000;2.175958
4966.000000;2.173815
4965.000000;2.168868
4964.000000;2.161734
4963.000000;2.154476
4962.000000;2.148182
4961.000000;2.142135
4960.000000;2.135185
4959.000000;2.127308
4958.000000;2.119471
4957.000000;2.112467
4956.000000;2.106483
4955.000000;2.101442
4954.000000;2.097097
4953.000000;2.092815
4952.000000;2.088066
4951.000000;2.083143
4950.000000;2.078749
4949.000000;2.075002
4948.000000;2.071178
4947.000000;2.066438
4946.000000;2.060480
4945.000000;2.053471
4944.000000;2.045672
4943.000000;2.037252
4942.000000;2.028374
4941.000000;2.019414
4940.000000;2.011065
4939.000000;2.003956
4938.000000;1.997978
4937.000000;1.992166
4936.000000;1.985571
4935.000000;1.978132
4934.000000;1.970493
4933.000000;1.963289
4932.000000;1.956905
4931.000000;1.951550
4930.000000;1.947039
4929.000000;1.942680
4928.000000;1.937834
4927.000000;1.932473
4926.000000;1.926849
4925.000000;1.920832
4924.000000;1.914012
4923.000000;1.906393
4922.000000;1.898593
4921.000000;1.891376
4920.000000;1.885196
4919.000000;1.879990
4918.000000;1.875088
4917.000000;1.869524
4916.000000;1.862880
4915.000000;1.855777
4914.000000;1.849271
4913.000000;1.843878
4912.000000;1.839300
4911.000000;1.834869
4910.000000;1.829968
4909.000000;1.824306
4908.000000;1.818127
4907.000000;1.812015
4906.000000;1.806209
4905.000000;1.800245
4904.000000;1.793480
4903.000000;1.785768
4902.000000;1.777511
4901.000000;1.769421
4900.000000;1.762454
4899.000000;1.757398
4898.000000;1.753938
4897.000000;1.750451
4896.000000;1.745362
4895.000000;1.738636
4894.000000;1.731418
4893.000000;1.724530
4892.000000;1.717999
4891.000000;1.711756
4890.000000;1.705940
4889.000000;1.700461
4888.000000;1.694955
4887.000000;1.689290
4886.000000;1.683701
4885.000000;1.678371
4884.000000;1.673276
4883.000000;1.668411
4882.000000;1.663687
4881.000000;1.658676
4880.000000;1.653020
4879.000000;1.647130
4878.000000;1.641827
4877.000000;1.637192
4876.000000;1.632357
4875.000000;1.626613
4874.000000;1.620192
4873.000000;1.613720
4872.000000;1.607450
4871.000000;1.601378
4870.000000;1.595570
4869.000000;1.589970
4868.000000;1.584248
4867.000000;1.578267
4866.000000;1.572445
4865.000000;1.567259
4864.000000;1.562610
4863.000000;1.558039
4862.000000;1.553376
4861.000000;1.548759
4860.000000;1.544169
4859.000000;1.539358
4858.000000;1.534245
4857.000000;1.529012
4856.000000;1.523787
4855.000000;1.518541
4854.000000;1.513362
4853.000000;1.508556
4852.000000;1.504269
4851.000000;1.500167
4850.000000;1.495659
4849.000000;1.490432
4848.000000;1.484723
4847.000000;1.479086
4846.000000;1.473948
4845.000000;1.469360
4844.000000;1.465064
4843.000000;1.460714
4842.000000;1.456050
4841.000000;1.451001
4840.000000;1.445730
4839.000000;1.440518
4838.000000;1.435474
4837.000000;1.430400
4836.000000;1.425110
4835.000000;1.419816
4834.000000;1.414979
4833.000000;1.410726
4832.000000;1.406632
4831.000000;1.402212
4830.000000;1.397442
4829.000000;1.392641
4828.000000;1.387998
4827.000000;1.383457
4826.000000;1.378969
4825.000000;1.374584
4824.000000;1.370270
4823.000000;1.365867
4822.000000;1.361310
4821.000000;1.356712
4820.000000;1.352154
4819.000000;1.347540
4818.000000;1.342784
4817.000000;1.338020
4816.000000;1.333461
4815.000000;1.329112
4814.000000;1.324774
4813.000000;1.320309
4812.000000;1.315774
4811.000000;1.311279
4810.000000;1.306869
4809.000000;1.302573
4808.000000;1.298424
4807.000000;1.294360
4806.000000;1.290223
4805.000000;1.285987
4804.000000;1.281860
4803.000000;1.277998
4802.000000;1.274216
4801.000000;1.270166
4800.000000;1.265801
4799.000000;1.261457
4798.000000;1.257432
4797.000000;1.253664
4796.000000;1.249892
4795.000000;1.245975
4794.000000;1.241942
4793.000000;1.237833
4792.000000;1.233635
4791.000000;1.229352
4790.000000;1.225043
4789.000000;1.220805
4788.000000;1.216742
4787.000000;1.212886
4786.000000;1.209113
4785.000000;1.205204
4784.000000;1.201066
4783.000000;1.196840
4782.000000;1.192760
4781.000000;1.188960
4780.000000;1.185444
4779.000000;1.182120
4778.000000;1.178803
4777.000000;1.175275
4776.000000;1.171473
4775.000000;1.167574
4774.000000;1.163810
4773.000000;1.160249
4772.000000;1.156821
4771.000000;1.153453
4770.000000;1.150059
4769.000000;1.146473
4768.000000;1.142572
4767.000000;1.138456
4766.000000;1.134388
4765.000000;1.130542
4764.000000;1.126909
4763.000000;1.123443
4762.000000;1.120135
4761.000000;1.116915
4760.000000;1.113620
4759.000000;1.110164
4758.000000;1.106668
4757.000000;1.103328
4756.000000;1.100181
4755.000000;1.097070
4754.000000;1.093806
4753.000000;1.090342
4752.000000;1.086791
4751.000000;1.083313
4750.000000;1.079984
4749.000000;1.076751
4748.000000;1.073510
4747.000000;1.070211
4746.000000;1.066910
4745.000000;1.063701
4744.000000;1.060616
4743.000000;1.057582
4742.000000;1.054497
4741.000000;1.051368
4740.000000;1.048340
4739.000000;1.045531
4738.000000;1.042843
4737.000000;1.040026
4736.000000;1.036957
4735.000000;1.033778
4734.000000;1.030729
4733.000000;1.027897
4732.000000;1.025187
4731.000000;1.022449
4730.000000;1.019559
4729.000000;1.016470
4728.000000;1.013272
4727.000000;1.010179
4726.000000;1.007329
4725.000000;1.004644
4724.000000;1.001961
4723.000000;0.999263
4722.000000;0.996677
4721.000000;0.994260
4720.000000;0.991918
4719.000000;0.989517
4718.000000;0.986968
4717.000000;0.984201
4716.000000;0.981199
4715.000000;0.978114
4714.000000;0.975222
4713.000000;0.972678
4712.000000;0.970378
4711.000000;0.968096
4710.000000;0.965712
4709.000000;0.963246
4708.000000;0.960767
4707.000000;0.958333
4706.000000;0.955976
4705.000000;0.953666
4704.000000;0.951338
4703.000000;0.948981
4702.000000;0.946660
4701.000000;0.944393
4700.000000;0.942077
4699.000000;0.939622
4698.000000;0.937111
4697.000000;0.934730
4696.000000;0.932547
4695.000000;0.930460
4694.000000;0.928358
4693.000000;0.926242
4692.000000;0.924162
4691.000000;0.922097
4690.000000;0.919978
4689.000000;0.917768
4688.000000;0.915485
4687.000000;0.913163
4686.000000;0.910839
4685.000000;0.908555
4684.000000;0.906356
4683.000000;0.904276
4682.000000;0.902364
4681.000000;0.900679
4680.000000;0.899229
4679.000000;0.897893
4678.000000;0.896466
4677.000000;0.894800
4676.000000;0.892911
4675.000000;0.890930
4674.000000;0.888966
4673.000000;0.887021
4672.000000;0.885040
4671.000000;0.883011
4670.000000;0.880997
4669.000000;0.879069
4668.000000;0.877238
4667.000000;0.875464
4666.000000;0.873731
4665.000000;0.872062
4664.000000;0.870454
4663.000000;0.868827
4662.000000;0.867087
4661.000000;0.865237
4660.000000;0.863401
4659.000000;0.861712
4658.000000;0.860188
4657.000000;0.858736
4656.000000;0.857239
4655.000000;0.855644
4654.000000;0.853973
4653.000000;0.852301
4652.000000;0.850725
4651.000000;0.849313
4650.000000;0.848042
4649.000000;0.846797
4648.000000;0.845456
4647.000000;0.843990
4646.000000;0.842468
4645.000000;0.840968
4644.000000;0.839494
4643.000000;0.838008
4642.000000;0.836531
4641.000000;0.835156
4640.000000;0.833933
4639.000000;0.832770
4638.000000;0.831515
4637.000000;0.830135
4636.000000;0.828753
4635.000000;0.827510
4634.000000;0.826433
4633.000000;0.825456
4632.000000;0.824498
4631.000000;0.823481
4630.000000;0.822329
4629.000000;0.821024
4628.000000;0.819651
4627.000000;0.818341
4626.000000;0.817161
4625.000000;0.816087
4624.000000;0.815054
4623.000000;0.813986
4622.000000;0.812835
4621.000000;0.811630
4620.000000;0.810465
4619.000000;0.809374
4618.000000;0.808276
4617.000000;0.807110
4616.000000;0.805984
4615.000000;0.805061
4614.000000;0.804325
4613.000000;0.803583
4612.000000;0.802736
4611.000000;0.801898
4610.000000;0.801180
4609.000000;0.800491
4608.000000;0.799636
4607.000000;0.798559
4606.000000;0.797377
4605.000000;0.796242
4604.000000;0.795268
4603.000000;0.794525
4602.000000;0.793995
4601.000000;0.793515
4600.000000;0.792876
4599.000000;0.792004
4598.000000;0.791001
4597.000000;0.790033
4596.000000;0.789222
4595.000000;0.788624
4594.000000;0.788215
4593.000000;0.787877
4592.000000;0.787461
4591.000000;0.786910
4590.000000;0.786283
4589.000000;0.785665
4588.000000;0.785095
4587.000000;0.784581
4586.000000;0.784122
4585.000000;0.783685
4584.000000;0.783207
4583.000000;0.782655
4582.000000;0.782067
4581.000000;0.781509
4580.000000;0.781031
4579.000000;0.780654
4578.000000;0.780382
4577.000000;0.780179
4576.000000;0.779974
4575.000000;0.779711
4574.000000;0.779418
4573.000000;0.779192
4572.000000;0.779108
4571.000000;0.779125
4570.000000;0.779093
4569.000000;0.778884
4568.000000;0.778522
4567.000000;0.778171
4566.000000;0.777963
4565.000000;0.777867
4564.000000;0.777763
4563.000000;0.777604
4562.000000;0.777444
4561.000000;0.777329
4560.000000;0.777243
4559.000000;0.777197
4558.000000;0.777292
4557.000000;0.777629
4556.000000;0.778169
4555.000000;0.778732
4554.000000;0.779139
4553.000000;0.779332
4552.000000;0.779368
4551.000000;0.779352
4550.000000;0.779371
4549.000000;0.779486
4548.000000;0.779731
4547.000000;0.780113
4546.000000;0.780584
4545.000000;0.781047
4544.000000;0.781422
4543.000000;0.781719
4542.000000;0.782016
4541.000000;0.782360
4540.000000;0.782717
4539.000000;0.783022
4538.000000;0.783252
4537.000000;0.783433
4536.000000;0.783611
4535.000000;0.783859
4534.000000;0.784263
4533.000000;0.784837
4532.000000;0.785437
4531.000000;0.785855
4530.000000;0.786014
4529.000000;0.786049
4528.000000;0.786184
4527.000000;0.786562
4526.000000;0.787195
4525.000000;0.787985
4524.000000;0.788739
4523.000000;0.789236
4522.000000;0.789383
4521.000000;0.789327
4520.000000;0.789337
4519.000000;0.789562
4518.000000;0.789953
4517.000000;0.790397
4516.000000;0.790842
4515.000000;0.791262
4514.000000;0.791604
4513.000000;0.791869
4512.000000;0.792198
4511.000000;0.792781
4510.000000;0.793643
4509.000000;0.794578
4508.000000;0.795324
4507.000000;0.795786
4506.000000;0.796077
4505.000000;0.796393
4504.000000;0.796864
4503.000000;0.797500
4502.000000;0.798232
4501.000000;0.798982
4500.000000;0.799707
4499.000000;0.800381
4498.000000;0.800973
4497.000000;0.801482
4496.000000;0.801980
4495.000000;0.802578
4494.000000;0.803321
4493.000000;0.804147
4492.000000;0.804954
4491.000000;0.805702
4490.000000;0.806409
4489.000000;0.807100
4488.000000;0.807783
4487.000000;0.808515
4486.000000;0.809410
4485.000000;0.810560
4484.000000;0.811928
4483.000000;0.813343
4482.000000;0.814626
4481.000000;0.815723
4480.000000;0.816722
4479.000000;0.817747
4478.000000;0.818843
4477.000000;0.819956
4476.000000;0.820983
4475.000000;0.821877
4474.000000;0.822702
4473.000000;0.823599
4472.000000;0.824662
4471.000000;0.825857
4470.000000;0.827086
4469.000000;0.828333
4468.000000;0.829684
4467.000000;0.831191
4466.000000;0.832762
4465.000000;0.834256
4464.000000;0.835633
4463.000000;0.836960
4462.000000;0.838286
4461.000000;0.839610
4460.000000;0.840972
4459.000000;0.842488
4458.000000;0.844235
4457.000000;0.846147
4456.000000;0.848082
4455.000000;0.849965
4454.000000;0.851807
4453.000000;0.853603
4452.000000;0.855282
4451.000000;0.856793
4450.000000;0.858195
4449.000000;0.859623
4448.000000;0.861177
4447.000000;0.862875
4446.000000;0.864701
4445.000000;0.866641
4444.000000;0.868663
4443.000000;0.870725
4442.000000;0.872850
4441.000000;0.875114
4440.000000;0.877508
4439.000000;0.879843
4438.000000;0.881919
4437.000000;0.883755
4436.000000;0.885577
4435.000000;0.887535
4434.000000;0.889551
4433.000000;0.891495
4432.000000;0.893367
4431.000000;0.895238
4430.000000;0.897101
4429.000000;0.898892
4428.000000;0.900625
4427.000000;0.902396
4426.000000;0.904292
4425.000000;0.906391
4424.000000;0.908791
4423.000000;0.911505
4422.000000;0.914342
4421.000000;0.917039
4420.000000;0.919519
4419.000000;0.921921
4418.000000;0.924368
4417.000000;0.926843
4416.000000;0.929343
4415.000000;0.931972
4414.000000;0.934776
4413.000000;0.937581
4412.000000;0.940142
4411.000000;0.942415
4410.000000;0.944609
4409.000000;0.946956
4408.000000;0.949537
4407.000000;0.952283
4406.000000;0.955072
4405.000000;0.957795
4404.000000;0.960422
4403.000000;0.963040
4402.000000;0.965784
4401.000000;0.968693
4400.000000;0.971635
4399.000000;0.974434
4398.000000;0.977066
4397.000000;0.979698
4396.000000;0.982497
4395.000000;0.985448
4394.000000;0.988422
4393.000000;0.991403
4392.000000;0.994523
4391.000000;0.997814
4390.000000;1.001051
4389.000000;1.003959
4388.000000;1.006547
4387.000000;1.009105
4386.000000;1.011893
4385.000000;1.014942
4384.000000;1.018156
4383.000000;1.021471
4382.000000;1.024853
4381.000000;1.028250
4380.000000;1.031607
4379.000000;1.034902
4378.000000;1.038171
4377.000000;1.041513
4376.000000;1.045029
4375.000000;1.048641
4374.000000;1.052024
4373.000000;1.054907
4372.000000;1.057468
4371.000000;1.060249
4370.000000;1.063601
4369.000000;1.067360
4368.000000;1.071171
4367.000000;1.074930
4366.000000;1.078756
4365.000000;1.082682
4364.000000;1.086648
4363.000000;1.090689
4362.000000;1.094857
4361.000000;1.098923
4360.000000;1.102444
4359.000000;1.105266
4358.000000;1.107773
4357.000000;1.110523
4356.000000;1.113786
4355.000000;1.117531
4354.000000;1.121672
4353.000000;1.126100
4352.000000;1.130558
4351.000000;1.134785
4350.000000;1.138833
4349.000000;1.143054
4348.000000;1.147669
4347.000000;1.152499
4346.000000;1.157234
4345.000000;1.161842
4344.000000;1.166546
4343.000000;1.171453
4342.000000;1.176390
4341.000000;1.181094
4340.000000;1.185457
4339.000000;1.189545
4338.000000;1.193507
4337.000000;1.197505
4336.000000;1.201622
4335.000000;1.205776
4334.000000;1.209854
4333.000000;1.213961
4332.000000;1.218407
4331.000000;1.223328
4330.000000;1.228427
4329.000000;1.233236
4328.000000;1.237556
4327.000000;1.241534
4326.000000;1.245460
4325.000000;1.249722
4324.000000;1.254817
4323.000000;1.261025
4322.000000;1.267973
4321.000000;1.274766
4320.000000;1.280784
4319.000000;1.286213
4318.000000;1.291656
4317.000000;1.297419
4316.000000;1.303365
4315.000000;1.309279
4314.000000;1.315008
4313.000000;1.320268
4312.000000;1.324693
4311.000000;1.328312
4310.000000;1.331743
4309.000000;1.335637
4308.000000;1.340014
4307.000000;1.344458
4306.000000;1.348949
4305.000000;1.354034
4304.000000;1.359959
4303.000000;1.365971
4302.000000;1.370986
4301.000000;1.375027
4300.000000;1.379531
4299.000000;1.385931
4298.000000;1.394135
4297.000000;1.402651
4296.000000;1.410129
4295.000000;1.416524
4294.000000;1.422666
4293.000000;1.429032
4292.000000;1.435260
4291.000000;1.440800
4290.000000;1.445660
4289.000000;1.450344
4288.000000;1.455262
4287.000000;1.460541
4286.000000;1.466333
4285.000000;1.472859
4284.000000;1.479873
4283.000000;1.486503
4282.000000;1.492134
4281.000000;1.497372
4280.000000;1.503587
4279.000000;1.511362
4278.000000;1.519760
4277.000000;1.527265
4276.000000;1.533196
4275.000000;1.538042
4274.000000;1.542825
4273.000000;1.548422
4272.000000;1.555091
4271.000000;1.562252
4270.000000;1.568926
4269.000000;1.574718
4268.000000;1.580311
4267.000000;1.586810
4266.000000;1.594725
4265.000000;1.603683
4264.000000;1.612820
4263.000000;1.621115
4262.000000;1.627744
4261.000000;1.632695
4260.000000;1.637016
4259.000000;1.641943
4258.000000;1.647645
4257.000000;1.653239
4256.000000;1.658137
4255.000000;1.662976
4254.000000;1.669019
4253.000000;1.676873
4252.000000;1.685992
4251.000000;1.695199
4250.000000;1.703362
4249.000000;1.709871
4248.000000;1.715030
4247.000000;1.720247
4246.000000;1.727258
4245.000000;1.736375
4244.000000;1.745583
4243.000000;1.752169
4242.000000;1.755630
4241.000000;1.758396
4240.000000;1.762835
4239.000000;1.768558
4238.000000;1.773734
4237.000000;1.778224
4236.000000;1.783697
4235.000000;1.790756
4234.000000;1.797845
4233.000000;1.803618
4232.000000;1.808742
4231.000000;1.814494
4230.000000;1.821212
4229.000000;1.829203
4228.000000;1.839387
4227.000000;1.851293
4226.000000;1.861738
4225.000000;1.867901
4224.000000;1.871490
4223.000000;1.877355
4222.000000;1.888055
4221.000000;1.901921
4220.000000;1.916063
4219.000000;1.929014
4218.000000;1.939884
4217.000000;1.947680
4216.000000;1.953158
4215.000000;1.959224
4214.000000;1.967796
4213.000000;1.977347
4212.000000;1.984969
4211.000000;1.990262
4210.000000;1.995166
4209.000000;2.000241
4208.000000;2.003422
4207.000000;2.003176
4206.000000;2.001320
4205.000000;2.001427
4204.000000;2.005378
4203.000000;2.012762
4202.000000;2.023217
4201.000000;2.037698
4200.000000;2.056247
4199.000000;2.075558
4198.000000;2.090625
4197.000000;2.099164
4196.000000;2.103278
4195.000000;2.107239
4194.000000;2.115523
4193.000000;2.131783
4192.000000;2.155926
4191.000000;2.180871
4190.000000;2.195975
4189.000000;2.198286
4188.000000;2.195979
4187.000000;2.196693
4186.000000;2.199137
4185.000000;2.198521
4184.000000;2.195271
4183.000000;2.193909
4182.000000;2.195872
4181.000000;2.198384
4180.000000;2.200828
4179.000000;2.208393
4178.000000;2.225614
4177.000000;2.248213
4176.000000;2.265310
4175.000000;2.271889
4174.000000;2.275144
4173.000000;2.284035
4172.000000;2.297656
4171.000000;2.307060
4170.000000;2.307854
4169.000000;2.306878
4168.000000;2.312389
4167.000000;2.323312
4166.000000;2.333574
4165.000000;2.344408
4164.000000;2.363983
4163.000000;2.392723
4162.000000;2.416250
4161.000000;2.420589
4160.000000;2.410492
4159.000000;2.400337
4158.000000;2.396668
4157.000000;2.398491
4156.000000;2.405056
4155.000000;2.415624
4154.000000;2.426171
4153.000000;2.434236
4152.000000;2.443880
4151.000000;2.459604
4150.000000;2.478328
4149.000000;2.491152
4148.000000;2.494969
4147.000000;2.495843
4146.000000;2.498208
4145.000000;2.504613
4144.000000;2.523484
4143.000000;2.561238
4142.000000;2.603347
4141.000000;2.619891
4140.000000;2.605354
4139.000000;2.585760
4138.000000;2.581386
4137.000000;2.587693
4136.000000;2.590569
4135.000000;2.587835
4134.000000;2.587672
4133.000000;2.593189
4132.000000;2.594472
4131.000000;2.584455
4130.000000;2.575622
4129.000000;2.577908
4128.000000;2.585654
4127.000000;2.592439
4126.000000;2.599829
4125.000000;2.613451
4124.000000;2.638599
4123.000000;2.680183
4122.000000;2.741120
4121.000000;2.815784
4120.000000;2.884881
4119.000000;2.912447
4118.000000;2.873908
4117.000000;2.805001
4116.000000;2.740181
4115.000000;2.683897
4114.000000;2.641660
4113.000000;2.622350
4112.000000;2.626913
4111.000000;2.644144
4110.000000;2.658163
4109.000000;2.665521
4108.000000;2.672804
4107.000000;2.680447
4106.000000;2.684242
4105.000000;2.686894
4104.000000;2.698607
4103.000000;2.728541
4102.000000;2.780394
4101.000000;2.849175
4100.000000;2.908987
4099.000000;2.922986
4098.000000;2.892112
4097.000000;2.855736
4096.000000;2.847479
4095.000000;2.866850
4094.000000;2.880628
4093.000000;2.860593
4092.000000;2.818092
4091.000000;2.782649
4090.000000;2.768999
4089.000000;2.773515
4088.000000;2.782844
4087.000000;2.784608
4086.000000;2.780772
4085.000000;2.783571
4084.000000;2.803723
4083.000000;2.850870
4082.000000;2.929071
4081.000000;3.020636
4080.000000;3.086537
4079.000000;3.109978
4078.000000;3.104941
4077.000000;3.089839
4076.000000;3.099910
4075.000000;3.150880
4074.000000;3.194293
4073.000000;3.198340
4072.000000;3.184770
4071.000000;3.140752
4070.000000;3.060228
4069.000000;2.973047
4068.000000;2.898014
4067.000000;2.833864
4066.000000;2.779928
4065.000000;2.744617
4064.000000;2.737851
4063.000000;2.764611
4062.000000;2.823265
4061.000000;2.904905
4060.000000;2.989895
4059.000000;3.029296
4058.000000;3.012434
4057.000000;3.027016
4056.000000;3.126529
4055.000000;3.251438
4054.000000;3.243305
4053.000000;3.158371
4052.000000;3.091244
4051.000000;3.015450
4050.000000;2.922522
4049.000000;2.847308
4048.000000;2.799578
4047.000000;2.752461
4046.000000;2.690379
4045.000000;2.633941
4044.000000;2.611337
4043.000000;2.628639
4042.000000;2.657869
4041.000000;2.661075
4040.000000;2.647379
4039.000000;2.651479
4038.000000;2.686788
4037.000000;2.766409
4036.000000;2.916518
4035.000000;3.187809
4034.000000;3.578685
4033.000000;3.416207
4032.000000;3.163429
4031.000000;3.014709
4030.000000;2.932358
4029.000000;2.898107
4028.000000;2.848705
4027.000000;2.764217
4026.000000;2.695731
4025.000000;2.670354
4024.000000;2.685895
4023.000000;2.726093
4022.000000;2.775264
4021.000000;2.830626
4020.000000;2.911025
4019.000000;3.039504
4018.000000;3.230675
4017.000000;3.577084
4016.000000;3.357894
4015.000000;2.979866
4014.000000;2.771291
4013.000000;2.655730
4012.000000;2.616186
4011.000000;2.629751
4010.000000;2.661358
4009.000000;2.686727
4008.000000;2.719380
4007.000000;2.777810
4006.000000;2.831561
4005.000000;2.842566
4004.000000;2.852402
4003.000000;2.878608
4002.000000;2.878406
4001.000000;2.858345
4000.000000;2.893647
3999.000000;2.952020
3998.000000;2.920815
3997.000000;2.896641
3996.000000;2.946899
3995.000000;2.991617
3994.000000;2.939572
3993.000000;2.858675
3992.000000;2.828398
3991.000000;2.842574
3990.000000;2.887724
3989.000000;2.988389
3988.000000;3.225729
3987.000000;3.315916
3986.000000;3.068926
3985.000000;2.958757
3984.000000;2.993519
3983.000000;3.202424
3982.000000;3.489181
3981.000000;3.217170
3980.000000;3.088180
3979.000000;3.128413
3978.000000;3.313326
3977.000000;3.478846
3976.000000;3.177833
3975.000000;2.962620
3974.000000;2.895134
3973.000000;2.927988
3972.000000;3.039970
3971.000000;3.205453
3970.000000;3.293869
3969.000000;3.238599
3968.000000;3.255560
3967.000000;3.467502
3966.000000;3.472699
3965.000000;3.349633
3964.000000;3.432077
3963.000000;3.427468
3962.000000;3.249721
3961.000000;3.102600
3960.000000;3.052875
3959.000000;3.086389
3958.000000;3.193677
3957.000000;3.338376
3956.000000;3.531011
3955.000000;3.923662
3954.000000;3.401909
3953.000000;3.030846
3952.000000;2.886525
3951.000000;2.839716
3950.000000;2.842300
3949.000000;2.893522
3948.000000;3.024159
3947.000000;3.235587
3946.000000;3.281093
3945.000000;3.094889
3944.000000;2.970540
3943.000000;2.927774
3942.000000;2.956980
3941.000000;3.044927
3940.000000;3.134463
3939.000000;3.122383
3938.000000;3.034932
3937.000000;3.005744
3936.000000;3.092021
3935.000000;3.107906
3934.000000;2.966616
3933.000000;2.892152
3932.000000;2.907021
3931.000000;3.000636
3930.000000;3.197685
3929.000000;3.440900
3928.000000;3.684077
3927.000000;3.856226
3926.000000;3.488262
3925.000000;3.145375
3924.000000;2.982249
3923.000000;2.921199
3922.000000;2.884152
3921.000000;2.857009
3920.000000;2.875061
3919.000000;2.918353
3918.000000;2.893557
3917.000000;2.795415
3916.000000;2.706972
3915.000000;2.660183
3914.000000;2.642481
3913.000000;2.640048
3912.000000;2.658221
3911.000000;2.691215
3910.000000;2.714061
3909.000000;2.715562
3908.000000;2.745236
3907.000000;2.845344
3906.000000;3.094246
3905.000000;3.460527
3904.000000;3.238959
3903.000000;3.083791
3902.000000;3.071973
3901.000000;3.084145
3900.000000;3.113649
3899.000000;3.129467
3898.000000;3.114295
3897.000000;3.076954
3896.000000;3.144516
3895.000000;3.297564
3894.000000;3.130890
3893.000000;2.942285
3892.000000;2.892738
3891.000000;2.907686
3890.000000;2.924153
3889.000000;2.806259
3888.000000;2.645268
3887.000000;2.586689
3886.000000;2.648519
3885.000000;2.791001
3884.000000;2.945257
3883.000000;3.065680
3882.000000;3.150788
3881.000000;3.124415
3880.000000;3.030812
3879.000000;3.005400
3878.000000;3.089908
3877.000000;3.246273
3876.000000;3.473567
3875.000000;3.676014
3874.000000;3.308277
3873.000000;3.021945
3872.000000;2.916647
3871.000000;2.946062
3870.000000;2.954750
3869.000000;2.894145
3868.000000;2.954630
3867.000000;3.099105
3866.000000;3.387046
3865.000000;3.754968
3864.000000;3.330288
3863.000000;3.128484
3862.000000;3.045726
3861.000000;3.000386
3860.000000;2.990395
3859.000000;2.994200
3858.000000;3.004353
3857.000000;3.120092
3856.000000;3.527962
3855.000000;3.625047
3854.000000;3.402257
3853.000000;3.160625
3852.000000;3.005826
3851.000000;2.986019
3850.000000;3.017180
3849.000000;3.052245
3848.000000;3.195501
3847.000000;3.654156
3846.000000;3.283611
3845.000000;2.963785
3844.000000;2.879287
3843.000000;2.856976
3842.000000;2.887113
3841.000000;2.953203
3840.000000;2.978729
3839.000000;2.905835
3838.000000;2.839827
3837.000000;2.823712
3836.000000;2.963925
3835.000000;3.132425
3834.000000;2.894750
3833.000000;2.760472
3832.000000;2.765102
3831.000000;2.779492
3830.000000;2.830424
3829.000000;2.830025
3828.000000;2.696161
3827.000000;2.571454
3826.000000;2.511890
3825.000000;2.479657
3824.000000;2.465748
3823.000000;2.504288
3822.000000;2.611979
3821.000000;2.678640
3820.000000;2.645256
3819.000000;2.626368
3818.000000;2.608621
3817.000000;2.571607
3816.000000;2.572133
3815.000000;2.579690
3814.000000;2.514360
3813.000000;2.418167
3812.000000;2.384536
3811.000000;2.401290
3810.000000;2.390511
3809.000000;2.363544
3808.000000;2.347115
3807.000000;2.334581
3806.000000;2.333099
3805.000000;2.351475
3804.000000;2.379186
3803.000000;2.369600
3802.000000;2.332644
3801.000000;2.316701
3800.000000;2.309323
3799.000000;2.278532
3798.000000;2.291303
3797.000000;2.409292
3796.000000;2.444430
3795.000000;2.344049
3794.000000;2.282081
3793.000000;2.262025
3792.000000;2.262898
3791.000000;2.270727
3790.000000;2.286033
3789.000000;2.304198
3788.000000;2.304946
3787.000000;2.289019
3786.000000;2.278624
3785.000000;2.277464
3784.000000;2.279293
3783.000000;2.279515
3782.000000;2.293511
3781.000000;2.320845
3780.000000;2.370635
3779.000000;2.472792
3778.000000;2.686600
3777.000000;3.111065
3776.000000;2.987418
3775.000000;2.669484
3774.000000;2.561063
3773.000000;2.524001
3772.000000;2.522836
3771.000000;2.495317
3770.000000;2.465487
3769.000000;2.488131
3768.000000;2.501161
3767.000000;2.451803
3766.000000;2.425148
3765.000000;2.477497
3764.000000;2.567700
3763.000000;2.644266
3762.000000;2.730771
3761.000000;2.962383
3760.000000;3.337925
3759.000000;3.132111
3758.000000;2.896058
3757.000000;2.761769
3756.000000;2.615520
3755.000000;2.514789
3754.000000;2.484768
3753.000000;2.496020
3752.000000;2.503451
3751.000000;2.488174
3750.000000;2.439606
3749.000000;2.359275
3748.000000;2.281733
3747.000000;2.263984
3746.000000;2.344966
3745.000000;2.531850
3744.000000;2.798813
3743.000000;3.135131
3742.000000;3.537333
3741.000000;3.487913
3740.000000;3.147030
3739.000000;2.903658
3738.000000;2.748555
3737.000000;2.772333
3736.000000;2.886472
3735.000000;2.770897
3734.000000;2.677659
3733.000000;2.705609
3732.000000;2.756998
3731.000000;2.761280
3730.000000;2.660643
3729.000000;2.486536
3728.000000;2.335416
3727.000000;2.287840
3726.000000;2.340649
3725.000000;2.431534
3724.000000;2.447049
3723.000000;2.368954
3722.000000;2.298749
3721.000000;2.287670
3720.000000;2.332783
3719.000000;2.480140
3718.000000;2.774679
3717.000000;2.857270
3716.000000;2.760771
3715.000000;2.744829
3714.000000;2.650282
3713.000000;2.495220
3712.000000;2.362491
3711.000000;2.275700
3710.000000;2.218681
3709.000000;2.177540
3708.000000;2.153226
3707.000000;2.145543
3706.000000;2.129407
3705.000000;2.079203
3704.000000;2.021352
3703.000000;2.000880
3702.000000;2.038487
3701.000000;2.124427
3700.000000;2.243370
3699.000000;2.436299
3698.000000;2.565244
3697.000000;2.489214
3696.000000;2.523756
3695.000000;2.521036
3694.000000;2.308618
3693.000000;2.159315
3692.000000;2.129330
3691.000000;2.175567
3690.000000;2.268217
3689.000000;2.374733
3688.000000;2.500458
3687.000000;2.673151
3686.000000;2.521331
3685.000000;2.309358
3684.000000;2.208139
3683.000000;2.120671
3682.000000;2.079735
3681.000000;2.120699
3680.000000;2.237980
3679.000000;2.342944
3678.000000;2.387310
3677.000000;2.465822
3676.000000;2.616075
3675.000000;2.801624
3674.000000;2.883324
3673.000000;2.774663
3672.000000;2.605485
3671.000000;2.550233
3670.000000;2.588139
3669.000000;2.529356
3668.000000;2.382919
3667.000000;2.273351
3666.000000;2.259873
3665.000000;2.336926
3664.000000;2.431602
3663.000000;2.488443
3662.000000;2.483706
3661.000000;2.384155
3660.000000;2.272951
3659.000000;2.214185
3658.000000;2.220373
3657.000000;2.280927
3656.000000;2.460428
3655.000000;2.714909
3654.000000;2.571621
3653.000000;2.438418
3652.000000;2.483097
3651.000000;2.603099
3650.000000;2.763625
3649.000000;2.701837
3648.000000;2.481536
3647.000000;2.352195
3646.000000;2.267001
3645.000000;2.186833
3644.000000;2.114342
3643.000000;2.031298
3642.000000;1.926395
3641.000000;1.823244
3640.000000;1.753567
3639.000000;1.726910
3638.000000;1.732077
3637.000000;1.741947
3636.000000;1.726193
3635.000000;1.692060
3634.000000;1.688970
3633.000000;1.753692
3632.000000;1.872153
3631.000000;1.960850
3630.000000;1.966109
3629.000000;1.965377
3628.000000;2.024854
3627.000000;2.157245
3626.000000;2.356451
3625.000000;2.434317
3624.000000;2.297134
3623.000000;2.213115
3622.000000;2.185997
3621.000000;2.111408
3620.000000;2.005598
3619.000000;1.935436
3618.000000;1.893100
3617.000000;1.866854
3616.000000;1.870834
3615.000000;1.919769
3614.000000;2.022144
3613.000000;2.183386
3612.000000;2.364404
3611.000000;2.484625
3610.000000;2.554856
3609.000000;2.534324
3608.000000;2.473968
3607.000000;2.427139
3606.000000;2.381625
3605.000000;2.352381
3604.000000;2.326693
3603.000000;2.261860
3602.000000;2.147395
3601.000000;2.028280
3600.000000;1.947189
3599.000000;1.899416
3598.000000;1.835410
3597.000000;1.755631
3596.000000;1.692903
3595.000000;1.644907
3594.000000;1.600714
3593.000000;1.556317
3592.000000;1.520789
3591.000000;1.510447
3590.000000;1.534041
3589.000000;1.591213
3588.000000;1.674536
3587.000000;1.766456
3586.000000;1.842201
3585.000000;1.895336
3584.000000;1.948711
3583.000000;2.024018
3582.000000;2.099173
3581.000000;2.079141
3580.000000;1.954514
3579.000000;1.846044
3578.000000;1.787158
3577.000000;1.734079
3576.000000;1.656203
3575.000000;1.578157
3574.000000;1.531568
3573.000000;1.522331
3572.000000;1.545200
3571.000000;1.600570
3570.000000;1.688622
3569.000000;1.766226
3568.000000;1.796840
3567.000000;1.829962
3566.000000;1.887045
3565.000000;1.943642
3564.000000;2.010060
3563.000000;2.108293
3562.000000;2.143410
3561.000000;2.031356
3560.000000;1.897533
3559.000000;1.821369
3558.000000;1.794855
3557.000000;1.788481
3556.000000;1.796535
3555.000000;1.813372
3554.000000;1.785532
3553.000000;1.706010
3552.000000;1.651316
3551.000000;1.653194
3550.000000;1.714562
3549.000000;1.843765
3548.000000;2.086958
3547.000000;2.334438
3546.000000;2.206990
3545.000000;2.061351
3544.000000;1.951278
3543.000000;1.827677
3542.000000;1.728501
3541.000000;1.677486
3540.000000;1.686950
3539.000000;1.749624
3538.000000;1.808330
3537.000000;1.800993
3536.000000;1.779379
3535.000000;1.805184
3534.000000;1.888156
3533.000000;2.012829
3532.000000;2.152569
3531.000000;2.284809
3530.000000;2.356346
3529.000000;2.314291
3528.000000;2.265307
3527.000000;2.335589
3526.000000;2.555694
3525.000000;2.788713
3524.000000;2.898014
3523.000000;2.711731
3522.000000;2.409412
3521.000000;2.223926
3520.000000;2.114762
3519.000000;2.040766
3518.000000;1.993467
3517.000000;1.980494
3516.000000;1.989558
3515.000000;2.017350
3514.000000;2.039315
3513.000000;2.027540
3512.000000;2.017795
3511.000000;1.979408
3510.000000;1.915606
3509.000000;1.904538
3508.000000;1.936895
3507.000000;1.930187
3506.000000;1.882289
3505.000000;1.855946
3504.000000;1.865617
3503.000000;1.910633
3502.000000;1.994505
3501.000000;2.148385
3500.000000;2.351531
3499.000000;2.312662
3498.000000;2.200106
3497.000000;2.184180
3496.000000;2.172384
3495.000000;2.109585
3494.000000;2.047949
3493.000000;2.024455
3492.000000;2.005437
3491.000000;1.968627
3490.000000;1.942787
3489.000000;1.946863
3488.000000;1.976584
3487.000000;2.016028
3486.000000;2.045077
3485.000000;2.053166
3484.000000;2.050858
3483.000000;2.064430
3482.000000;2.094463
3481.000000;2.124743
3480.000000;2.121652
3479.000000;2.053715
3478.000000;1.991030
3477.000000;1.974920
3476.000000;1.979794
3475.000000;2.009994
3474.000000;2.104774
3473.000000;2.254307
3472.000000;2.336074
3471.000000;2.325729
3470.000000;2.297850
3469.000000;2.237185
3468.000000;2.145481
3467.000000;2.058864
3466.000000;1.995598
3465.000000;1.952286
3464.000000;1.931896
3463.000000;1.945809
3462.000000;1.991653
3461.000000;2.055997
3460.000000;2.135349
3459.000000;2.214003
3458.000000;2.215832
3457.000000;2.164514
3456.000000;2.176437
3455.000000;2.276437
3454.000000;2.383809
3453.000000;2.391202
3452.000000;2.352825
3451.000000;2.356164
3450.000000;2.371316
3449.000000;2.341526
3448.000000;2.311989
3447.000000;2.329983
3446.000000;2.396874
3445.000000;2.459887
3444.000000;2.419679
3443.000000;2.320733
3442.000000;2.232948
3441.000000;2.159756
3440.000000;2.105871
3439.000000;2.069034
3438.000000;2.027962
3437.000000;1.980763
3436.000000;1.951186
3435.000000;1.944972
3434.000000;1.942488
3433.000000;1.917972
3432.000000;1.877771
3431.000000;1.856946
3430.000000;1.877474
3429.000000;1.939743
3428.000000;2.038111
3427.000000;2.166543
3426.000000;2.264433
3425.000000;2.260144
3424.000000;2.208632
3423.000000;2.163159
3422.000000;2.152293
3421.000000;2.211280
3420.000000;2.350657
3419.000000;2.492339
3418.000000;2.444445
3417.000000;2.287715
3416.000000;2.182476
3415.000000;2.165083
3414.000000;2.236471
3413.000000;2.489386
3412.000000;3.054190
3411.000000;2.751698
3410.000000;2.656292
3409.000000;2.771347
3408.000000;2.547658
3407.000000;2.243447
3406.000000;2.033472
3405.000000;1.883503
3404.000000;1.788484
3403.000000;1.751582
3402.000000;1.766959
3401.000000;1.815606
3400.000000;1.861938
3399.000000;1.867933
3398.000000;1.851784
3397.000000;1.868566
3396.000000;1.942464
3395.000000;2.062611
3394.000000;2.207047
3393.000000;2.343078
3392.000000;2.339914
3391.000000;2.202162
3390.000000;2.105640
3389.000000;2.110434
3388.000000;2.212324
3387.000000;2.299567
3386.000000;2.239582
3385.000000;2.178962
3384.000000;2.181120
3383.000000;2.179679
3382.000000;2.121351
3381.000000;2.048789
3380.000000;2.002114
3379.000000;1.990670
3378.000000;2.018887
3377.000000;2.087433
3376.000000;2.174511
3375.000000;2.230348
3374.000000;2.260676
3373.000000;2.337119
3372.000000;2.471682
3371.000000;2.531566
3370.000000;2.432185
3369.000000;2.301077
3368.000000;2.249682
3367.000000;2.299374
3366.000000;2.395458
3365.000000;2.440349
3364.000000;2.400352
3363.000000;2.322365
3362.000000;2.254239
3361.000000;2.213687
3360.000000;2.200539
3359.000000;2.242897
3358.000000;2.365582
3357.000000;2.448247
3356.000000;2.406584
3355.000000;2.398973
3354.000000;2.404107
3353.000000;2.342468
3352.000000;2.253274
3351.000000;2.211835
3350.000000;2.237829
3349.000000;2.316222
3348.000000;2.422060
3347.000000;2.527492
3346.000000;2.603737
3345.000000;2.657890
3344.000000;2.667867
3343.000000;2.534403
3342.000000;2.316735
3341.000000;2.141109
3340.000000;2.056896
3339.000000;2.061316
3338.000000;2.111997
3337.000000;2.131274
3336.000000;2.078839
3335.000000;1.984556
3334.000000;1.897781
3333.000000;1.858306
3332.000000;1.877397
3331.000000;1.937528
3330.000000;2.005853
3329.000000;2.049265
3328.000000;2.047601
3327.000000;2.024858
3326.000000;2.028606
3325.000000;2.072471
3324.000000;2.118684
3323.000000;2.143191
3322.000000;2.171304
3321.000000;2.194412
3320.000000;2.170318
3319.000000;2.125451
3318.000000;2.126164
3317.000000;2.181234
3316.000000;2.239148
3315.000000;2.283437
3314.000000;2.342231
3313.000000;2.365520
3312.000000;2.307198
3311.000000;2.194058
3310.000000;2.094657
3309.000000;2.047016
3308.000000;2.032092
3307.000000;2.020729
3306.000000;2.026606
3305.000000;2.066680
3304.000000;2.116418
3303.000000;2.141291
3302.000000;2.145617
3301.000000;2.140943
3300.000000;2.127525
3299.000000;2.127795
3298.000000;2.170374
3297.000000;2.239318
3296.000000;2.271981
3295.000000;2.229467
3294.000000;2.150047
3293.000000;2.097812
3292.000000;2.096026
3291.000000;2.144094
3290.000000;2.237255
3289.000000;2.324379
3288.000000;2.332131
3287.000000;2.319419
3286.000000;2.361409
3285.000000;2.489311
3284.000000;2.763658
3283.000000;2.877109
3282.000000;2.579300
3281.000000;2.406940
3280.000000;2.298667
3279.000000;2.206707
3278.000000;2.124443
3277.000000;2.053739
3276.000000;1.991499
3275.000000;1.948011
3274.000000;1.934806
3273.000000;1.944851
3272.000000;1.953530
3271.000000;1.950135
3270.000000;1.948033
3269.000000;1.943933
3268.000000;1.922095
3267.000000;1.902235
3266.000000;1.921231
3265.000000;1.979353
3264.000000;2.027573
3263.000000;2.047082
3262.000000;2.072323
3261.000000;2.120154
3260.000000;2.188922
3259.000000;2.289066
3258.000000;2.411994
3257.000000;2.436897
3256.000000;2.354201
3255.000000;2.315990
3254.000000;2.327767
3253.000000;2.317078
3252.000000;2.283149
3251.000000;2.231505
3250.000000;2.142927
3249.000000;2.071511
3248.000000;2.045788
3247.000000;2.042461
3246.000000;2.045332
3245.000000;2.073608
3244.000000;2.141832
3243.000000;2.230406
3242.000000;2.330372
3241.000000;2.490530
3240.000000;2.564882
3239.000000;2.484719
3238.000000;2.400895
3237.000000;2.282738
3236.000000;2.194438
3235.000000;2.192000
3234.000000;2.247237
3233.000000;2.274497
3232.000000;2.308184
3231.000000;2.414612
3230.000000;2.517997
3229.000000;2.585440
3228.000000;2.778144
3227.000000;2.952651
3226.000000;2.753331
3225.000000;2.779686
3224.000000;2.895201
3223.000000;2.716928
3222.000000;2.607230
3221.000000;2.612221
3220.000000;2.671599
3219.000000;2.679534
3218.000000;2.519108
3217.000000;2.344590
3216.000000;2.246440
3215.000000;2.224369
3214.000000;2.291918
3213.000000;2.487246
3212.000000;2.835627
3211.000000;2.924205
3210.000000;3.034684
3209.000000;3.044261
3208.000000;2.695921
3207.000000;2.500061
3206.000000;2.404679
3205.000000;2.353387
3204.000000;2.250795
3203.000000;2.116430
3202.000000;2.027695
3201.000000;2.004739
3200.000000;2.046814
3199.000000;2.153643
3198.000000;2.306682
3197.000000;2.433670
3196.000000;2.514670
3195.000000;2.640534
3194.000000;2.875177
3193.000000;2.939421
3192.000000;2.747426
3191.000000;2.669261
3190.000000;2.625326
3189.000000;2.572877
3188.000000;2.537153
3187.000000;2.548267
3186.000000;2.485480
3185.000000;2.399927
3184.000000;2.423096
3183.000000;2.555451
3182.000000;2.670560
3181.000000;2.643962
3180.000000;2.532660
3179.000000;2.431717
3178.000000;2.377507
3177.000000;2.336338
3176.000000;2.267027
3175.000000;2.157384
3174.000000;2.043338
3173.000000;1.956052
3172.000000;1.904015
3171.000000;1.887913
3170.000000;1.897614
3169.000000;1.914709
3168.000000;1.927862
3167.000000;1.931910
3166.000000;1.917291
3165.000000;1.890834
3164.000000;1.888691
3163.000000;1.938133
3162.000000;2.023036
3161.000000;2.098466
3160.000000;2.167997
3159.000000;2.271001
3158.000000;2.411010
3157.000000;2.562956
3156.000000;2.717509
3155.000000;2.680994
3154.000000;2.564097
3153.000000;2.589880
3152.000000;2.815119
3151.000000;2.760124
3150.000000;2.556669
3149.000000;2.519759
3148.000000;2.616521
3147.000000;2.812251
3146.000000;3.099843
3145.000000;3.633375
3144.000000;3.547600
3143.000000;2.972269
3142.000000;2.653452
3141.000000;2.533620
3140.000000;2.549750
3139.000000;2.618368
3138.000000;2.661733
3137.000000;2.659820
3136.000000;2.585199
3135.000000;2.456292
3134.000000;2.345680
3133.000000;2.268328
3132.000000;2.211072
3131.000000;2.174458
3130.000000;2.168067
3129.000000;2.191360
3128.000000;2.232768
3127.000000;2.284375
3126.000000;2.349903
3125.000000;2.440066
3124.000000;2.583349
3123.000000;2.852820
3122.000000;3.135273
3121.000000;3.040600
3120.000000;3.065071
3119.000000;2.923560
3118.000000;2.808756
3117.000000;2.763625
3116.000000;2.613077
3115.000000;2.444126
3114.000000;2.293150
3113.000000;2.179307
3112.000000;2.138622
3111.000000;2.148057
3110.000000;2.153244
3109.000000;2.140499
3108.000000;2.147099
3107.000000;2.178210
3106.000000;2.181358
3105.000000;2.133463
3104.000000;2.089884
3103.000000;2.089008
3102.000000;2.099283
3101.000000;2.067491
3100.000000;2.008942
3099.000000;1.966992
3098.000000;1.950314
3097.000000;1.946753
3096.000000;1.955281
3095.000000;1.983104
3094.000000;2.017051
3093.000000;2.026637
3092.000000;2.007762
3091.000000;1.992656
3090.000000;2.006618
3089.000000;2.053160
3088.000000;2.125894
3087.000000;2.202281
3086.000000;2.247376
3085.000000;2.279689
3084.000000;2.353812
3083.000000;2.454357
3082.000000;2.444073
3081.000000;2.327718
3080.000000;2.225456
3079.000000;2.159749
3078.000000;2.132107
3077.000000;2.139526
3076.000000;2.177191
3075.000000;2.244661
3074.000000;2.349444
3073.000000;2.504382
3072.000000;2.707386
3071.000000;2.788141
3070.000000;2.679106
3069.000000;2.629494
3068.000000;2.672659
3067.000000;2.577795
3066.000000;2.415484
3065.000000;2.374506
3064.000000;2.455097
3063.000000;2.545170
3062.000000;2.601630
3061.000000;2.688645
3060.000000;2.648741
3059.000000;2.598903
3058.000000;2.718599
3057.000000;2.881768
3056.000000;2.804673
3055.000000;3.136896
3054.000000;3.305945
3053.000000;2.779890
3052.000000;2.587658
3051.000000;2.428346
3050.000000;2.371634
3049.000000;2.328237
3048.000000;2.247935
3047.000000;2.205430
3046.000000;2.212974
3045.000000;2.208651
3044.000000;2.199945
3043.000000;2.248516
3042.000000;2.344266
3041.000000;2.432860
3040.000000;2.539679
3039.000000;2.651217
3038.000000;2.669198
3037.000000;2.618535
3036.000000;2.562155
3035.000000;2.579124
3034.000000;2.657669
3033.000000;2.667375
3032.000000;2.578501
3031.000000;2.486111
3030.000000;2.429599
3029.000000;2.443073
3028.000000;2.533933
3027.000000;2.661859
3026.000000;2.703073
3025.000000;2.550867
3024.000000;2.356176
3023.000000;2.254758
3022.000000;2.292199
3021.000000;2.509131
3020.000000;3.077071
3019.000000;2.844683
3018.000000;2.524604
3017.000000;2.393147
3016.000000;2.352074
3015.000000;2.366657
3014.000000;2.342033
3013.000000;2.245438
3012.000000;2.134589
3011.000000;2.037429
3010.000000;1.953488
3009.000000;1.907205
3008.000000;1.918135
3007.000000;1.957530
3006.000000;1.965147
3005.000000;1.956925
3004.000000;1.992005
3003.000000;2.071922
3002.000000;2.153809
3001.000000;2.229839
3000.000000;2.326127
2999.000000;2.412732
2998.000000;2.474203
2997.000000;2.532442
2996.000000;2.564539
2995.000000;2.595720
2994.000000;2.660739
2993.000000;2.704011
2992.000000;2.727116
2991.000000;2.781106
2990.000000;2.759835
2989.000000;2.614112
2988.000000;2.489313
2987.000000;2.462871
2986.000000;2.469919
2985.000000;2.437923
2984.000000;2.423397
2983.000000;2.421743
2982.000000;2.398387
2981.000000;2.411577
2980.000000;2.496265
2979.000000;2.594659
2978.000000;2.627193
2977.000000;2.620159
2976.000000;2.617795
2975.000000;2.579105
2974.000000;2.507866
2973.000000;2.453789
2972.000000;2.388340
2971.000000;2.288208
2970.000000;2.213983
2969.000000;2.198678
2968.000000;2.222284
2967.000000;2.257953
2966.000000;2.315444
2965.000000;2.424545
2964.000000;2.576073
2963.000000;2.681571
2962.000000;2.658705
2961.000000;2.577379
2960.000000;2.494368
2959.000000;2.421316
2958.000000;2.384767
2957.000000;2.369223
2956.000000;2.335405
2955.000000;2.309952
2954.000000;2.338483
2953.000000;2.422581
2952.000000;2.519615
2951.000000;2.600235
2950.000000;2.659379
2949.000000;2.579678
2948.000000;2.431636
2947.000000;2.360483
2946.000000;2.330000
2945.000000;2.284256
2944.000000;2.258885
2943.000000;2.302565
2942.000000;2.387545
2941.000000;2.436034
2940.000000;2.437348
2939.000000;2.410444
2938.000000;2.362376
2937.000000;2.343922
2936.000000;2.417686
2935.000000;2.496103
2934.000000;2.417986
2933.000000;2.373637
2932.000000;2.354384
2931.000000;2.252876
2930.000000;2.168954
2929.000000;2.159870
2928.000000;2.185528
2927.000000;2.188148
2926.000000;2.183746
2925.000000;2.189534
2924.000000;2.175712
2923.000000;2.169193
2922.000000;2.231950
2921.000000;2.355326
2920.000000;2.465783
2919.000000;2.534886
2918.000000;2.735245
2917.000000;3.137494
2916.000000;2.741005
2915.000000;2.430930
2914.000000;2.277267
2913.000000;2.176901
2912.000000;2.139427
2911.000000;2.112212
2910.000000;2.078168
2909.000000;2.079932
2908.000000;2.134352
2907.000000;2.191866
2906.000000;2.190595
2905.000000;2.162390
2904.000000;2.166187
2903.000000;2.217864
2902.000000;2.307807
2901.000000;2.475088
2900.000000;2.728880
2899.000000;2.704326
2898.000000;2.480706
2897.000000;2.300607
2896.000000;2.165943
2895.000000;2.096111
2894.000000;2.063205
2893.000000;2.029658
2892.000000;2.005016
2891.000000;2.019140
2890.000000;2.073268
2889.000000;2.145407
2888.000000;2.257847
2887.000000;2.466434
2886.000000;2.835369
2885.000000;3.393303
2884.000000;2.886916
2883.000000;2.542376
2882.000000;2.417267
2881.000000;2.372449
2880.000000;2.341666
2879.000000;2.292048
2878.000000;2.254242
2877.000000;2.250436
2876.000000;2.260820
2875.000000;2.239469
2874.000000;2.199295
2873.000000;2.194750
2872.000000;2.249365
2871.000000;2.325356
2870.000000;2.339217
2869.000000;2.316628
2868.000000;2.337066
2867.000000;2.404373
2866.000000;2.475869
2865.000000;2.520553
2864.000000;2.524166
2863.000000;2.493686
2862.000000;2.436383
2861.000000;2.353726
2860.000000;2.283720
2859.000000;2.224697
2858.000000;2.141789
2857.000000;2.057053
2856.000000;2.011655
2855.000000;1.998956
2854.000000;1.973543
2853.000000;1.922517
2852.000000;1.878448
2851.000000;1.856967
2850.000000;1.848683
2849.000000;1.843316
2848.000000;1.840718
2847.000000;1.843787
2846.000000;1.856158
2845.000000;1.885459
2844.000000;1.931686
2843.000000;1.972769
2842.000000;1.986620
2841.000000;1.987147
2840.000000;2.001835
2839.000000;2.041631
2838.000000;2.100788
2837.000000;2.160236
2836.000000;2.197067
2835.000000;2.209687
2834.000000;2.224925
2833.000000;2.272839
2832.000000;2.365155
2831.000000;2.480712
2830.000000;2.536388
2829.000000;2.475002
2828.000000;2.381949
2827.000000;2.327835
2826.000000;2.315877
2825.000000;2.310562
2824.000000;2.287676
2823.000000;2.272289
2822.000000;2.284405
2821.000000;2.293233
2820.000000;2.263354
2819.000000;2.232173
2818.000000;2.251094
2817.000000;2.313289
2816.000000;2.360447
2815.000000;2.354066
2814.000000;2.328417
2813.000000;2.320001
2812.000000;2.314831
2811.000000;2.313136
2810.000000;2.355266
2809.000000;2.456524
2808.000000;2.565503
2807.000000;2.623908
2806.000000;2.662873
2805.000000;2.656169
2804.000000;2.617040
2803.000000;2.569409
2802.000000;2.449475
2801.000000;2.344513
2800.000000;2.308647
2799.000000;2.287103
2798.000000;2.241579
2797.000000;2.218035
2796.000000;2.243782
2795.000000;2.242861
2794.000000;2.171385
2793.000000;2.130868
2792.000000;2.186100
2791.000000;2.335872
2790.000000;2.526214
2789.000000;2.746405
2788.000000;3.170086
2787.000000;3.384461
2786.000000;3.198014
2785.000000;3.211680
2784.000000;2.986561
2783.000000;2.735121
2782.000000;2.605743
2781.000000;2.595884
2780.000000;2.639123
2779.000000;2.703326
2778.000000;2.749211
2777.000000;2.817860
2776.000000;2.864261
2775.000000;2.984507
2774.000000;3.608288
2773.000000;2.938382
2772.000000;2.539176
2771.000000;2.370807
2770.000000;2.284838
2769.000000;2.273117
2768.000000;2.276648
2767.000000;2.240705
2766.000000;2.170699
2765.000000;2.126117
2764.000000;2.123971
2763.000000;2.150082
2762.000000;2.200259
2761.000000;2.281974
2760.000000;2.375056
2759.000000;2.418498
2758.000000;2.380396
2757.000000;2.315771
2756.000000;2.272071
2755.000000;2.245012
2754.000000;2.222375
2753.000000;2.207461
2752.000000;2.193003
2751.000000;2.157850
2750.000000;2.102331
2749.000000;2.051019
2748.000000;2.012653
2747.000000;1.973905
2746.000000;1.937131
2745.000000;1.921368
2744.000000;1.929559
2743.000000;1.948795
2742.000000;1.974758
2741.000000;2.010902
2740.000000;2.041031
2739.000000;2.041186
2738.000000;2.027797
2737.000000;2.028947
2736.000000;2.027898
2735.000000;2.001826
2734.000000;1.981739
2733.000000;2.000291
2732.000000;2.039992
2731.000000;2.058118
2730.000000;2.058053
2729.000000;2.076300
2728.000000;2.113878
2727.000000;2.157223
2726.000000;2.222520
2725.000000;2.329483
2724.000000;2.432906
2723.000000;2.460101
2722.000000;2.458686
2721.000000;2.501761
2720.000000;2.593714
2719.000000;2.586861
2718.000000;2.430114
2717.000000;2.288748
2716.000000;2.201834
2715.000000;2.165142
2714.000000;2.176016
2713.000000;2.208212
2712.000000;2.210675
2711.000000;2.177720
2710.000000;2.159944
2709.000000;2.178444
2708.000000;2.188165
2707.000000;2.135003
2706.000000;2.063862
2705.000000;2.023168
2704.000000;1.999363
2703.000000;1.974534
2702.000000;1.960529
2701.000000;1.967449
2700.000000;1.976497
2699.000000;1.967255
2698.000000;1.951832
2697.000000;1.950800
2696.000000;1.960273
2695.000000;1.964796
2694.000000;1.961164
2693.000000;1.963491
2692.000000;1.983649
2691.000000;2.019536
2690.000000;2.057553
2689.000000;2.131543
2688.000000;2.259189
2687.000000;2.528614
2686.000000;2.992206
2685.000000;2.610275
2684.000000;2.301351
2683.000000;2.175825
2682.000000;2.119885
2681.000000;2.106543
2680.000000;2.109793
2679.000000;2.129502
2678.000000;2.136434
2677.000000;2.128773
2676.000000;2.144553
2675.000000;2.217634
2674.000000;2.336396
2673.000000;2.425455
2672.000000;2.458881
2671.000000;2.525567
2670.000000;2.662513
2669.000000;2.769658
2668.000000;2.712913
2667.000000;2.616178
2666.000000;2.568874
2665.000000;2.522831
2664.000000;2.483440
2663.000000;2.509204
2662.000000;2.575073
2661.000000;2.597323
2660.000000;2.628137
2659.000000;2.725311
2658.000000;2.791206
2657.000000;2.711238
2656.000000;2.521769
2655.000000;2.338669
2654.000000;2.215662
2653.000000;2.151152
2652.000000;2.133802
2651.000000;2.152905
2650.000000;2.186914
2649.000000;2.189559
2648.000000;2.149063
2647.000000;2.116641
2646.000000;2.125634
2645.000000;2.163512
2644.000000;2.190760
2643.000000;2.191020
2642.000000;2.188107
2641.000000;2.198820
2640.000000;2.226698
2639.000000;2.276296
2638.000000;2.335196
2637.000000;2.367022
2636.000000;2.346321
2635.000000;2.278546
2634.000000;2.193718
2633.000000;2.120641
2632.000000;2.067739
2631.000000;2.031037
2630.000000;2.000214
2629.000000;1.965013
2628.000000;1.930400
2627.000000;1.912315
2626.000000;1.912811
2625.000000;1.918960
2624.000000;1.927580
2623.000000;1.941752
2622.000000;1.947922
2621.000000;1.931149
2620.000000;1.901440
2619.000000;1.875939
2618.000000;1.853910
2617.000000;1.830579
2616.000000;1.817855
2615.000000;1.829969
2614.000000;1.865124
2613.000000;1.912835
2612.000000;1.968697
2611.000000;2.030305
2610.000000;2.090710
2609.000000;2.151440
2608.000000;2.233972
2607.000000;2.353611
2606.000000;2.494275
2605.000000;2.611147
2604.000000;2.640104
2603.000000;2.596005
2602.000000;2.517801
2601.000000;2.404598
2600.000000;2.280678
2599.000000;2.186396
2598.000000;2.145588
2597.000000;2.154543
2596.000000;2.178331
2595.000000;2.212836
2594.000000;2.268510
2593.000000;2.353543
2592.000000;2.382607
2591.000000;2.390141
2590.000000;2.418830
2589.000000;2.599643
2588.000000;3.398019
2587.000000;2.858005
2586.000000;2.508589
2585.000000;2.426491
2584.000000;2.387636
2583.000000;2.444642
2582.000000;2.542726
2581.000000;2.649235
2580.000000;2.776591
2579.000000;2.943005
2578.000000;2.815955
2577.000000;2.613081
2576.000000;2.535876
2575.000000;2.522139
2574.000000;2.518678
2573.000000;2.511564
2572.000000;2.515283
2571.000000;2.539081
2570.000000;2.562290
2569.000000;2.537631
2568.000000;2.489855
2567.000000;2.461521
2566.000000;2.441950
2565.000000;2.433381
2564.000000;2.455804
2563.000000;2.504798
2562.000000;2.519532
2561.000000;2.440294
2560.000000;2.321882
2559.000000;2.238198
2558.000000;2.195737
2557.000000;2.160970
2556.000000;2.116649
2555.000000;2.079755
2554.000000;2.059519
2553.000000;2.031984
2552.000000;1.986654
2551.000000;1.954855
2550.000000;1.953073
2549.000000;1.953438
2548.000000;1.929875
2547.000000;1.899451
2546.000000;1.876198
2545.000000;1.857230
2544.000000;1.856743
2543.000000;1.898031
2542.000000;1.986805
2541.000000;2.101641
2540.000000;2.214689
2539.000000;2.328199
2538.000000;2.448536
2537.000000;2.557091
2536.000000;2.640515
2535.000000;2.696256
2534.000000;2.656217
2533.000000;2.507111
2532.000000;2.355848
2531.000000;2.237224
2530.000000;2.151656
2529.000000;2.107570
2528.000000;2.107158
2527.000000;2.139808
2526.000000;2.186604
2525.000000;2.234059
2524.000000;2.278903
2523.000000;2.329922
2522.000000;2.402558
2521.000000;2.517664
2520.000000;2.691540
2519.000000;2.900858
2518.000000;3.265711
2517.000000;3.628030
2516.000000;3.139614
2515.000000;2.863886
2514.000000;2.721597
2513.000000;2.664733
2512.000000;2.670662
2511.000000;2.651261
2510.000000;2.551302
2509.000000;2.409946
2508.000000;2.295145
2507.000000;2.242820
2506.000000;2.244974
2505.000000;2.235928
2504.000000;2.187970
2503.000000;2.149798
2502.000000;2.132545
2501.000000;2.119338
2500.000000;2.113575
2499.000000;2.108338
2498.000000;2.077786
2497.000000;2.035332
2496.000000;2.018110
2495.000000;2.029486
2494.000000;2.045623
2493.000000;2.065977
2492.000000;2.113185
2491.000000;2.179377
2490.000000;2.229702
2489.000000;2.246998
2488.000000;2.230281
2487.000000;2.193461
2486.000000;2.160304
2485.000000;2.151627
2484.000000;2.188454
2483.000000;2.265062
2482.000000;2.352673
2481.000000;2.464037
2480.000000;2.685690
2479.000000;2.964068
2478.000000;3.010456
2477.000000;3.100394
2476.000000;3.137730
2475.000000;2.951205
2474.000000;2.753135
2473.000000;2.620561
2472.000000;2.564068
2471.000000;2.526793
2470.000000;2.461114
2469.000000;2.399583
2468.000000;2.400499
2467.000000;2.493593
2466.000000;2.798593
2465.000000;3.120773
2464.000000;2.736310
2463.000000;2.474204
2462.000000;2.339852
2461.000000;2.301660
2460.000000;2.293268
2459.000000;2.262430
2458.000000;2.268840
2457.000000;2.348685
2456.000000;2.465090
2455.000000;2.544188
2454.000000;2.617181
2453.000000;2.686628
2452.000000;2.585936
2451.000000;2.426428
2450.000000;2.305089
2449.000000;2.222689
2448.000000;2.205125
2447.000000;2.252794
2446.000000;2.316503
2445.000000;2.351925
2444.000000;2.369826
2443.000000;2.375361
2442.000000;2.359491
2441.000000;2.347344
2440.000000;2.387853
2439.000000;2.484825
2438.000000;2.547925
2437.000000;2.462096
2436.000000;2.307312
2435.000000;2.197735
2434.000000;2.131014
2433.000000;2.075969
2432.000000;2.058459
2431.000000;2.101519
2430.000000;2.150910
2429.000000;2.174438
2428.000000;2.255562
2427.000000;2.467320
2426.000000;2.807203
2425.000000;3.140423
2424.000000;3.014412
2423.000000;2.747745
2422.000000;2.615630
2421.000000;2.511626
2420.000000;2.447539
2419.000000;2.498446
2418.000000;2.621546
2417.000000;2.587654
2416.000000;2.433194
2415.000000;2.303633
2414.000000;2.218717
2413.000000;2.206199
2412.000000;2.270441
2411.000000;2.385740
2410.000000;2.519588
2409.000000;2.706127
2408.000000;2.927291
2407.000000;2.788109
2406.000000;2.552760
2405.000000;2.438585
2404.000000;2.389959
2403.000000;2.355067
2402.000000;2.289377
2401.000000;2.199298
2400.000000;2.117961
2399.000000;2.063217
2398.000000;2.030105
2397.000000;2.007934
2396.000000;1.999313
2395.000000;2.008212
2394.000000;2.024183
2393.000000;2.036451
2392.000000;2.054786
2391.000000;2.094962
2390.000000;2.155389
2389.000000;2.218547
2388.000000;2.269746
2387.000000;2.304981
2386.000000;2.332321
2385.000000;2.383907
2384.000000;2.464602
2383.000000;2.458890
2382.000000;2.334835
2381.000000;2.197957
2380.000000;2.070237
2379.000000;1.968922
2378.000000;1.899181
2377.000000;1.856134
2376.000000;1.781830
2375.000000;1.745833
2374.000000;1.724137
2373.000000;2.059930
2372.000000;2.233624
2371.000000;2.145993
2370.000000;2.199572
2369.000000;2.225456
2368.000000;2.292163
2367.000000;2.353046
2366.000000;2.444249
2365.000000;2.517203
2364.000000;2.558961
2363.000000;2.613544
2362.000000;2.619997
2361.000000;2.469284
2360.000000;2.324907
2359.000000;2.267124
2358.000000;2.275528
2357.000000;2.311713
2356.000000;2.358260
2355.000000;2.432717
2354.000000;2.533715
2353.000000;2.631342
2352.000000;2.718396
2351.000000;2.784779
2350.000000;2.768881
2349.000000;2.689562
2348.000000;2.614659
2347.000000;2.545632
2346.000000;2.463849
2345.000000;2.361014
2344.000000;2.298658
2343.000000;2.203202
2342.000000;2.180596
2341.000000;2.039537
2340.000000;2.123157
2339.000000;1.542589
2338.000000;1.461253
2337.000000;1.496248
2336.000000;1.534695
2335.000000;1.640449
2334.000000;1.729566
2333.000000;1.780710
2332.000000;1.833234
2331.000000;1.934113
2330.000000;2.030667
2329.000000;2.037610
2328.000000;1.971613
2327.000000;1.857232
2326.000000;1.774219
2325.000000;1.766595
2324.000000;1.839329
2323.000000;1.987664
2322.000000;2.191873
2321.000000;2.414301
2320.000000;2.447741
2319.000000;2.248284
2318.000000;2.050832
2317.000000;1.935048
2316.000000;1.908540
2315.000000;1.953976
2314.000000;2.066345
2313.000000;2.240406
2312.000000;2.483834
2311.000000;2.585392
2310.000000;2.403655
2309.000000;2.297350
2308.000000;2.290211
2307.000000;2.346887
2306.000000;2.397050
2305.000000;2.313110
2304.000000;2.171801
2303.000000;2.078910
2302.000000;2.056198
2301.000000;2.100677
2300.000000;2.170971
2299.000000;2.195174
2298.000000;2.202055
2297.000000;2.243890
2296.000000;2.318532
2295.000000;2.421030
2294.000000;2.574420
2293.000000;2.856410
2292.000000;3.152001
2291.000000;2.830645
2290.000000;2.624263
2289.000000;2.534281
2288.000000;2.484717
2287.000000;2.473217
2286.000000;2.501323
2285.000000;2.544013
2284.000000;2.548351
2283.000000;2.534723
2282.000000;2.572655
2281.000000;2.673597
2280.000000;2.974689
2279.000000;3.060590
2278.000000;2.552279
2277.000000;2.361069
2276.000000;2.291235
2275.000000;2.285905
2274.000000;2.287323
2273.000000;2.292233
2272.000000;2.316832
2271.000000;2.351207
2270.000000;2.378112
2269.000000;2.424533
2268.000000;2.530635
2267.000000;2.751683
2266.000000;2.943235
2265.000000;2.627745
2264.000000;2.411669
2263.000000;2.328487
2262.000000;2.301995
2261.000000;2.287479
2260.000000;2.259173
2259.000000;2.212587
2258.000000;2.143457
2257.000000;2.066295
2256.000000;2.009968
2255.000000;1.990587
2254.000000;2.011405
2253.000000;2.074937
2252.000000;2.169858
2251.000000;2.236790
2250.000000;2.246197
2249.000000;2.261928
2248.000000;2.299008
2247.000000;2.308220
2246.000000;2.281215
2245.000000;2.217133
2244.000000;2.123467
2243.000000;2.066998
2242.000000;2.076275
2241.000000;2.118579
2240.000000;2.149004
2239.000000;2.165622
2238.000000;2.179045
2237.000000;2.183531
2236.000000;2.170181
2235.000000;2.158327
2234.000000;2.178334
2233.000000;2.217270
2232.000000;2.225732
2231.000000;2.203799
2230.000000;2.211130
2229.000000;2.252368
2228.000000;2.247204
2227.000000;2.216740
2226.000000;2.262336
2225.000000;2.382737
2224.000000;2.517491
2223.000000;2.667558
2222.000000;2.785496
2221.000000;2.872301
2220.000000;2.764352
2219.000000;2.553478
2218.000000;2.480875
2217.000000;2.438160
2216.000000;2.387465
2215.000000;2.400794
2214.000000;2.489782
2213.000000;2.574807
2212.000000;2.573253
2211.000000;2.513345
2210.000000;2.508991
2209.000000;2.587605
2208.000000;2.595717
2207.000000;2.446488
2206.000000;2.286165
2205.000000;2.184318
2204.000000;2.155155
2203.000000;2.176387
2202.000000;2.193895
2201.000000;2.178685
2200.000000;2.153688
2199.000000;2.131739
2198.000000;2.120298
2197.000000;2.139868
2196.000000;2.203480
2195.000000;2.279140
2194.000000;2.314665
2193.000000;2.340832
2192.000000;2.409706
2191.000000;2.511154
2190.000000;2.554655
2189.000000;2.525896
2188.000000;2.469718
2187.000000;2.381780
2186.000000;2.329443
2185.000000;2.368868
2184.000000;2.455583
2183.000000;2.403278
2182.000000;2.309704
2181.000000;2.268933
2180.000000;2.257134
2179.000000;2.285507
2178.000000;2.368291
2177.000000;2.460666
2176.000000;2.523303
2175.000000;2.602262
2174.000000;2.692082
2173.000000;2.762043
2172.000000;2.769463
2171.000000;2.609034
2170.000000;2.438385
2169.000000;2.346863
2168.000000;2.322568
2167.000000;2.316667
2166.000000;2.294534
2165.000000;2.275688
2164.000000;2.269582
2163.000000;2.261261
2162.000000;2.251825
2161.000000;2.259407
2160.000000;2.293097
2159.000000;2.337269
2158.000000;2.360302
2157.000000;2.363644
2156.000000;2.361447
2155.000000;2.327963
2154.000000;2.266653
2153.000000;2.227899
2152.000000;2.221522
2151.000000;2.209167
2150.000000;2.163297
2149.000000;2.112136
2148.000000;2.084860
2147.000000;2.079310
2146.000000;2.091647
2145.000000;2.135465
2144.000000;2.211818
2143.000000;2.279381
2142.000000;2.287644
2141.000000;2.259348
2140.000000;2.251385
2139.000000;2.265148
2138.000000;2.272416
2137.000000;2.297655
2136.000000;2.368777
2135.000000;2.429862
2134.000000;2.456761
2133.000000;2.520712
2132.000000;2.636399
2131.000000;2.714553
2130.000000;2.733149
2129.000000;2.734354
2128.000000;2.593739
2127.000000;2.462576
2126.000000;2.406484
2125.000000;2.360196
2124.000000;2.306493
2123.000000;2.283539
2122.000000;2.313787
2121.000000;2.416378
2120.000000;2.656950
2119.000000;3.065491
2118.000000;2.847534
2117.000000;2.545739
2116.000000;2.359873
2115.000000;2.239274
2114.000000;2.175033
2113.000000;2.138711
2112.000000;2.118096
2111.000000;2.131971
2110.000000;2.195096
2109.000000;2.281274
2108.000000;2.356801
2107.000000;2.435968
2106.000000;2.525790
2105.000000;2.577226
2104.000000;2.543776
2103.000000;2.458491
2102.000000;2.380558
2101.000000;2.343906
2100.000000;2.353420
2099.000000;2.365209
2098.000000;2.320299
2097.000000;2.254495
2096.000000;2.211589
2095.000000;2.200461
2094.000000;2.212073
2093.000000;2.235840
2092.000000;2.290683
2091.000000;2.345943
2090.000000;2.304045
2089.000000;2.243325
2088.000000;2.248859
2087.000000;2.301937
2086.000000;2.364223
2085.000000;2.433745
2084.000000;2.503256
2083.000000;2.468010
2082.000000;2.416628
2081.000000;2.490492
2080.000000;2.628998
2079.000000;2.641648
2078.000000;2.694332
2077.000000;2.854915
2076.000000;2.912768
2075.000000;3.208168
2074.000000;2.925157
2073.000000;2.716182
2072.000000;2.649532
2071.000000;2.581151
2070.000000;2.595079
2069.000000;2.630174
2068.000000;2.562979
2067.000000;2.530575
2066.000000;2.443662
2065.000000;2.293433
2064.000000;2.217047
2063.000000;2.220192
2062.000000;2.274290
2061.000000;2.358845
2060.000000;2.436531
2059.000000;2.438718
2058.000000;2.405973
2057.000000;2.381921
2056.000000;2.354375
2055.000000;2.362476
2054.000000;2.441617
2053.000000;2.553804
2052.000000;2.542008
2051.000000;2.399113
2050.000000;2.281229
2049.000000;2.235427
2048.000000;2.235224
2047.000000;2.231879
2046.000000;2.224225
2045.000000;2.238330
2044.000000;2.266917
2043.000000;2.277336
2042.000000;2.283737
2041.000000;2.339524
2040.000000;2.458153
2039.000000;2.580487
2038.000000;2.645812
2037.000000;2.673992
2036.000000;2.628133
2035.000000;2.490276
2034.000000;2.345882
2033.000000;2.266361
2032.000000;2.255753
2031.000000;2.279642
2030.000000;2.297603
2029.000000;2.300240
2028.000000;2.302810
2027.000000;2.327971
2026.000000;2.410644
2025.000000;2.581437
2024.000000;2.849137
2023.000000;2.682723
2022.000000;2.418134
2021.000000;2.275932
2020.000000;2.223482
2019.000000;2.244048
2018.000000;2.305642
2017.000000;2.358187
2016.000000;2.372759
2015.000000;2.365030
2014.000000;2.330281
2013.000000;2.255936
2012.000000;2.167272
2011.000000;2.106479
2010.000000;2.101252
2009.000000;2.160757
2008.000000;2.295742
2007.000000;2.518441
2006.000000;2.993760
2005.000000;3.206044
2004.000000;2.840938
2003.000000;2.809784
2002.000000;2.815374
2001.000000;2.806484
2000.000000;2.732242
1999.000000;2.662545
1998.000000;2.608293
1997.000000;2.565723
1996.000000;2.548443
1995.000000;2.520148
1994.000000;2.424369
1993.000000;2.323323
1992.000000;2.258618
1991.000000;2.204097
1990.000000;2.176347
1989.000000;2.223307
1988.000000;2.346325
1987.000000;2.443385
1986.000000;2.498899
1985.000000;2.684307
1984.000000;3.021892
1983.000000;2.998101
1982.000000;2.732404
1981.000000;2.541447
1980.000000;2.441606
1979.000000;2.440806
1978.000000;2.467589
1977.000000;2.421676
1976.000000;2.354884
1975.000000;2.338549
1974.000000;2.366751
1973.000000;2.436830
1972.000000;2.579348
1971.000000;2.708088
1970.000000;2.682511
1969.000000;2.692642
1968.000000;2.780069
1967.000000;2.849575
1966.000000;2.882487
1965.000000;2.917119
1964.000000;2.976633
1963.000000;3.011781
1962.000000;3.056352
1961.000000;3.042674
1960.000000;2.993860
1959.000000;3.058905
1958.000000;3.430438
1957.000000;3.680266
1956.000000;2.971626
1955.000000;2.742280
1954.000000;2.721246
1953.000000;2.709527
1952.000000;2.574428
1951.000000;2.448313
1950.000000;2.337483
1949.000000;2.259703
1948.000000;2.226042
1947.000000;2.191061
1946.000000;2.146980
1945.000000;2.137056
1944.000000;2.180171
1943.000000;2.259752
1942.000000;2.350234
1941.000000;2.468598
1940.000000;2.641369
1939.000000;2.789432
1938.000000;2.826578
1937.000000;2.727236
1936.000000;2.633207
1935.000000;2.700057
1934.000000;2.684498
1933.000000;2.469356
1932.000000;2.363462
1931.000000;2.296607
1930.000000;2.241154
1929.000000;2.261208
1928.000000;2.369190
1927.000000;2.442492
1926.000000;2.453588
1925.000000;2.635137
1924.000000;2.861412
1923.000000;2.688600
1922.000000;2.574283
1921.000000;2.477104
1920.000000;2.334917
1919.000000;2.253800
1918.000000;2.251469
1917.000000;2.282118
1916.000000;2.276282
1915.000000;2.225840
1914.000000;2.182523
1913.000000;2.170053
1912.000000;2.171187
1911.000000;2.187062
1910.000000;2.256980
1909.000000;2.375536
1908.000000;2.465312
1907.000000;2.526889
1906.000000;2.532936
1905.000000;2.464414
1904.000000;2.455339
1903.000000;2.501695
1902.000000;2.492305
1901.000000;2.445746
1900.000000;2.441155
1899.000000;2.478580
1898.000000;2.543148
1897.000000;2.709761
1896.000000;3.223523
1895.000000;2.982191
1894.000000;2.646370
1893.000000;2.598139
1892.000000;2.583065
1891.000000;2.574386
1890.000000;2.528198
1889.000000;2.451134
1888.000000;2.375189
1887.000000;2.323401
1886.000000;2.299114
1885.000000;2.285065
1884.000000;2.276500
1883.000000;2.294908
1882.000000;2.352340
1881.000000;2.431598
1880.000000;2.538364
1879.000000;2.681527
1878.000000;2.710562
1877.000000;2.609377
1876.000000;2.900716
1875.000000;3.342538
1874.000000;2.596064
1873.000000;2.469799
1872.000000;2.419631
1871.000000;2.355629
1870.000000;2.339847
1869.000000;2.349296
1868.000000;2.301508
1867.000000;2.247036
1866.000000;2.259968
1865.000000;2.317622
1864.000000;2.382402
1863.000000;2.474451
1862.000000;2.574352
1861.000000;2.538101
1860.000000;2.506907
1859.000000;2.633394
1858.000000;2.931616
1857.000000;3.053852
1856.000000;2.806273
1855.000000;2.586942
1854.000000;2.475895
1853.000000;2.489739
1852.000000;2.577015
1851.000000;2.608103
1850.000000;2.509486
1849.000000;2.369821
1848.000000;2.240521
1847.000000;2.119972
1846.000000;2.036281
1845.000000;2.022508
1844.000000;2.078954
1843.000000;2.155501
1842.000000;2.191165
1841.000000;2.195382
1840.000000;2.200441
1839.000000;2.230173
1838.000000;2.317003
1837.000000;2.454605
1836.000000;2.523105
1835.000000;2.497983
1834.000000;2.493702
1833.000000;2.492937
1832.000000;2.429819
1831.000000;2.346566
1830.000000;2.307901
1829.000000;2.331598
1828.000000;2.421489
1827.000000;2.576905
1826.000000;2.708507
1825.000000;2.714376
1824.000000;2.653149
1823.000000;2.524266
1822.000000;2.386019
1821.000000;2.276668
1820.000000;2.201629
1819.000000;2.180085
1818.000000;2.236482
1817.000000;2.397750
1816.000000;2.673144
1815.000000;3.127047
1814.000000;3.181111
1813.000000;2.929869
1812.000000;2.915931
1811.000000;2.869652
1810.000000;2.702797
1809.000000;2.725547
1808.000000;3.301202
1807.000000;2.761819
1806.000000;2.378672
1805.000000;2.237326
1804.000000;2.176292
1803.000000;2.192738
1802.000000;2.262631
1801.000000;2.354296
1800.000000;2.400459
1799.000000;2.394597
1798.000000;2.390221
1797.000000;2.407298
1796.000000;2.405468
1795.000000;2.340996
1794.000000;2.256317
1793.000000;2.212051
1792.000000;2.225546
1791.000000;2.277040
1790.000000;2.316975
1789.000000;2.310957
1788.000000;2.277609
1787.000000;2.250899
1786.000000;2.246162
1785.000000;2.232132
1784.000000;2.161340
1783.000000;2.067196
1782.000000;2.003413
1781.000000;1.986064
1780.000000;2.014298
1779.000000;2.074421
1778.000000;2.123695
1777.000000;2.122465
1776.000000;2.092428
1775.000000;2.065781
1774.000000;2.049750
1773.000000;2.053512
1772.000000;2.097135
1771.000000;2.190407
1770.000000;2.302617
1769.000000;2.372246
1768.000000;2.379231
1767.000000;2.351138
1766.000000;2.322999
1765.000000;2.323025
1764.000000;2.364595
1763.000000;2.424304
1762.000000;2.460760
1761.000000;2.511743
1760.000000;2.663501
1759.000000;2.907177
1758.000000;3.042566
1757.000000;2.982464
1756.000000;2.810706
1755.000000;2.666629
1754.000000;2.663525
1753.000000;2.762117
1752.000000;2.724846
1751.000000;2.575930
1750.000000;2.581316
1749.000000;2.732679
1748.000000;3.061201
1747.000000;3.433571
1746.000000;2.762924
1745.000000;2.475599
1744.000000;2.371081
1743.000000;2.360451
1742.000000;2.400419
1741.000000;2.433857
1740.000000;2.447660
1739.000000;2.408258
1738.000000;2.318890
1737.000000;2.212352
1736.000000;2.134520
1735.000000;2.096236
1734.000000;2.089174
1733.000000;2.098362
1732.000000;2.111435
1731.000000;2.136594
1730.000000;2.177145
1729.000000;2.215401
1728.000000;2.240344
1727.000000;2.259621
1726.000000;2.255959
1725.000000;2.200060
1724.000000;2.133211
1723.000000;2.104871
1722.000000;2.111438
1721.000000;2.122220
1720.000000;2.127543
1719.000000;2.149449
1718.000000;2.198291
1717.000000;2.274663
1716.000000;2.392098
1715.000000;2.609576
1714.000000;2.994100
1713.000000;3.041061
1712.000000;2.804179
1711.000000;2.700279
1710.000000;2.604980
1709.000000;2.547388
1708.000000;2.567578
1707.000000;2.669155
1706.000000;2.763186
1705.000000;2.707115
1704.000000;2.575034
1703.000000;2.445448
1702.000000;2.345132
1701.000000;2.262648
1700.000000;2.184159
1699.000000;2.119067
1698.000000;2.069013
1697.000000;2.043071
1696.000000;2.044136
1695.000000;2.070505
1694.000000;2.161506
1693.000000;2.321942
1692.000000;2.500671
1691.000000;2.729572
1690.000000;2.740683
1689.000000;2.509765
1688.000000;2.420589
1687.000000;2.429610
1686.000000;2.474171
1685.000000;2.610988
1684.000000;2.699049
1683.000000;2.484089
1682.000000;2.325986
1681.000000;2.291335
1680.000000;2.314784
1679.000000;2.368581
1678.000000;2.409659
1677.000000;2.418436
1676.000000;2.393589
1675.000000;2.338781
1674.000000;2.290114
1673.000000;2.269542
1672.000000;2.316124
1671.000000;2.458236
1670.000000;2.772341
1669.000000;3.457182
1668.000000;3.302774
1667.000000;3.066664
1666.000000;2.992677
1665.000000;2.861075
1664.000000;2.728817
1663.000000;2.615290
1662.000000;2.517864
1661.000000;2.425758
1660.000000;2.374242
1659.000000;2.335551
1658.000000;2.278288
1657.000000;2.228213
1656.000000;2.220010
1655.000000;2.247447
1654.000000;2.280218
1653.000000;2.315995
1652.000000;2.348470
1651.000000;2.358871
1650.000000;2.381201
1649.000000;2.408999
1648.000000;2.408625
1647.000000;2.405611
1646.000000;2.395073
1645.000000;2.359704
1644.000000;2.321219
1643.000000;2.311023
1642.000000;2.331983
1641.000000;2.352582
1640.000000;2.364023
1639.000000;2.388383
1638.000000;2.410120
1637.000000;2.405287
1636.000000;2.415833
1635.000000;2.526843
1634.000000;2.767920
1633.000000;3.143105
1632.000000;3.273420
1631.000000;2.795834
1630.000000;2.526835
1629.000000;2.405913
1628.000000;2.344704
1627.000000;2.355361
1626.000000;2.468100
1625.000000;2.690095
1624.000000;2.963838
1623.000000;3.013360
1622.000000;2.816372
1621.000000;2.664398
1620.000000;2.545925
1619.000000;2.441596
1618.000000;2.361060
1617.000000;2.275868
1616.000000;2.179177
1615.000000;2.110377
1614.000000;2.095502
1613.000000;2.125338
1612.000000;2.181559
1611.000000;2.251968
1610.000000;2.319654
1609.000000;2.359072
1608.000000;2.362705
1607.000000;2.343164
1606.000000;2.295279
1605.000000;2.231908
1604.000000;2.200194
1603.000000;2.214822
1602.000000;2.240681
1601.000000;2.234721
1600.000000;2.210628
1599.000000;2.233287
1598.000000;2.318900
1597.000000;2.385868
1596.000000;2.415907
1595.000000;2.524247
1594.000000;2.687675
1593.000000;2.755646
1592.000000;2.754753
1591.000000;2.704075
1590.000000;2.659663
1589.000000;2.611675
1588.000000;2.569796
1587.000000;2.622905
1586.000000;2.745562
1585.000000;2.720360
1584.000000;2.476082
1583.000000;2.254264
1582.000000;2.121890
1581.000000;2.054821
1580.000000;2.029954
1579.000000;2.036454
1578.000000;2.060195
1577.000000;2.084623
1576.000000;2.115878
1575.000000;2.179785
1574.000000;2.289930
1573.000000;2.435193
1572.000000;2.574665
1571.000000;2.638008
1570.000000;2.619624
1569.000000;2.552377
1568.000000;2.473531
1567.000000;2.441406
1566.000000;2.439300
1565.000000;2.402470
1564.000000;2.381556
1563.000000;2.435415
1562.000000;2.471456
1561.000000;2.438016
1560.000000;2.470099
1559.000000;2.526826
1558.000000;2.500886
1557.000000;2.537567
1556.000000;2.664414
1555.000000;2.764029
1554.000000;2.735513
1553.000000;2.724032
1552.000000;2.832300
1551.000000;2.652290
1550.000000;2.415268
1549.000000;2.368197
1548.000000;2.448952
1547.000000;2.533157
1546.000000;2.557090
1545.000000;2.597358
1544.000000;2.584106
1543.000000;2.513602
1542.000000;2.488305
1541.000000;2.525043
1540.000000;2.585301
1539.000000;2.658566
1538.000000;2.723751
1537.000000;2.616977
1536.000000;2.519580
1535.000000;2.592749
1534.000000;2.676793
1533.000000;2.569364
1532.000000;2.465501
1531.000000;2.407708
1530.000000;2.346447
1529.000000;2.321173
1528.000000;2.366413
1527.000000;2.404225
1526.000000;2.366864
1525.000000;2.358240
1524.000000;2.426330
1523.000000;2.534308
1522.000000;2.797009
1521.000000;3.096537
1520.000000;2.744941
1519.000000;2.536301
1518.000000;2.444811
1517.000000;2.387486
1516.000000;2.391021
1515.000000;2.437622
1514.000000;2.503907
1513.000000;2.564500
1512.000000;2.619765
1511.000000;2.666460
1510.000000;2.710219
1509.000000;2.683795
1508.000000;2.577857
1507.000000;2.499165
1506.000000;2.472854
1505.000000;2.484892
1504.000000;2.494797
1503.000000;2.540439
1502.000000;2.723836
1501.000000;2.849411
1500.000000;2.728488
1499.000000;2.692144
1498.000000;2.717916
1497.000000;2.784795
1496.000000;3.054079
1495.000000;3.049114
1494.000000;2.734439
1493.000000;2.627146
1492.000000;2.602241
1491.000000;2.604906
1490.000000;2.634805
1489.000000;2.660142
1488.000000;2.603531
1487.000000;2.495378
1486.000000;2.428596
1485.000000;2.407453
1484.000000;2.414070
1483.000000;2.412077
1482.000000;2.384542
1481.000000;2.351368
1480.000000;2.330307
1479.000000;2.339434
1478.000000;2.382792
1477.000000;2.429307
1476.000000;2.434271
1475.000000;2.383517
1474.000000;2.300520
1473.000000;2.202730
1472.000000;2.114859
1471.000000;2.078456
1470.000000;2.098941
1469.000000;2.124392
1468.000000;2.128885
1467.000000;2.172746
1466.000000;2.304235
1465.000000;2.489685
1464.000000;2.649479
1463.000000;2.729363
1462.000000;2.636842
1461.000000;2.426405
1460.000000;2.244231
1459.000000;2.145805
1458.000000;2.123960
1457.000000;2.147264
1456.000000;2.188906
1455.000000;2.238696
1454.000000;2.274722
1453.000000;2.276395
1452.000000;2.292080
1451.000000;2.364411
1450.000000;2.446721
1449.000000;2.494580
1448.000000;2.586011
1447.000000;2.774820
1446.000000;2.843104
1445.000000;2.664951
1444.000000;2.518683
1443.000000;2.443285
1442.000000;2.432887
1441.000000;2.475315
1440.000000;2.522115
1439.000000;2.526455
1438.000000;2.490422
1437.000000;2.458498
1436.000000;2.460325
1435.000000;2.508892
1434.000000;2.594967
1433.000000;2.691503
1432.000000;2.743854
1431.000000;2.844868
1430.000000;3.263037
1429.000000;3.355720
1428.000000;2.885495
1427.000000;2.654269
1426.000000;2.513380
1425.000000;2.417063
1424.000000;2.318527
1423.000000;2.228421
1422.000000;2.192983
1421.000000;2.219074
1420.000000;2.272411
1419.000000;2.310417
1418.000000;2.345053
1417.000000;2.390256
1416.000000;2.411045
1415.000000;2.408701
1414.000000;2.357343
1413.000000;2.241782
1412.000000;2.157415
1411.000000;2.141220
1410.000000;2.162769
1409.000000;2.190588
1408.000000;2.215703
1407.000000;2.218546
1406.000000;2.173856
1405.000000;2.120033
1404.000000;2.104194
1403.000000;2.128303
1402.000000;2.175778
1401.000000;2.245012
1400.000000;2.336079
1399.000000;2.420332
1398.000000;2.471026
1397.000000;2.486861
1396.000000;2.492421
1395.000000;2.514241
1394.000000;2.529755
1393.000000;2.453075
1392.000000;2.277767
1391.000000;2.121937
1390.000000;2.050032
1389.000000;2.059843
1388.000000;2.122882
1387.000000;2.216323
1386.000000;2.360981
1385.000000;2.581014
1384.000000;2.731960
1383.000000;2.779060
1382.000000;2.819188
1381.000000;2.760347
1380.000000;2.681474
1379.000000;2.577735
1378.000000;2.447346
1377.000000;2.379983
1376.000000;2.385090
1375.000000;2.444469
1374.000000;2.544227
1373.000000;2.808492
1372.000000;3.264119
1371.000000;2.791169
1370.000000;2.549354
1369.000000;2.430396
1368.000000;2.400195
1367.000000;2.505775
1366.000000;2.740996
1365.000000;2.936261
1364.000000;2.738664
1363.000000;2.497320
1362.000000;2.332398
1361.000000;2.195362
1360.000000;2.078705
1359.000000;2.013689
1358.000000;2.007653
1357.000000;2.038989
1356.000000;2.075246
1355.000000;2.090792
1354.000000;2.074538
1353.000000;2.037298
1352.000000;2.006643
1351.000000;2.001229
1350.000000;2.024401
1349.000000;2.074095
1348.000000;2.138652
1347.000000;2.178782
1346.000000;2.160487
1345.000000;2.119530
1344.000000;2.121373
1343.000000;2.188038
1342.000000;2.269774
1341.000000;2.346271
1340.000000;2.454135
1339.000000;2.459893
1338.000000;2.370598
1337.000000;2.339870
1336.000000;2.322740
1335.000000;2.282505
1334.000000;2.263075
1333.000000;2.291467
1332.000000;2.353609
1331.000000;2.430096
1330.000000;2.556397
1329.000000;2.729566
1328.000000;2.744172
1327.000000;2.569861
1326.000000;2.420088
1325.000000;2.383299
1324.000000;2.450884
1323.000000;2.507806
1322.000000;2.573379
1321.000000;2.659673
1320.000000;2.508670
1319.000000;2.375592
1318.000000;2.337398
1317.000000;2.312533
1316.000000;2.319620
1315.000000;2.396462
1314.000000;2.473749
1313.000000;2.454123
1312.000000;2.353769
1311.000000;2.221715
1310.000000;2.132618
1309.000000;2.116937
1308.000000;2.151367
1307.000000;2.189557
1306.000000;2.214102
1305.000000;2.250487
1304.000000;2.296400
1303.000000;2.314612
1302.000000;2.323924
1301.000000;2.411251
1300.000000;2.551224
1299.000000;2.506996
1298.000000;2.457090
1297.000000;2.479727
1296.000000;2.416628
1295.000000;2.352023
1294.000000;2.387795
1293.000000;2.486915
1292.000000;2.572789
1291.000000;2.764848
1290.000000;2.842981
1289.000000;2.566929
1288.000000;2.409876
1287.000000;2.289197
1286.000000;2.226746
1285.000000;2.267335
1284.000000;2.387002
1283.000000;2.495324
1282.000000;2.503973
1281.000000;2.458849
1280.000000;2.399519
1279.000000;2.314122
1278.000000;2.222254
1277.000000;2.154428
1276.000000;2.107187
1275.000000;2.079772
1274.000000;2.088903
1273.000000;2.131984
1272.000000;2.167865
1271.000000;2.171558
1270.000000;2.171916
1269.000000;2.190365
1268.000000;2.213928
1267.000000;2.241007
1266.000000;2.286715
1265.000000;2.343200
1264.000000;2.378156
1263.000000;2.380971
1262.000000;2.380450
1261.000000;2.343869
1260.000000;2.237723
1259.000000;2.165452
1258.000000;2.167771
1257.000000;2.184247
1256.000000;2.166344
1255.000000;2.148367
1254.000000;2.140847
1253.000000;2.128288
1252.000000;2.118869
1251.000000;2.112227
1250.000000;2.090469
1249.000000;2.060566
1248.000000;2.053479
1247.000000;2.079706
1246.000000;2.121562
1245.000000;2.173366
1244.000000;2.263265
1243.000000;2.409134
1242.000000;2.545832
1241.000000;2.547525
1240.000000;2.523586
1239.000000;2.562055
1238.000000;2.523294
1237.000000;2.369820
1236.000000;2.248255
1235.000000;2.204918
1234.000000;2.240930
1233.000000;2.328128
1232.000000;2.410501
1231.000000;2.466856
1230.000000;2.534485
1229.000000;2.601745
1228.000000;2.568106
1227.000000;2.475187
1226.000000;2.404951
1225.000000;2.351629
1224.000000;2.341493
1223.000000;2.392534
1222.000000;2.459200
1221.000000;2.484405
1220.000000;2.490951
1219.000000;2.506793
1218.000000;2.493637
1217.000000;2.455458
1216.000000;2.439409
1215.000000;2.399247
1214.000000;2.341294
1213.000000;2.383392
1212.000000;2.593916
1211.000000;2.752595
1210.000000;2.595986
1209.000000;2.513850
1208.000000;2.540623
1207.000000;2.709753
1206.000000;2.749821
1205.000000;2.573458
1204.000000;2.557449
1203.000000;2.638545
1202.000000;2.726971
1201.000000;2.745563
1200.000000;2.739240
