Criado como novo conjunto de dados;"0307_DANIEL.spp","19982.7 Secs"
cm-1;Abs
10000.000000;0.968312
9999.000000;0.966451
9998.000000;0.964774
9997.000000;0.963499
9996.000000;0.962532
9995.000000;0.961620
9994.000000;0.960665
9993.000000;0.959709
9992.000000;0.958743
9991.000000;0.957670
9990.000000;0.956441
9989.000000;0.955109
9988.000000;0.953779
9987.000000;0.952580
9986.000000;0.951586
9985.000000;0.950650
9984.000000;0.949383
9983.000000;0.947519
9982.000000;0.945327
9981.000000;0.943472
9980.000000;0.942359
9979.000000;0.941725
9978.000000;0.940987
9977.000000;0.939930
9976.000000;0.938871
9975.000000;0.938131
9974.000000;0.937559
9973.000000;0.936720
9972.000000;0.935445
9971.000000;0.933967
9970.000000;0.932537
9969.000000;0.931162
9968.000000;0.929778
9967.000000;0.928467
9966.000000;0.927327
9965.000000;0.926301
9964.000000;0.925334
9963.000000;0.924554
9962.000000;0.924062
9961.000000;0.923577
9960.000000;0.922583
9959.000000;0.920894
9958.000000;0.918883
9957.000000;0.917092
9956.000000;0.915778
9955.000000;0.914881
9954.000000;0.914185
9953.000000;0.913369
9952.000000;0.912079
9951.000000;0.910203
9950.000000;0.908085
9949.000000;0.906314
9948.000000;0.905216
9947.000000;0.904560
9946.000000;0.903766
9945.000000;0.902402
9944.000000;0.900520
9943.000000;0.898564
9942.000000;0.896966
9941.000000;0.895852
9940.000000;0.895064
9939.000000;0.894349
9938.000000;0.893445
9937.000000;0.892127
9936.000000;0.890365
9935.000000;0.888478
9934.000000;0.886948
9933.000000;0.886018
9932.000000;0.885481
9931.000000;0.884900
9930.000000;0.883966
9929.000000;0.882683
9928.000000;0.881295
9927.000000;0.880059
9926.000000;0.879018
9925.000000;0.877960
9924.000000;0.876649
9923.000000;0.875089
9922.000000;0.873472
9921.000000;0.871938
9920.000000;0.870500
9919.000000;0.869182
9918.000000;0.868021
9917.000000;0.866900
9916.000000;0.865603
9915.000000;0.864130
9914.000000;0.862777
9913.000000;0.861788
9912.000000;0.861009
9911.000000;0.860027
9910.000000;0.858572
9909.000000;0.856714
9908.000000;0.854753
9907.000000;0.853033
9906.000000;0.851754
9905.000000;0.850818
9904.000000;0.849895
9903.000000;0.848742
9902.000000;0.847419
9901.000000;0.846093
9900.000000;0.844744
9899.000000;0.843221
9898.000000;0.841541
9897.000000;0.839922
9896.000000;0.838476
9895.000000;0.837037
9894.000000;0.835398
9893.000000;0.833630
9892.000000;0.832050
9891.000000;0.830867
9890.000000;0.829920
9889.000000;0.828775
9888.000000;0.827128
9887.000000;0.825121
9886.000000;0.823256
9885.000000;0.821965
9884.000000;0.821238
9883.000000;0.820632
9882.000000;0.819669
9881.000000;0.818219
9880.000000;0.816547
9879.000000;0.814979
9878.000000;0.813562
9877.000000;0.812086
9876.000000;0.810434
9875.000000;0.808822
9874.000000;0.807566
9873.000000;0.806676
9872.000000;0.805802
9871.000000;0.804614
9870.000000;0.803093
9869.000000;0.801448
9868.000000;0.799853
9867.000000;0.798373
9866.000000;0.797020
9865.000000;0.795769
9864.000000;0.794573
9863.000000;0.793440
9862.000000;0.792441
9861.000000;0.791532
9860.000000;0.790441
9859.000000;0.788871
9858.000000;0.786829
9857.000000;0.784645
9856.000000;0.782677
9855.000000;0.781073
9854.000000;0.779804
9853.000000;0.778751
9852.000000;0.777708
9851.000000;0.776468
9850.000000;0.775045
9849.000000;0.773746
9848.000000;0.772824
9847.000000;0.772047
9846.000000;0.770802
9845.000000;0.768750
9844.000000;0.766281
9843.000000;0.764130
9842.000000;0.762603
9841.000000;0.761336
9840.000000;0.759861
9839.000000;0.758178
9838.000000;0.756650
9837.000000;0.755500
9836.000000;0.754590
9835.000000;0.753631
9834.000000;0.752398
9833.000000;0.750796
9832.000000;0.748939
9831.000000;0.747179
9830.000000;0.745836
9829.000000;0.744796
9828.000000;0.743552
9827.000000;0.741751
9826.000000;0.739575
9825.000000;0.737464
9824.000000;0.735627
9823.000000;0.733974
9822.000000;0.732374
9821.000000;0.730802
9820.000000;0.729280
9819.000000;0.727850
9818.000000;0.726590
9817.000000;0.725502
9816.000000;0.724388
9815.000000;0.722992
9814.000000;0.721265
9813.000000;0.719377
9812.000000;0.717468
9811.000000;0.715545
9810.000000;0.713644
9809.000000;0.711913
9808.000000;0.710430
9807.000000;0.709028
9806.000000;0.707449
9805.000000;0.705642
9804.000000;0.703817
9803.000000;0.702204
9802.000000;0.700818
9801.000000;0.699467
9800.000000;0.697941
9799.000000;0.696189
9798.000000;0.694356
9797.000000;0.692693
9796.000000;0.691387
9795.000000;0.690402
9794.000000;0.689467
9793.000000;0.688289
9792.000000;0.686816
9791.000000;0.685243
9790.000000;0.683689
9789.000000;0.681959
9788.000000;0.679803
9787.000000;0.677402
9786.000000;0.675351
9785.000000;0.674001
9784.000000;0.672984
9783.000000;0.671607
9782.000000;0.669664
9781.000000;0.667603
9780.000000;0.665892
9779.000000;0.664498
9778.000000;0.663128
9777.000000;0.661693
9776.000000;0.660285
9775.000000;0.658810
9774.000000;0.657013
9773.000000;0.654915
9772.000000;0.652911
9771.000000;0.651291
9770.000000;0.649853
9769.000000;0.648215
9768.000000;0.646358
9767.000000;0.644602
9766.000000;0.643092
9765.000000;0.641618
9764.000000;0.639999
9763.000000;0.638377
9762.000000;0.636938
9761.000000;0.635529
9760.000000;0.633805
9759.000000;0.631715
9758.000000;0.629581
9757.000000;0.627703
9756.000000;0.626061
9755.000000;0.624477
9754.000000;0.622888
9753.000000;0.621346
9752.000000;0.619830
9751.000000;0.618184
9750.000000;0.616252
9749.000000;0.614024
9748.000000;0.611699
9747.000000;0.609589
9746.000000;0.607894
9745.000000;0.606523
9744.000000;0.605178
9743.000000;0.603614
9742.000000;0.601767
9741.000000;0.599684
9740.000000;0.597458
9739.000000;0.595293
9738.000000;0.593438
9737.000000;0.591938
9736.000000;0.590538
9735.000000;0.588991
9734.000000;0.587355
9733.000000;0.585831
9732.000000;0.584378
9731.000000;0.582720
9730.000000;0.580739
9729.000000;0.578658
9728.000000;0.576768
9727.000000;0.575103
9726.000000;0.573506
9725.000000;0.571853
9724.000000;0.570103
9723.000000;0.568215
9722.000000;0.566171
9721.000000;0.564080
9720.000000;0.562119
9719.000000;0.560364
9718.000000;0.558722
9717.000000;0.557033
9716.000000;0.555186
9715.000000;0.553175
9714.000000;0.551105
9713.000000;0.549123
9712.000000;0.547254
9711.000000;0.545312
9710.000000;0.543099
9709.000000;0.540699
9708.000000;0.538472
9707.000000;0.536645
9706.000000;0.535019
9705.000000;0.533180
9704.000000;0.530978
9703.000000;0.528663
9702.000000;0.526546
9701.000000;0.524650
9700.000000;0.522756
9699.000000;0.520734
9698.000000;0.518694
9697.000000;0.516841
9696.000000;0.515221
9695.000000;0.513672
9694.000000;0.511987
9693.000000;0.510107
9692.000000;0.508119
9691.000000;0.506117
9690.000000;0.504123
9689.000000;0.502166
9688.000000;0.500336
9687.000000;0.498672
9686.000000;0.497036
9685.000000;0.495204
9684.000000;0.493088
9683.000000;0.490787
9682.000000;0.488428
9681.000000;0.486075
9680.000000;0.483797
9679.000000;0.481700
9678.000000;0.479798
9677.000000;0.477972
9676.000000;0.476126
9675.000000;0.474296
9674.000000;0.472514
9673.000000;0.470674
9672.000000;0.468659
9671.000000;0.466528
9670.000000;0.464430
9669.000000;0.462381
9668.000000;0.460282
9667.000000;0.458137
9666.000000;0.456073
9665.000000;0.454118
9664.000000;0.452127
9663.000000;0.449999
9662.000000;0.447846
9661.000000;0.445840
9660.000000;0.443978
9659.000000;0.442093
9658.000000;0.440048
9657.000000;0.437817
9656.000000;0.435435
9655.000000;0.432959
9654.000000;0.430524
9653.000000;0.428343
9652.000000;0.426557
9651.000000;0.425051
9650.000000;0.423452
9649.000000;0.421413
9648.000000;0.418921
9647.000000;0.416285
9646.000000;0.413788
9645.000000;0.411436
9644.000000;0.409106
9643.000000;0.406801
9642.000000;0.404623
9641.000000;0.402573
9640.000000;0.400557
9639.000000;0.398569
9638.000000;0.396651
9637.000000;0.394652
9636.000000;0.392304
9635.000000;0.389645
9634.000000;0.387157
9633.000000;0.385231
9632.000000;0.383650
9631.000000;0.381840
9630.000000;0.379576
9629.000000;0.377178
9628.000000;0.374995
9627.000000;0.372974
9626.000000;0.370856
9625.000000;0.368607
9624.000000;0.366409
9623.000000;0.364317
9622.000000;0.362134
9621.000000;0.359694
9620.000000;0.357114
9619.000000;0.354652
9618.000000;0.352392
9617.000000;0.350172
9616.000000;0.347817
9615.000000;0.345347
9614.000000;0.342932
9613.000000;0.340702
9612.000000;0.338648
9611.000000;0.336634
9610.000000;0.334481
9609.000000;0.332082
9608.000000;0.329513
9607.000000;0.326976
9606.000000;0.324575
9605.000000;0.322201
9604.000000;0.319713
9603.000000;0.317187
9602.000000;0.314876
9601.000000;0.312922
9600.000000;0.311200
9599.000000;0.309448
9598.000000;0.307456
9597.000000;0.305130
9596.000000;0.302498
9595.000000;0.299720
9594.000000;0.297019
9593.000000;0.294555
9592.000000;0.292360
9591.000000;0.290369
9590.000000;0.288454
9589.000000;0.286455
9588.000000;0.284309
9587.000000;0.282157
9586.000000;0.280165
9585.000000;0.278242
9584.000000;0.276070
9583.000000;0.273489
9582.000000;0.270690
9581.000000;0.267950
9580.000000;0.265325
9579.000000;0.262729
9578.000000;0.260169
9577.000000;0.257724
9576.000000;0.255373
9575.000000;0.253001
9574.000000;0.250548
9573.000000;0.248026
9572.000000;0.245450
9571.000000;0.242894
9570.000000;0.240548
9569.000000;0.238539
9568.000000;0.236712
9567.000000;0.234768
9566.000000;0.232627
9565.000000;0.230473
9564.000000;0.228433
9563.000000;0.226386
9562.000000;0.224175
9561.000000;0.221818
9560.000000;0.219403
9559.000000;0.216913
9558.000000;0.214310
9557.000000;0.211698
9556.000000;0.209250
9555.000000;0.206999
9554.000000;0.204831
9553.000000;0.202659
9552.000000;0.200476
9551.000000;0.198219
9550.000000;0.195738
9549.000000;0.193005
9548.000000;0.190274
9547.000000;0.187899
9546.000000;0.185991
9545.000000;0.184323
9544.000000;0.182557
9543.000000;0.180514
9542.000000;0.178221
9541.000000;0.175810
9540.000000;0.173448
9539.000000;0.171276
9538.000000;0.169299
9537.000000;0.167345
9536.000000;0.165227
9535.000000;0.162951
9534.000000;0.160692
9533.000000;0.158557
9532.000000;0.156454
9531.000000;0.154221
9530.000000;0.151817
9529.000000;0.149346
9528.000000;0.146972
9527.000000;0.144828
9526.000000;0.142928
9525.000000;0.141126
9524.000000;0.139238
9523.000000;0.137242
9522.000000;0.135279
9521.000000;0.133428
9520.000000;0.131612
9519.000000;0.129782
9518.000000;0.128047
9517.000000;0.126475
9516.000000;0.124873
9515.000000;0.122967
9514.000000;0.120752
9513.000000;0.118518
9512.000000;0.116497
9511.000000;0.114638
9510.000000;0.112750
9509.000000;0.110738
9508.000000;0.108674
9507.000000;0.106721
9506.000000;0.105005
9505.000000;0.103480
9504.000000;0.101918
9503.000000;0.100142
9502.000000;0.098267
9501.000000;0.096597
9500.000000;0.095243
9499.000000;0.093965
9498.000000;0.092460
9497.000000;0.090689
9496.000000;0.088850
9495.000000;0.087112
9494.000000;0.085460
9493.000000;0.083797
9492.000000;0.082107
9491.000000;0.080515
9490.000000;0.079193
9489.000000;0.078185
9488.000000;0.077317
9487.000000;0.076323
9486.000000;0.075074
9485.000000;0.073646
9484.000000;0.072171
9483.000000;0.070676
9482.000000;0.069120
9481.000000;0.067519
9480.000000;0.066016
9479.000000;0.064797
9478.000000;0.063930
9477.000000;0.063269
9476.000000;0.062543
9475.000000;0.061607
9474.000000;0.060579
9473.000000;0.059666
9472.000000;0.058893
9471.000000;0.058078
9470.000000;0.057091
9469.000000;0.056008
9468.000000;0.055016
9467.000000;0.054252
9466.000000;0.053768
9465.000000;0.053515
9464.000000;0.053293
9463.000000;0.052820
9462.000000;0.051963
9461.000000;0.050894
9460.000000;0.049933
9459.000000;0.049258
9458.000000;0.048801
9457.000000;0.048391
9456.000000;0.047917
9455.000000;0.047366
9454.000000;0.046777
9453.000000;0.046188
9452.000000;0.045626
9451.000000;0.045116
9450.000000;0.044686
9449.000000;0.044380
9448.000000;0.044245
9447.000000;0.044315
9446.000000;0.044575
9445.000000;0.044901
9444.000000;0.045095
9443.000000;0.045029
9442.000000;0.044773
9441.000000;0.044522
9440.000000;0.044396
9439.000000;0.044374
9438.000000;0.044414
9437.000000;0.044542
9436.000000;0.044787
9435.000000;0.045087
9434.000000;0.045318
9433.000000;0.045405
9432.000000;0.045346
9431.000000;0.045181
9430.000000;0.044996
9429.000000;0.044926
9428.000000;0.045101
9427.000000;0.045546
9426.000000;0.046149
9425.000000;0.046753
9424.000000;0.047271
9423.000000;0.047722
9422.000000;0.048163
9421.000000;0.048615
9420.000000;0.049097
9419.000000;0.049667
9418.000000;0.050378
9417.000000;0.051148
9416.000000;0.051758
9415.000000;0.052072
9414.000000;0.052209
9413.000000;0.052448
9412.000000;0.052964
9411.000000;0.053726
9410.000000;0.054620
9409.000000;0.055587
9408.000000;0.056601
9407.000000;0.057600
9406.000000;0.058468
9405.000000;0.059105
9404.000000;0.059517
9403.000000;0.059854
9402.000000;0.060327
9401.000000;0.061035
9400.000000;0.061882
9399.000000;0.062709
9398.000000;0.063480
9397.000000;0.064298
9396.000000;0.065273
9395.000000;0.066434
9394.000000;0.067716
9393.000000;0.068965
9392.000000;0.069986
9391.000000;0.070702
9390.000000;0.071276
9389.000000;0.071983
9388.000000;0.072934
9387.000000;0.074007
9386.000000;0.075055
9385.000000;0.076063
9384.000000;0.077090
9383.000000;0.078169
9382.000000;0.079324
9381.000000;0.080582
9380.000000;0.081893
9379.000000;0.083110
9378.000000;0.084129
9377.000000;0.085017
9376.000000;0.085958
9375.000000;0.087097
9374.000000;0.088485
9373.000000;0.090079
9372.000000;0.091744
9371.000000;0.093271
9370.000000;0.094475
9369.000000;0.095304
9368.000000;0.095845
9367.000000;0.096290
9366.000000;0.096894
9365.000000;0.097875
9364.000000;0.099248
9363.000000;0.100780
9362.000000;0.102158
9361.000000;0.103231
9360.000000;0.104078
9359.000000;0.104895
9358.000000;0.105847
9357.000000;0.106981
9356.000000;0.108243
9355.000000;0.109555
9354.000000;0.110873
9353.000000;0.112135
9352.000000;0.113211
9351.000000;0.114038
9350.000000;0.114819
9349.000000;0.115931
9348.000000;0.117519
9347.000000;0.119278
9346.000000;0.120777
9345.000000;0.121929
9344.000000;0.123000
9343.000000;0.124202
9342.000000;0.125473
9341.000000;0.126655
9340.000000;0.127729
9339.000000;0.128792
9338.000000;0.129916
9337.000000;0.131137
9336.000000;0.132487
9335.000000;0.133939
9334.000000;0.135371
9333.000000;0.136647
9332.000000;0.137721
9331.000000;0.138638
9330.000000;0.139480
9329.000000;0.140366
9328.000000;0.141420
9327.000000;0.142668
9326.000000;0.144004
9325.000000;0.145314
9324.000000;0.146593
9323.000000;0.147865
9322.000000;0.149017
9321.000000;0.149859
9320.000000;0.150370
9319.000000;0.150831
9318.000000;0.151641
9317.000000;0.153017
9316.000000;0.154829
9315.000000;0.156673
9314.000000;0.158137
9313.000000;0.159103
9312.000000;0.159846
9311.000000;0.160781
9310.000000;0.162073
9309.000000;0.163507
9308.000000;0.164782
9307.000000;0.165841
9306.000000;0.166859
9305.000000;0.167988
9304.000000;0.169214
9303.000000;0.170464
9302.000000;0.171719
9301.000000;0.172970
9300.000000;0.174154
9299.000000;0.175224
9298.000000;0.176246
9297.000000;0.177355
9296.000000;0.178600
9295.000000;0.179888
9294.000000;0.181087
9293.000000;0.182133
9292.000000;0.183042
9291.000000;0.183863
9290.000000;0.184689
9289.000000;0.185646
9288.000000;0.186810
9287.000000;0.188101
9286.000000;0.189336
9285.000000;0.190410
9284.000000;0.191409
9283.000000;0.192497
9282.000000;0.193729
9281.000000;0.195005
9280.000000;0.196198
9279.000000;0.197250
9278.000000;0.198153
9277.000000;0.198891
9276.000000;0.199467
9275.000000;0.199970
9274.000000;0.200568
9273.000000;0.201416
9272.000000;0.202565
9271.000000;0.203914
9270.000000;0.205263
9269.000000;0.206437
9268.000000;0.207426
9267.000000;0.208370
9266.000000;0.209392
9265.000000;0.210466
9264.000000;0.211486
9263.000000;0.212434
9262.000000;0.213393
9261.000000;0.214407
9260.000000;0.215387
9259.000000;0.216226
9258.000000;0.216975
9257.000000;0.217833
9256.000000;0.218943
9255.000000;0.220228
9254.000000;0.221445
9253.000000;0.222410
9252.000000;0.223147
9251.000000;0.223811
9250.000000;0.224514
9249.000000;0.225245
9248.000000;0.225956
9247.000000;0.226657
9246.000000;0.227397
9245.000000;0.228198
9244.000000;0.229042
9243.000000;0.229908
9242.000000;0.230795
9241.000000;0.231704
9240.000000;0.232617
9239.000000;0.233485
9238.000000;0.234239
9237.000000;0.234873
9236.000000;0.235521
9235.000000;0.236377
9234.000000;0.237484
9233.000000;0.238667
9232.000000;0.239725
9231.000000;0.240640
9230.000000;0.241518
9229.000000;0.242403
9228.000000;0.243253
9227.000000;0.244078
9226.000000;0.244942
9225.000000;0.245812
9224.000000;0.246560
9223.000000;0.247161
9222.000000;0.247789
9221.000000;0.248634
9220.000000;0.249687
9219.000000;0.250772
9218.000000;0.251715
9217.000000;0.252444
9216.000000;0.253007
9215.000000;0.253563
9214.000000;0.254291
9213.000000;0.255234
9212.000000;0.256248
9211.000000;0.257157
9210.000000;0.257917
9209.000000;0.258581
9208.000000;0.259209
9207.000000;0.259869
9206.000000;0.260657
9205.000000;0.261609
9204.000000;0.262608
9203.000000;0.263491
9202.000000;0.264214
9201.000000;0.264837
9200.000000;0.265374
9199.000000;0.265792
9198.000000;0.266128
9197.000000;0.266472
9196.000000;0.266845
9195.000000;0.267216
9194.000000;0.267684
9193.000000;0.268480
9192.000000;0.269689
9191.000000;0.271063
9190.000000;0.272214
9189.000000;0.272952
9188.000000;0.273386
9187.000000;0.273738
9186.000000;0.274190
9185.000000;0.274852
9184.000000;0.275756
9183.000000;0.276813
9182.000000;0.277843
9181.000000;0.278703
9180.000000;0.279353
9179.000000;0.279829
9178.000000;0.280179
9177.000000;0.280464
9176.000000;0.280778
9175.000000;0.281204
9174.000000;0.281788
9173.000000;0.282535
9172.000000;0.283429
9171.000000;0.284403
9170.000000;0.285332
9169.000000;0.286098
9168.000000;0.286680
9167.000000;0.287146
9166.000000;0.287547
9165.000000;0.287877
9164.000000;0.288145
9163.000000;0.288450
9162.000000;0.288912
9161.000000;0.289519
9160.000000;0.290099
9159.000000;0.290501
9158.000000;0.290768
9157.000000;0.291121
9156.000000;0.291741
9155.000000;0.292597
9154.000000;0.293490
9153.000000;0.294263
9152.000000;0.294942
9151.000000;0.295664
9150.000000;0.296467
9149.000000;0.297217
9148.000000;0.297759
9147.000000;0.298117
9146.000000;0.298479
9145.000000;0.299002
9144.000000;0.299675
9143.000000;0.300370
9142.000000;0.300980
9141.000000;0.301493
9140.000000;0.301978
9139.000000;0.302525
9138.000000;0.303139
9137.000000;0.303698
9136.000000;0.304059
9135.000000;0.304231
9134.000000;0.304396
9133.000000;0.304704
9132.000000;0.305116
9131.000000;0.305496
9130.000000;0.305826
9129.000000;0.306247
9128.000000;0.306905
9127.000000;0.307788
9126.000000;0.308698
9125.000000;0.309377
9124.000000;0.309690
9123.000000;0.309760
9122.000000;0.309883
9121.000000;0.310249
9120.000000;0.310774
9119.000000;0.311243
9118.000000;0.311566
9117.000000;0.311817
9116.000000;0.312089
9115.000000;0.312436
9114.000000;0.312933
9113.000000;0.313639
9112.000000;0.314443
9111.000000;0.315091
9110.000000;0.315443
9109.000000;0.315624
9108.000000;0.315851
9107.000000;0.316175
9106.000000;0.316511
9105.000000;0.316837
9104.000000;0.317256
9103.000000;0.317835
9102.000000;0.318494
9101.000000;0.319082
9100.000000;0.319524
9099.000000;0.319873
9098.000000;0.320239
9097.000000;0.320700
9096.000000;0.321243
9095.000000;0.321779
9094.000000;0.322202
9093.000000;0.322476
9092.000000;0.322644
9091.000000;0.322810
9090.000000;0.323084
9089.000000;0.323516
9088.000000;0.324040
9087.000000;0.324514
9086.000000;0.324850
9085.000000;0.325088
9084.000000;0.325316
9083.000000;0.325563
9082.000000;0.325810
9081.000000;0.326065
9080.000000;0.326343
9079.000000;0.326581
9078.000000;0.326688
9077.000000;0.326708
9076.000000;0.326846
9075.000000;0.327260
9074.000000;0.327875
9073.000000;0.328467
9072.000000;0.328890
9071.000000;0.329161
9070.000000;0.329354
9069.000000;0.329513
9068.000000;0.329685
9067.000000;0.329936
9066.000000;0.330263
9065.000000;0.330573
9064.000000;0.330801
9063.000000;0.331028
9062.000000;0.331401
9061.000000;0.331939
9060.000000;0.332493
9059.000000;0.332898
9058.000000;0.333120
9057.000000;0.333238
9056.000000;0.333351
9055.000000;0.333532
9054.000000;0.333825
9053.000000;0.334216
9052.000000;0.334618
9051.000000;0.334926
9050.000000;0.335126
9049.000000;0.335314
9048.000000;0.335617
9047.000000;0.336085
9046.000000;0.336673
9045.000000;0.337280
9044.000000;0.337800
9043.000000;0.338155
9042.000000;0.338336
9041.000000;0.338417
9040.000000;0.338503
9039.000000;0.338653
9038.000000;0.338835
9037.000000;0.338976
9036.000000;0.339050
9035.000000;0.339107
9034.000000;0.339210
9033.000000;0.339379
9032.000000;0.339594
9031.000000;0.339847
9030.000000;0.340137
9029.000000;0.340433
9028.000000;0.340661
9027.000000;0.340754
9026.000000;0.340702
9025.000000;0.340582
9024.000000;0.340548
9023.000000;0.340744
9022.000000;0.341177
9021.000000;0.341669
9020.000000;0.342007
9019.000000;0.342154
9018.000000;0.342254
9017.000000;0.342422
9016.000000;0.342637
9015.000000;0.342861
9014.000000;0.343161
9013.000000;0.343585
9012.000000;0.344011
9011.000000;0.344249
9010.000000;0.344273
9009.000000;0.344243
9008.000000;0.344294
9007.000000;0.344454
9006.000000;0.344745
9005.000000;0.345211
9004.000000;0.345758
9003.000000;0.346121
9002.000000;0.346118
9001.000000;0.345869
9000.000000;0.345653
8999.000000;0.345608
8998.000000;0.345687
8997.000000;0.345824
8996.000000;0.346006
8995.000000;0.346182
8994.000000;0.346269
8993.000000;0.346291
8992.000000;0.346394
8991.000000;0.346658
8990.000000;0.346988
8989.000000;0.347242
8988.000000;0.347402
8987.000000;0.347547
8986.000000;0.347714
8985.000000;0.347871
8984.000000;0.347997
8983.000000;0.348105
8982.000000;0.348210
8981.000000;0.348317
8980.000000;0.348449
8979.000000;0.348628
8978.000000;0.348828
8977.000000;0.348989
8976.000000;0.349068
8975.000000;0.349062
8974.000000;0.349002
8973.000000;0.348968
8972.000000;0.349073
8971.000000;0.349367
8970.000000;0.349741
8969.000000;0.349991
8968.000000;0.350008
8967.000000;0.349860
8966.000000;0.349683
8965.000000;0.349554
8964.000000;0.349504
8963.000000;0.349576
8962.000000;0.349779
8961.000000;0.350034
8960.000000;0.350232
8959.000000;0.350376
8958.000000;0.350572
8957.000000;0.350866
8956.000000;0.351136
8955.000000;0.351213
8954.000000;0.351078
8953.000000;0.350893
8952.000000;0.350844
8951.000000;0.350959
8950.000000;0.351114
8949.000000;0.351160
8948.000000;0.351054
8947.000000;0.350879
8946.000000;0.350763
8945.000000;0.350786
8944.000000;0.350942
8943.000000;0.351166
8942.000000;0.351397
8941.000000;0.351601
8940.000000;0.351761
8939.000000;0.351849
8938.000000;0.351854
8937.000000;0.351821
8936.000000;0.351830
8935.000000;0.351906
8934.000000;0.351983
8933.000000;0.351976
8932.000000;0.351908
8931.000000;0.351903
8930.000000;0.352058
8929.000000;0.352334
8928.000000;0.352577
8927.000000;0.352638
8926.000000;0.352481
8925.000000;0.352210
8924.000000;0.351992
8923.000000;0.351942
8922.000000;0.352043
8921.000000;0.352192
8920.000000;0.352302
8919.000000;0.352333
8918.000000;0.352251
8917.000000;0.352057
8916.000000;0.351874
8915.000000;0.351900
8914.000000;0.352184
8913.000000;0.352498
8912.000000;0.352544
8911.000000;0.352308
8910.000000;0.352097
8909.000000;0.352200
8908.000000;0.352570
8907.000000;0.352892
8906.000000;0.352905
8905.000000;0.352601
8904.000000;0.352184
8903.000000;0.351921
8902.000000;0.352020
8901.000000;0.352502
8900.000000;0.353129
8899.000000;0.353503
8898.000000;0.353364
8897.000000;0.352824
8896.000000;0.352276
8895.000000;0.352044
8894.000000;0.352135
8893.000000;0.352313
8892.000000;0.352351
8891.000000;0.352171
8890.000000;0.351820
8889.000000;0.351425
8888.000000;0.351190
8887.000000;0.351310
8886.000000;0.351776
8885.000000;0.352309
8884.000000;0.352596
8883.000000;0.352594
8882.000000;0.352529
8881.000000;0.352588
8880.000000;0.352705
8879.000000;0.352687
8878.000000;0.352472
8877.000000;0.352180
8876.000000;0.351943
8875.000000;0.351782
8874.000000;0.351666
8873.000000;0.351612
8872.000000;0.351665
8871.000000;0.351788
8870.000000;0.351877
8869.000000;0.351893
8868.000000;0.351940
8867.000000;0.352123
8866.000000;0.352344
8865.000000;0.352350
8864.000000;0.352027
8863.000000;0.351574
8862.000000;0.351299
8861.000000;0.351294
8860.000000;0.351378
8859.000000;0.351355
8858.000000;0.351195
8857.000000;0.350981
8856.000000;0.350786
8855.000000;0.350675
8854.000000;0.350724
8853.000000;0.350931
8852.000000;0.351169
8851.000000;0.351308
8850.000000;0.351359
8849.000000;0.351424
8848.000000;0.351519
8847.000000;0.351548
8846.000000;0.351460
8845.000000;0.351319
8844.000000;0.351203
8843.000000;0.351107
8842.000000;0.350991
8841.000000;0.350887
8840.000000;0.350881
8839.000000;0.350991
8838.000000;0.351118
8837.000000;0.351153
8836.000000;0.351092
8835.000000;0.351037
8834.000000;0.351069
8833.000000;0.351149
8832.000000;0.351159
8831.000000;0.351042
8830.000000;0.350872
8829.000000;0.350763
8828.000000;0.350758
8827.000000;0.350812
8826.000000;0.350894
8825.000000;0.351023
8824.000000;0.351197
8823.000000;0.351323
8822.000000;0.351269
8821.000000;0.350990
8820.000000;0.350602
8819.000000;0.350295
8818.000000;0.350196
8817.000000;0.350316
8816.000000;0.350617
8815.000000;0.351053
8814.000000;0.351538
8813.000000;0.351890
8812.000000;0.351914
8811.000000;0.351569
8810.000000;0.351018
8809.000000;0.350496
8808.000000;0.350164
8807.000000;0.350089
8806.000000;0.350294
8805.000000;0.350734
8804.000000;0.351243
8803.000000;0.351592
8802.000000;0.351630
8801.000000;0.351375
8800.000000;0.350971
8799.000000;0.350589
8798.000000;0.350348
8797.000000;0.350272
8796.000000;0.350285
8795.000000;0.350286
8794.000000;0.350252
8793.000000;0.350259
8792.000000;0.350383
8791.000000;0.350603
8790.000000;0.350807
8789.000000;0.350898
8788.000000;0.350863
8787.000000;0.350770
8786.000000;0.350700
8785.000000;0.350686
8784.000000;0.350715
8783.000000;0.350765
8782.000000;0.350843
8781.000000;0.350977
8780.000000;0.351174
8779.000000;0.351385
8778.000000;0.351507
8777.000000;0.351449
8776.000000;0.351226
8775.000000;0.350992
8774.000000;0.350930
8773.000000;0.351078
8772.000000;0.351284
8771.000000;0.351365
8770.000000;0.351301
8769.000000;0.351245
8768.000000;0.351364
8767.000000;0.351695
8766.000000;0.352129
8765.000000;0.352477
8764.000000;0.352579
8763.000000;0.352427
8762.000000;0.352205
8761.000000;0.352134
8760.000000;0.352266
8759.000000;0.352456
8758.000000;0.352544
8757.000000;0.352512
8756.000000;0.352431
8755.000000;0.352342
8754.000000;0.352243
8753.000000;0.352169
8752.000000;0.352175
8751.000000;0.352264
8750.000000;0.352378
8749.000000;0.352473
8748.000000;0.352561
8747.000000;0.352660
8746.000000;0.352726
8745.000000;0.352667
8744.000000;0.352432
8743.000000;0.352097
8742.000000;0.351869
8741.000000;0.351949
8740.000000;0.352339
8739.000000;0.352784
8738.000000;0.352975
8737.000000;0.352813
8736.000000;0.352462
8735.000000;0.352151
8734.000000;0.351974
8733.000000;0.351886
8732.000000;0.351818
8731.000000;0.351758
8730.000000;0.351751
8729.000000;0.351864
8728.000000;0.352116
8727.000000;0.352423
8726.000000;0.352644
8725.000000;0.352702
8724.000000;0.352651
8723.000000;0.352593
8722.000000;0.352573
8721.000000;0.352574
8720.000000;0.352566
8719.000000;0.352509
8718.000000;0.352360
8717.000000;0.352147
8716.000000;0.352010
8715.000000;0.352076
8714.000000;0.352283
8713.000000;0.352417
8712.000000;0.352347
8711.000000;0.352159
8710.000000;0.352032
8709.000000;0.352040
8708.000000;0.352120
8707.000000;0.352163
8706.000000;0.352110
8705.000000;0.351979
8704.000000;0.351866
8703.000000;0.351857
8702.000000;0.351926
8701.000000;0.351954
8700.000000;0.351885
8699.000000;0.351800
8698.000000;0.351777
8697.000000;0.351746
8696.000000;0.351577
8695.000000;0.351273
8694.000000;0.350992
8693.000000;0.350880
8692.000000;0.350948
8691.000000;0.351103
8690.000000;0.351217
8689.000000;0.351180
8688.000000;0.351000
8687.000000;0.350843
8686.000000;0.350877
8685.000000;0.351046
8684.000000;0.351096
8683.000000;0.350866
8682.000000;0.350458
8681.000000;0.350075
8680.000000;0.349787
8679.000000;0.349537
8678.000000;0.349307
8677.000000;0.349150
8676.000000;0.349075
8675.000000;0.349003
8674.000000;0.348840
8673.000000;0.348579
8672.000000;0.348302
8671.000000;0.348133
8670.000000;0.348127
8669.000000;0.348186
8668.000000;0.348107
8667.000000;0.347788
8666.000000;0.347359
8665.000000;0.347058
8664.000000;0.346983
8663.000000;0.347016
8662.000000;0.346963
8661.000000;0.346708
8660.000000;0.346250
8659.000000;0.345667
8658.000000;0.345073
8657.000000;0.344588
8656.000000;0.344284
8655.000000;0.344178
8654.000000;0.344227
8653.000000;0.344311
8652.000000;0.344264
8651.000000;0.343998
8650.000000;0.343597
8649.000000;0.343223
8648.000000;0.342931
8647.000000;0.342654
8646.000000;0.342364
8645.000000;0.342161
8644.000000;0.342133
8643.000000;0.342187
8642.000000;0.342114
8641.000000;0.341795
8640.000000;0.341310
8639.000000;0.340834
8638.000000;0.340481
8637.000000;0.340236
8636.000000;0.340024
8635.000000;0.339815
8634.000000;0.339650
8633.000000;0.339571
8632.000000;0.339526
8631.000000;0.339401
8630.000000;0.339134
8629.000000;0.338765
8628.000000;0.338349
8627.000000;0.337873
8626.000000;0.337334
8625.000000;0.336841
8624.000000;0.336561
8623.000000;0.336529
8622.000000;0.336563
8621.000000;0.336420
8620.000000;0.336027
8619.000000;0.335523
8618.000000;0.335093
8617.000000;0.334793
8616.000000;0.334538
8615.000000;0.334244
8614.000000;0.333909
8613.000000;0.333577
8612.000000;0.333262
8611.000000;0.332947
8610.000000;0.332658
8609.000000;0.332466
8608.000000;0.332407
8607.000000;0.332399
8606.000000;0.332290
8605.000000;0.331974
8604.000000;0.331474
8603.000000;0.330921
8602.000000;0.330465
8601.000000;0.330164
8600.000000;0.329931
8599.000000;0.329584
8598.000000;0.329000
8597.000000;0.328237
8596.000000;0.327516
8595.000000;0.327060
8594.000000;0.326941
8593.000000;0.327031
8592.000000;0.327093
8591.000000;0.326945
8590.000000;0.326598
8589.000000;0.326224
8588.000000;0.325974
8587.000000;0.325817
8586.000000;0.325586
8585.000000;0.325166
8584.000000;0.324595
8583.000000;0.323979
8582.000000;0.323386
8581.000000;0.322865
8580.000000;0.322492
8579.000000;0.322300
8578.000000;0.322192
8577.000000;0.321997
8576.000000;0.321650
8575.000000;0.321236
8574.000000;0.320864
8573.000000;0.320568
8572.000000;0.320347
8571.000000;0.320199
8570.000000;0.320069
8569.000000;0.319811
8568.000000;0.319334
8567.000000;0.318728
8566.000000;0.318190
8565.000000;0.317815
8564.000000;0.317535
8563.000000;0.317242
8562.000000;0.316907
8561.000000;0.316551
8560.000000;0.316183
8559.000000;0.315784
8558.000000;0.315335
8557.000000;0.314842
8556.000000;0.314379
8555.000000;0.314062
8554.000000;0.313943
8553.000000;0.313903
8552.000000;0.313744
8551.000000;0.313373
8550.000000;0.312868
8549.000000;0.312354
8548.000000;0.311899
8547.000000;0.311532
8546.000000;0.311270
8545.000000;0.311054
8544.000000;0.310758
8543.000000;0.310322
8542.000000;0.309829
8541.000000;0.309399
8540.000000;0.309062
8539.000000;0.308772
8538.000000;0.308500
8537.000000;0.308228
8536.000000;0.307915
8535.000000;0.307547
8534.000000;0.307206
8533.000000;0.306986
8532.000000;0.306863
8531.000000;0.306710
8530.000000;0.306429
8529.000000;0.306008
8528.000000;0.305484
8527.000000;0.304937
8526.000000;0.304510
8525.000000;0.304324
8524.000000;0.304330
8523.000000;0.304329
8522.000000;0.304157
8521.000000;0.303796
8520.000000;0.303311
8519.000000;0.302749
8518.000000;0.302152
8517.000000;0.301580
8516.000000;0.301067
8515.000000;0.300601
8514.000000;0.300189
8513.000000;0.299880
8512.000000;0.299695
8511.000000;0.299573
8510.000000;0.299453
8509.000000;0.299360
8508.000000;0.299329
8507.000000;0.299259
8506.000000;0.298948
8505.000000;0.298306
8504.000000;0.297495
8503.000000;0.296818
8502.000000;0.296472
8501.000000;0.296401
8500.000000;0.296376
8499.000000;0.296178
8498.000000;0.295750
8497.000000;0.295196
8496.000000;0.294653
8495.000000;0.294154
8494.000000;0.293631
8493.000000;0.293054
8492.000000;0.292554
8491.000000;0.292343
8490.000000;0.292473
8489.000000;0.292721
8488.000000;0.292765
8487.000000;0.292483
8486.000000;0.292001
8485.000000;0.291469
8484.000000;0.290909
8483.000000;0.290330
8482.000000;0.289870
8481.000000;0.289686
8480.000000;0.289715
8479.000000;0.289685
8478.000000;0.289382
8477.000000;0.288843
8476.000000;0.288266
8475.000000;0.287801
8474.000000;0.287461
8473.000000;0.287172
8472.000000;0.286845
8471.000000;0.286438
8470.000000;0.285978
8469.000000;0.285526
8468.000000;0.285119
8467.000000;0.284783
8466.000000;0.284560
8465.000000;0.284472
8464.000000;0.284434
8463.000000;0.284285
8462.000000;0.283941
8461.000000;0.283477
8460.000000;0.283031
8459.000000;0.282677
8458.000000;0.282411
8457.000000;0.282207
8456.000000;0.282029
8455.000000;0.281827
8454.000000;0.281563
8453.000000;0.281229
8452.000000;0.280821
8451.000000;0.280340
8450.000000;0.279850
8449.000000;0.279488
8448.000000;0.279345
8447.000000;0.279344
8446.000000;0.279295
8445.000000;0.279053
8444.000000;0.278598
8443.000000;0.277997
8442.000000;0.277360
8441.000000;0.276834
8440.000000;0.276536
8439.000000;0.276449
8438.000000;0.276407
8437.000000;0.276232
8436.000000;0.275887
8435.000000;0.275484
8434.000000;0.275146
8433.000000;0.274911
8432.000000;0.274740
8431.000000;0.274592
8430.000000;0.274449
8429.000000;0.274303
8428.000000;0.274134
8427.000000;0.273918
8426.000000;0.273633
8425.000000;0.273258
8424.000000;0.272802
8423.000000;0.272329
8422.000000;0.271931
8421.000000;0.271644
8420.000000;0.271411
8419.000000;0.271169
8418.000000;0.270932
8417.000000;0.270742
8416.000000;0.270575
8415.000000;0.270337
8414.000000;0.269976
8413.000000;0.269523
8412.000000;0.269036
8411.000000;0.268555
8410.000000;0.268129
8409.000000;0.267813
8408.000000;0.267599
8407.000000;0.267402
8406.000000;0.267156
8405.000000;0.266894
8404.000000;0.266700
8403.000000;0.266609
8402.000000;0.266577
8401.000000;0.266520
8400.000000;0.266347
8399.000000;0.265987
8398.000000;0.265447
8397.000000;0.264852
8396.000000;0.264384
8395.000000;0.264147
8394.000000;0.264090
8393.000000;0.264059
8392.000000;0.263922
8391.000000;0.263657
8390.000000;0.263340
8389.000000;0.263043
8388.000000;0.262760
8387.000000;0.262447
8386.000000;0.262099
8385.000000;0.261747
8384.000000;0.261403
8383.000000;0.261054
8382.000000;0.260717
8381.000000;0.260432
8380.000000;0.260194
8379.000000;0.259938
8378.000000;0.259630
8377.000000;0.259320
8376.000000;0.259072
8375.000000;0.258890
8374.000000;0.258723
8373.000000;0.258510
8372.000000;0.258195
8371.000000;0.257751
8370.000000;0.257243
8369.000000;0.256805
8368.000000;0.256511
8367.000000;0.256295
8366.000000;0.256046
8365.000000;0.255732
8364.000000;0.255404
8363.000000;0.255112
8362.000000;0.254883
8361.000000;0.254752
8360.000000;0.254741
8359.000000;0.254814
8358.000000;0.254904
8357.000000;0.254958
8356.000000;0.254924
8355.000000;0.254702
8354.000000;0.254212
8353.000000;0.253500
8352.000000;0.252743
8351.000000;0.252129
8350.000000;0.251765
8349.000000;0.251639
8348.000000;0.251627
8347.000000;0.251551
8346.000000;0.251316
8345.000000;0.251006
8344.000000;0.250768
8343.000000;0.250613
8342.000000;0.250413
8341.000000;0.250083
8340.000000;0.249697
8339.000000;0.249384
8338.000000;0.249175
8337.000000;0.249009
8336.000000;0.248832
8335.000000;0.248626
8334.000000;0.248381
8333.000000;0.248091
8332.000000;0.247785
8331.000000;0.247521
8330.000000;0.247329
8329.000000;0.247175
8328.000000;0.246979
8327.000000;0.246676
8326.000000;0.246270
8325.000000;0.245839
8324.000000;0.245476
8323.000000;0.245225
8322.000000;0.245065
8321.000000;0.244946
8320.000000;0.244818
8319.000000;0.244638
8318.000000;0.244373
8317.000000;0.244024
8316.000000;0.243627
8315.000000;0.243247
8314.000000;0.242965
8313.000000;0.242832
8312.000000;0.242814
8311.000000;0.242792
8310.000000;0.242670
8309.000000;0.242468
8308.000000;0.242265
8307.000000;0.242074
8306.000000;0.241817
8305.000000;0.241456
8304.000000;0.241067
8303.000000;0.240779
8302.000000;0.240644
8301.000000;0.240598
8300.000000;0.240524
8299.000000;0.240338
8298.000000;0.240043
8297.000000;0.239703
8296.000000;0.239369
8295.000000;0.239022
8294.000000;0.238639
8293.000000;0.238283
8292.000000;0.238080
8291.000000;0.238071
8290.000000;0.238148
8289.000000;0.238156
8288.000000;0.238025
8287.000000;0.237770
8286.000000;0.237418
8285.000000;0.237003
8284.000000;0.236594
8283.000000;0.236265
8282.000000;0.236035
8281.000000;0.235853
8280.000000;0.235662
8279.000000;0.235447
8278.000000;0.235236
8277.000000;0.235084
8276.000000;0.235037
8275.000000;0.235075
8274.000000;0.235101
8273.000000;0.235009
8272.000000;0.234790
8271.000000;0.234524
8270.000000;0.234288
8269.000000;0.234082
8268.000000;0.233861
8267.000000;0.233589
8266.000000;0.233271
8265.000000;0.232947
8264.000000;0.232674
8263.000000;0.232489
8262.000000;0.232376
8261.000000;0.232271
8260.000000;0.232124
8259.000000;0.231925
8258.000000;0.231666
8257.000000;0.231340
8256.000000;0.230985
8255.000000;0.230701
8254.000000;0.230545
8253.000000;0.230441
8252.000000;0.230246
8251.000000;0.229941
8250.000000;0.229679
8249.000000;0.229602
8248.000000;0.229663
8247.000000;0.229671
8246.000000;0.229516
8245.000000;0.229255
8244.000000;0.228997
8243.000000;0.228773
8242.000000;0.228555
8241.000000;0.228340
8240.000000;0.228165
8239.000000;0.228046
8238.000000;0.227952
8237.000000;0.227825
8236.000000;0.227618
8235.000000;0.227331
8234.000000;0.227026
8233.000000;0.226801
8232.000000;0.226703
8231.000000;0.226687
8230.000000;0.226677
8229.000000;0.226637
8228.000000;0.226558
8227.000000;0.226420
8226.000000;0.226203
8225.000000;0.225943
8224.000000;0.225702
8223.000000;0.225499
8222.000000;0.225297
8221.000000;0.225082
8220.000000;0.224898
8219.000000;0.224799
8218.000000;0.224796
8217.000000;0.224848
8216.000000;0.224872
8215.000000;0.224770
8214.000000;0.224502
8213.000000;0.224154
8212.000000;0.223877
8211.000000;0.223729
8210.000000;0.223633
8209.000000;0.223493
8208.000000;0.223299
8207.000000;0.223105
8206.000000;0.222944
8205.000000;0.222835
8204.000000;0.222804
8203.000000;0.222834
8202.000000;0.222823
8201.000000;0.222674
8200.000000;0.222415
8199.000000;0.222166
8198.000000;0.221997
8197.000000;0.221881
8196.000000;0.221776
8195.000000;0.221688
8194.000000;0.221608
8193.000000;0.221484
8192.000000;0.221290
8191.000000;0.221086
8190.000000;0.220959
8189.000000;0.220913
8188.000000;0.220874
8187.000000;0.220776
8186.000000;0.220605
8185.000000;0.220368
8184.000000;0.220085
8183.000000;0.219828
8182.000000;0.219700
8181.000000;0.219741
8180.000000;0.219865
8179.000000;0.219937
8178.000000;0.219904
8177.000000;0.219820
8176.000000;0.219762
8175.000000;0.219734
8174.000000;0.219683
8173.000000;0.219558
8172.000000;0.219358
8171.000000;0.219130
8170.000000;0.218932
8169.000000;0.218794
8168.000000;0.218693
8167.000000;0.218577
8166.000000;0.218418
8165.000000;0.218234
8164.000000;0.218063
8163.000000;0.217934
8162.000000;0.217868
8161.000000;0.217877
8160.000000;0.217934
8159.000000;0.217950
8158.000000;0.217842
8157.000000;0.217604
8156.000000;0.217317
8155.000000;0.217073
8154.000000;0.216916
8153.000000;0.216847
8152.000000;0.216825
8151.000000;0.216760
8150.000000;0.216563
8149.000000;0.216250
8148.000000;0.215962
8147.000000;0.215834
8146.000000;0.215853
8145.000000;0.215873
8144.000000;0.215776
8143.000000;0.215587
8142.000000;0.215417
8141.000000;0.215343
8140.000000;0.215341
8139.000000;0.215327
8138.000000;0.215247
8137.000000;0.215128
8136.000000;0.215039
8135.000000;0.215000
8134.000000;0.214961
8133.000000;0.214883
8132.000000;0.214814
8131.000000;0.214838
8130.000000;0.214957
8129.000000;0.215071
8128.000000;0.215095
8127.000000;0.215037
8126.000000;0.214942
8125.000000;0.214802
8124.000000;0.214591
8123.000000;0.214350
8122.000000;0.214185
8121.000000;0.214143
8120.000000;0.214152
8119.000000;0.214106
8118.000000;0.213975
8117.000000;0.213819
8116.000000;0.213710
8115.000000;0.213664
8114.000000;0.213645
8113.000000;0.213610
8112.000000;0.213544
8111.000000;0.213458
8110.000000;0.213354
8109.000000;0.213211
8108.000000;0.213014
8107.000000;0.212803
8106.000000;0.212653
8105.000000;0.212588
8104.000000;0.212548
8103.000000;0.212458
8102.000000;0.212326
8101.000000;0.212228
8100.000000;0.212217
8099.000000;0.212262
8098.000000;0.212297
8097.000000;0.212287
8096.000000;0.212234
8095.000000;0.212161
8094.000000;0.212107
8093.000000;0.212117
8092.000000;0.212201
8091.000000;0.212298
8090.000000;0.212311
8089.000000;0.212179
8088.000000;0.211928
8087.000000;0.211661
8086.000000;0.211486
8085.000000;0.211441
8084.000000;0.211460
8083.000000;0.211432
8082.000000;0.211317
8081.000000;0.211186
8080.000000;0.211135
8079.000000;0.211183
8078.000000;0.211265
8077.000000;0.211319
8076.000000;0.211329
8075.000000;0.211297
8074.000000;0.211229
8073.000000;0.211158
8072.000000;0.211147
8071.000000;0.211226
8070.000000;0.211351
8069.000000;0.211434
8068.000000;0.211413
8067.000000;0.211284
8066.000000;0.211096
8065.000000;0.210917
8064.000000;0.210788
8063.000000;0.210688
8062.000000;0.210573
8061.000000;0.210453
8060.000000;0.210404
8059.000000;0.210459
8058.000000;0.210525
8057.000000;0.210464
8056.000000;0.210252
8055.000000;0.210009
8054.000000;0.209878
8053.000000;0.209901
8052.000000;0.210024
8051.000000;0.210176
8050.000000;0.210303
8049.000000;0.210370
8048.000000;0.210364
8047.000000;0.210302
8046.000000;0.210215
8045.000000;0.210132
8044.000000;0.210073
8043.000000;0.210067
8042.000000;0.210116
8041.000000;0.210176
8040.000000;0.210182
8039.000000;0.210112
8038.000000;0.210010
8037.000000;0.209928
8036.000000;0.209871
8035.000000;0.209801
8034.000000;0.209696
8033.000000;0.209580
8032.000000;0.209496
8031.000000;0.209475
8030.000000;0.209521
8029.000000;0.209605
8028.000000;0.209669
8027.000000;0.209666
8026.000000;0.209615
8025.000000;0.209594
8024.000000;0.209639
8023.000000;0.209672
8022.000000;0.209577
8021.000000;0.209353
8020.000000;0.209154
8019.000000;0.209133
8018.000000;0.209276
8017.000000;0.209418
8016.000000;0.209424
8015.000000;0.209312
8014.000000;0.209195
8013.000000;0.209142
8012.000000;0.209134
8011.000000;0.209117
8010.000000;0.209075
8009.000000;0.209027
8008.000000;0.208989
8007.000000;0.208973
8006.000000;0.208996
8005.000000;0.209074
8004.000000;0.209180
8003.000000;0.209244
8002.000000;0.209223
8001.000000;0.209147
8000.000000;0.209089
7999.000000;0.209067
7998.000000;0.209030
7997.000000;0.208935
7996.000000;0.208808
7995.000000;0.208709
7994.000000;0.208655
7993.000000;0.208619
7992.000000;0.208584
7991.000000;0.208562
7990.000000;0.208559
7989.000000;0.208555
7988.000000;0.208524
7987.000000;0.208469
7986.000000;0.208427
7985.000000;0.208435
7984.000000;0.208502
7983.000000;0.208583
7982.000000;0.208607
7981.000000;0.208546
7980.000000;0.208460
7979.000000;0.208426
7978.000000;0.208438
7977.000000;0.208414
7976.000000;0.208322
7975.000000;0.208258
7974.000000;0.208333
7973.000000;0.208525
7972.000000;0.208686
7971.000000;0.208690
7970.000000;0.208552
7969.000000;0.208387
7968.000000;0.208296
7967.000000;0.208297
7966.000000;0.208334
7965.000000;0.208341
7964.000000;0.208305
7963.000000;0.208275
7962.000000;0.208306
7961.000000;0.208393
7960.000000;0.208482
7959.000000;0.208535
7958.000000;0.208560
7957.000000;0.208562
7956.000000;0.208523
7955.000000;0.208456
7954.000000;0.208427
7953.000000;0.208490
7952.000000;0.208588
7951.000000;0.208602
7950.000000;0.208495
7949.000000;0.208361
7948.000000;0.208314
7947.000000;0.208362
7946.000000;0.208429
7945.000000;0.208452
7944.000000;0.208435
7943.000000;0.208414
7942.000000;0.208410
7941.000000;0.208407
7940.000000;0.208382
7939.000000;0.208334
7938.000000;0.208312
7937.000000;0.208364
7936.000000;0.208474
7935.000000;0.208550
7934.000000;0.208528
7933.000000;0.208445
7932.000000;0.208391
7931.000000;0.208401
7930.000000;0.208435
7929.000000;0.208460
7928.000000;0.208486
7927.000000;0.208529
7926.000000;0.208562
7925.000000;0.208554
7924.000000;0.208507
7923.000000;0.208440
7922.000000;0.208376
7921.000000;0.208352
7920.000000;0.208409
7919.000000;0.208536
7918.000000;0.208662
7917.000000;0.208721
7916.000000;0.208717
7915.000000;0.208684
7914.000000;0.208641
7913.000000;0.208600
7912.000000;0.208600
7911.000000;0.208652
7910.000000;0.208698
7909.000000;0.208671
7908.000000;0.208603
7907.000000;0.208602
7906.000000;0.208723
7905.000000;0.208901
7904.000000;0.209036
7903.000000;0.209074
7902.000000;0.209016
7901.000000;0.208892
7900.000000;0.208774
7899.000000;0.208744
7898.000000;0.208813
7897.000000;0.208909
7896.000000;0.208973
7895.000000;0.209022
7894.000000;0.209084
7893.000000;0.209114
7892.000000;0.209051
7891.000000;0.208932
7890.000000;0.208867
7889.000000;0.208902
7888.000000;0.208959
7887.000000;0.208951
7886.000000;0.208889
7885.000000;0.208862
7884.000000;0.208925
7883.000000;0.209057
7882.000000;0.209197
7881.000000;0.209299
7880.000000;0.209352
7879.000000;0.209368
7878.000000;0.209353
7877.000000;0.209302
7876.000000;0.209217
7875.000000;0.209130
7874.000000;0.209090
7873.000000;0.209120
7872.000000;0.209204
7871.000000;0.209318
7870.000000;0.209457
7869.000000;0.209616
7868.000000;0.209768
7867.000000;0.209883
7866.000000;0.209972
7865.000000;0.210065
7864.000000;0.210159
7863.000000;0.210198
7862.000000;0.210136
7861.000000;0.210004
7860.000000;0.209891
7859.000000;0.209871
7858.000000;0.209943
7857.000000;0.210052
7856.000000;0.210150
7855.000000;0.210229
7854.000000;0.210306
7853.000000;0.210392
7852.000000;0.210463
7851.000000;0.210475
7850.000000;0.210406
7849.000000;0.210287
7848.000000;0.210186
7847.000000;0.210142
7846.000000;0.210142
7845.000000;0.210163
7844.000000;0.210222
7843.000000;0.210360
7842.000000;0.210581
7841.000000;0.210823
7840.000000;0.211011
7839.000000;0.211111
7838.000000;0.211143
7837.000000;0.211147
7836.000000;0.211157
7835.000000;0.211178
7834.000000;0.211198
7833.000000;0.211221
7832.000000;0.211281
7831.000000;0.211396
7830.000000;0.211522
7829.000000;0.211588
7828.000000;0.211586
7827.000000;0.211583
7826.000000;0.211635
7825.000000;0.211724
7824.000000;0.211807
7823.000000;0.211877
7822.000000;0.211953
7821.000000;0.212027
7820.000000;0.212078
7819.000000;0.212115
7818.000000;0.212162
7817.000000;0.212212
7816.000000;0.212230
7815.000000;0.212199
7814.000000;0.212153
7813.000000;0.212140
7812.000000;0.212178
7811.000000;0.212249
7810.000000;0.212311
7809.000000;0.212327
7808.000000;0.212307
7807.000000;0.212319
7806.000000;0.212421
7805.000000;0.212583
7804.000000;0.212723
7803.000000;0.212797
7802.000000;0.212843
7801.000000;0.212905
7800.000000;0.212982
7799.000000;0.213062
7798.000000;0.213165
7797.000000;0.213310
7796.000000;0.213459
7795.000000;0.213538
7794.000000;0.213527
7793.000000;0.213496
7792.000000;0.213534
7791.000000;0.213658
7790.000000;0.213820
7789.000000;0.213971
7788.000000;0.214089
7787.000000;0.214174
7786.000000;0.214217
7785.000000;0.214220
7784.000000;0.214207
7783.000000;0.214213
7782.000000;0.214250
7781.000000;0.214315
7780.000000;0.214396
7779.000000;0.214483
7778.000000;0.214564
7777.000000;0.214646
7776.000000;0.214763
7775.000000;0.214944
7774.000000;0.215153
7773.000000;0.215309
7772.000000;0.215373
7771.000000;0.215389
7770.000000;0.215434
7769.000000;0.215540
7768.000000;0.215687
7767.000000;0.215836
7766.000000;0.215947
7765.000000;0.215994
7764.000000;0.215986
7763.000000;0.215981
7762.000000;0.216028
7761.000000;0.216115
7760.000000;0.216198
7759.000000;0.216263
7758.000000;0.216349
7757.000000;0.216495
7756.000000;0.216696
7755.000000;0.216901
7754.000000;0.217039
7753.000000;0.217066
7752.000000;0.217008
7751.000000;0.216949
7750.000000;0.216961
7749.000000;0.217042
7748.000000;0.217156
7747.000000;0.217295
7746.000000;0.217472
7745.000000;0.217671
7744.000000;0.217845
7743.000000;0.217976
7742.000000;0.218093
7741.000000;0.218210
7740.000000;0.218314
7739.000000;0.218406
7738.000000;0.218523
7737.000000;0.218689
7736.000000;0.218868
7735.000000;0.219004
7734.000000;0.219099
7733.000000;0.219205
7732.000000;0.219348
7731.000000;0.219488
7730.000000;0.219572
7729.000000;0.219609
7728.000000;0.219679
7727.000000;0.219846
7726.000000;0.220078
7725.000000;0.220264
7724.000000;0.220320
7723.000000;0.220273
7722.000000;0.220226
7721.000000;0.220260
7720.000000;0.220384
7719.000000;0.220543
7718.000000;0.220671
7717.000000;0.220726
7716.000000;0.220730
7715.000000;0.220752
7714.000000;0.220836
7713.000000;0.220962
7712.000000;0.221093
7711.000000;0.221255
7710.000000;0.221502
7709.000000;0.221820
7708.000000;0.222116
7707.000000;0.222309
7706.000000;0.222402
7705.000000;0.222449
7704.000000;0.222508
7703.000000;0.222620
7702.000000;0.222803
7701.000000;0.223019
7700.000000;0.223187
7699.000000;0.223256
7698.000000;0.223264
7697.000000;0.223296
7696.000000;0.223402
7695.000000;0.223567
7694.000000;0.223742
7693.000000;0.223901
7692.000000;0.224066
7691.000000;0.224269
7690.000000;0.224502
7689.000000;0.224708
7688.000000;0.224848
7687.000000;0.224957
7686.000000;0.225088
7685.000000;0.225228
7684.000000;0.225316
7683.000000;0.225353
7682.000000;0.225425
7681.000000;0.225596
7680.000000;0.225826
7679.000000;0.226029
7678.000000;0.226168
7677.000000;0.226265
7676.000000;0.226345
7675.000000;0.226427
7674.000000;0.226555
7673.000000;0.226774
7672.000000;0.227076
7671.000000;0.227394
7670.000000;0.227658
7669.000000;0.227838
7668.000000;0.227949
7667.000000;0.228041
7666.000000;0.228175
7665.000000;0.228387
7664.000000;0.228659
7663.000000;0.228927
7662.000000;0.229117
7661.000000;0.229185
7660.000000;0.229158
7659.000000;0.229128
7658.000000;0.229193
7657.000000;0.229383
7656.000000;0.229650
7655.000000;0.229921
7654.000000;0.230155
7653.000000;0.230333
7652.000000;0.230458
7651.000000;0.230578
7650.000000;0.230771
7649.000000;0.231062
7648.000000;0.231377
7647.000000;0.231616
7646.000000;0.231759
7645.000000;0.231869
7644.000000;0.232005
7643.000000;0.232174
7642.000000;0.232361
7641.000000;0.232570
7640.000000;0.232814
7639.000000;0.233087
7638.000000;0.233371
7637.000000;0.233648
7636.000000;0.233894
7635.000000;0.234093
7634.000000;0.234256
7633.000000;0.234430
7632.000000;0.234652
7631.000000;0.234914
7630.000000;0.235165
7629.000000;0.235380
7628.000000;0.235577
7627.000000;0.235782
7626.000000;0.235993
7625.000000;0.236190
7624.000000;0.236386
7623.000000;0.236615
7622.000000;0.236879
7621.000000;0.237128
7620.000000;0.237325
7619.000000;0.237489
7618.000000;0.237666
7617.000000;0.237868
7616.000000;0.238083
7615.000000;0.238321
7614.000000;0.238596
7613.000000;0.238896
7612.000000;0.239182
7611.000000;0.239439
7610.000000;0.239674
7609.000000;0.239876
7608.000000;0.240042
7607.000000;0.240228
7606.000000;0.240529
7605.000000;0.240957
7604.000000;0.241405
7603.000000;0.241748
7602.000000;0.241958
7601.000000;0.242095
7600.000000;0.242217
7599.000000;0.242355
7598.000000;0.242543
7597.000000;0.242824
7596.000000;0.243198
7595.000000;0.243601
7594.000000;0.243958
7593.000000;0.244245
7592.000000;0.244492
7591.000000;0.244729
7590.000000;0.244960
7589.000000;0.245177
7588.000000;0.245399
7587.000000;0.245664
7586.000000;0.245984
7585.000000;0.246318
7584.000000;0.246623
7583.000000;0.246902
7582.000000;0.247183
7581.000000;0.247481
7580.000000;0.247795
7579.000000;0.248136
7578.000000;0.248504
7577.000000;0.248863
7576.000000;0.249170
7575.000000;0.249435
7574.000000;0.249706
7573.000000;0.249996
7572.000000;0.250267
7571.000000;0.250502
7570.000000;0.250737
7569.000000;0.251013
7568.000000;0.251331
7567.000000;0.251654
7566.000000;0.251939
7565.000000;0.252168
7564.000000;0.252377
7563.000000;0.252650
7562.000000;0.253032
7561.000000;0.253467
7560.000000;0.253858
7559.000000;0.254193
7558.000000;0.254538
7557.000000;0.254926
7556.000000;0.255318
7555.000000;0.255680
7554.000000;0.256029
7553.000000;0.256375
7552.000000;0.256688
7551.000000;0.256969
7550.000000;0.257274
7549.000000;0.257636
7548.000000;0.258009
7547.000000;0.258351
7546.000000;0.258699
7545.000000;0.259100
7544.000000;0.259523
7543.000000;0.259893
7542.000000;0.260188
7541.000000;0.260454
7540.000000;0.260738
7539.000000;0.261055
7538.000000;0.261400
7537.000000;0.261748
7536.000000;0.262069
7535.000000;0.262362
7534.000000;0.262678
7533.000000;0.263052
7532.000000;0.263467
7531.000000;0.263894
7530.000000;0.264344
7529.000000;0.264836
7528.000000;0.265339
7527.000000;0.265800
7526.000000;0.266203
7525.000000;0.266568
7524.000000;0.266913
7523.000000;0.267244
7522.000000;0.267576
7521.000000;0.267916
7520.000000;0.268245
7519.000000;0.268559
7518.000000;0.268892
7517.000000;0.269264
7516.000000;0.269649
7515.000000;0.270026
7514.000000;0.270427
7513.000000;0.270883
7512.000000;0.271357
7511.000000;0.271784
7510.000000;0.272163
7509.000000;0.272550
7508.000000;0.272966
7507.000000;0.273381
7506.000000;0.273783
7505.000000;0.274194
7504.000000;0.274618
7503.000000;0.275016
7502.000000;0.275363
7501.000000;0.275709
7500.000000;0.276108
7499.000000;0.276567
7498.000000;0.277046
7497.000000;0.277492
7496.000000;0.277889
7495.000000;0.278254
7494.000000;0.278609
7493.000000;0.278971
7492.000000;0.279361
7491.000000;0.279801
7490.000000;0.280287
7489.000000;0.280768
7488.000000;0.281186
7487.000000;0.281551
7486.000000;0.281926
7485.000000;0.282350
7484.000000;0.282790
7483.000000;0.283198
7482.000000;0.283582
7481.000000;0.283983
7480.000000;0.284410
7479.000000;0.284837
7478.000000;0.285236
7477.000000;0.285605
7476.000000;0.285962
7475.000000;0.286337
7474.000000;0.286744
7473.000000;0.287168
7472.000000;0.287597
7471.000000;0.288047
7470.000000;0.288548
7469.000000;0.289070
7468.000000;0.289535
7467.000000;0.289915
7466.000000;0.290266
7465.000000;0.290658
7464.000000;0.291095
7463.000000;0.291546
7462.000000;0.292000
7461.000000;0.292464
7460.000000;0.292924
7459.000000;0.293369
7458.000000;0.293808
7457.000000;0.294237
7456.000000;0.294625
7455.000000;0.294959
7454.000000;0.295273
7453.000000;0.295608
7452.000000;0.295974
7451.000000;0.296368
7450.000000;0.296788
7449.000000;0.297221
7448.000000;0.297657
7447.000000;0.298121
7446.000000;0.298656
7445.000000;0.299240
7444.000000;0.299787
7443.000000;0.300238
7442.000000;0.300617
7441.000000;0.300968
7440.000000;0.301300
7439.000000;0.301633
7438.000000;0.302026
7437.000000;0.302508
7436.000000;0.303011
7435.000000;0.303449
7434.000000;0.303822
7433.000000;0.304194
7432.000000;0.304604
7431.000000;0.305038
7430.000000;0.305454
7429.000000;0.305816
7428.000000;0.306135
7427.000000;0.306489
7426.000000;0.306947
7425.000000;0.307478
7424.000000;0.307987
7423.000000;0.308431
7422.000000;0.308856
7421.000000;0.309306
7420.000000;0.309751
7419.000000;0.310131
7418.000000;0.310432
7417.000000;0.310683
7416.000000;0.310941
7415.000000;0.311269
7414.000000;0.311711
7413.000000;0.312231
7412.000000;0.312731
7411.000000;0.313168
7410.000000;0.313595
7409.000000;0.314040
7408.000000;0.314441
7407.000000;0.314747
7406.000000;0.315022
7405.000000;0.315385
7404.000000;0.315878
7403.000000;0.316416
7402.000000;0.316911
7401.000000;0.317343
7400.000000;0.317726
7399.000000;0.318106
7398.000000;0.318551
7397.000000;0.319019
7396.000000;0.319394
7395.000000;0.319696
7394.000000;0.320029
7393.000000;0.320326
7392.000000;0.320363
7391.000000;0.320141
7390.000000;0.320033
7389.000000;0.320383
7388.000000;0.321150
7387.000000;0.322087
7386.000000;0.323029
7385.000000;0.323845
7384.000000;0.324387
7383.000000;0.324650
7382.000000;0.324851
7381.000000;0.325244
7380.000000;0.325852
7379.000000;0.326474
7378.000000;0.326892
7377.000000;0.327041
7376.000000;0.327100
7375.000000;0.327371
7374.000000;0.327972
7373.000000;0.328693
7372.000000;0.329193
7371.000000;0.329342
7370.000000;0.329365
7369.000000;0.329529
7368.000000;0.329874
7367.000000;0.330408
7366.000000;0.331214
7365.000000;0.332096
7364.000000;0.332590
7363.000000;0.332544
7362.000000;0.332353
7361.000000;0.332582
7360.000000;0.333402
7359.000000;0.334450
7358.000000;0.335164
7357.000000;0.335285
7356.000000;0.335098
7355.000000;0.335196
7354.000000;0.335986
7353.000000;0.337283
7352.000000;0.338457
7351.000000;0.339011
7350.000000;0.339034
7349.000000;0.339034
7348.000000;0.339360
7347.000000;0.339880
7346.000000;0.340239
7345.000000;0.340361
7344.000000;0.340564
7343.000000;0.341245
7342.000000;0.342424
7341.000000;0.343703
7340.000000;0.344638
7339.000000;0.345149
7338.000000;0.345486
7337.000000;0.345805
7336.000000;0.346056
7335.000000;0.346246
7334.000000;0.346577
7333.000000;0.347250
7332.000000;0.348186
7331.000000;0.348963
7330.000000;0.349204
7329.000000;0.349114
7328.000000;0.349387
7327.000000;0.350310
7326.000000;0.351378
7325.000000;0.352017
7324.000000;0.352198
7323.000000;0.352318
7322.000000;0.352769
7321.000000;0.353651
7320.000000;0.354734
7319.000000;0.355716
7318.000000;0.356613
7317.000000;0.357654
7316.000000;0.358828
7315.000000;0.359778
7314.000000;0.360203
7313.000000;0.360401
7312.000000;0.361101
7311.000000;0.362520
7310.000000;0.363934
7309.000000;0.364484
7308.000000;0.364200
7307.000000;0.363904
7306.000000;0.364295
7305.000000;0.365504
7304.000000;0.367175
7303.000000;0.368607
7302.000000;0.369225
7301.000000;0.369132
7300.000000;0.369148
7299.000000;0.370080
7298.000000;0.371840
7297.000000;0.373507
7296.000000;0.374325
7295.000000;0.374567
7294.000000;0.375143
7293.000000;0.376507
7292.000000;0.378349
7291.000000;0.380126
7290.000000;0.381590
7289.000000;0.382882
7288.000000;0.384250
7287.000000;0.385664
7286.000000;0.386822
7285.000000;0.387627
7284.000000;0.388371
7283.000000;0.389330
7282.000000;0.390506
7281.000000;0.391746
7280.000000;0.392996
7279.000000;0.394329
7278.000000;0.395740
7277.000000;0.397145
7276.000000;0.398561
7275.000000;0.400058
7274.000000;0.401599
7273.000000;0.403118
7272.000000;0.404644
7271.000000;0.406222
7270.000000;0.407799
7269.000000;0.409340
7268.000000;0.410927
7267.000000;0.412637
7266.000000;0.414418
7265.000000;0.416219
7264.000000;0.418148
7263.000000;0.420270
7262.000000;0.422371
7261.000000;0.424150
7260.000000;0.425606
7259.000000;0.427052
7258.000000;0.428784
7257.000000;0.430858
7256.000000;0.433131
7255.000000;0.435433
7254.000000;0.437730
7253.000000;0.440049
7252.000000;0.442302
7251.000000;0.444413
7250.000000;0.446423
7249.000000;0.448449
7248.000000;0.450709
7247.000000;0.453286
7246.000000;0.455883
7245.000000;0.458124
7244.000000;0.460157
7243.000000;0.462601
7242.000000;0.465707
7241.000000;0.468961
7240.000000;0.471763
7239.000000;0.474073
7238.000000;0.476364
7237.000000;0.479125
7236.000000;0.482337
7235.000000;0.485494
7234.000000;0.488282
7233.000000;0.490901
7232.000000;0.493665
7231.000000;0.496656
7230.000000;0.499685
7229.000000;0.502541
7228.000000;0.505325
7227.000000;0.508300
7226.000000;0.511488
7225.000000;0.514693
7224.000000;0.517846
7223.000000;0.521030
7222.000000;0.524230
7221.000000;0.527426
7220.000000;0.530780
7219.000000;0.534402
7218.000000;0.538138
7217.000000;0.541803
7216.000000;0.545414
7215.000000;0.549041
7214.000000;0.552688
7213.000000;0.556396
7212.000000;0.560278
7211.000000;0.564388
7210.000000;0.568621
7209.000000;0.572862
7208.000000;0.577166
7207.000000;0.581605
7206.000000;0.586091
7205.000000;0.590558
7204.000000;0.595127
7203.000000;0.599840
7202.000000;0.604445
7201.000000;0.608741
7200.000000;0.612908
7199.000000;0.617226
7198.000000;0.621694
7197.000000;0.626176
7196.000000;0.630736
7195.000000;0.635551
7194.000000;0.640600
7193.000000;0.645727
7192.000000;0.650911
7191.000000;0.656220
7190.000000;0.661560
7189.000000;0.666799
7188.000000;0.672007
7187.000000;0.677369
7186.000000;0.682885
7185.000000;0.688240
7184.000000;0.693131
7183.000000;0.697680
7182.000000;0.702439
7181.000000;0.707907
7180.000000;0.714118
7179.000000;0.720635
7178.000000;0.726906
7177.000000;0.732730
7176.000000;0.738365
7175.000000;0.744101
7174.000000;0.749950
7173.000000;0.755826
7172.000000;0.761781
7171.000000;0.767899
7170.000000;0.774116
7169.000000;0.780371
7168.000000;0.786630
7167.000000;0.792846
7166.000000;0.799032
7165.000000;0.805166
7164.000000;0.811043
7163.000000;0.816453
7162.000000;0.821653
7161.000000;0.827375
7160.000000;0.834123
7159.000000;0.841578
7158.000000;0.848896
7157.000000;0.855565
7156.000000;0.861782
7155.000000;0.867943
7154.000000;0.874184
7153.000000;0.880508
7152.000000;0.886904
7151.000000;0.893349
7150.000000;0.899817
7149.000000;0.906244
7148.000000;0.912455
7147.000000;0.918364
7146.000000;0.924216
7145.000000;0.930473
7144.000000;0.937348
7143.000000;0.944435
7142.000000;0.951040
7141.000000;0.956947
7140.000000;0.962694
7139.000000;0.968965
7138.000000;0.975829
7137.000000;0.982792
7136.000000;0.989408
7135.000000;0.995604
7134.000000;1.001571
7133.000000;1.007582
7132.000000;1.013811
7131.000000;1.020234
7130.000000;1.026707
7129.000000;1.033133
7128.000000;1.039533
7127.000000;1.045924
7126.000000;1.052205
7125.000000;1.058298
7124.000000;1.064319
7123.000000;1.070523
7122.000000;1.076993
7121.000000;1.083435
7120.000000;1.089389
7119.000000;1.094674
7118.000000;1.099620
7117.000000;1.104789
7116.000000;1.110452
7115.000000;1.116385
7114.000000;1.122215
7113.000000;1.127873
7112.000000;1.133622
7111.000000;1.139594
7110.000000;1.145537
7109.000000;1.151135
7108.000000;1.156346
7107.000000;1.161330
7106.000000;1.166344
7105.000000;1.171602
7104.000000;1.177015
7103.000000;1.182250
7102.000000;1.187131
7101.000000;1.191868
7100.000000;1.196794
7099.000000;1.201842
7098.000000;1.206508
7097.000000;1.210519
7096.000000;1.214345
7095.000000;1.218785
7094.000000;1.224147
7093.000000;1.230023
7092.000000;1.235738
7091.000000;1.240805
7090.000000;1.245080
7089.000000;1.248823
7088.000000;1.252596
7087.000000;1.256841
7086.000000;1.261501
7085.000000;1.266098
7084.000000;1.270178
7083.000000;1.273688
7082.000000;1.276955
7081.000000;1.280397
7080.000000;1.284272
7079.000000;1.288526
7078.000000;1.292814
7077.000000;1.296877
7076.000000;1.300788
7075.000000;1.304630
7074.000000;1.308149
7073.000000;1.311043
7072.000000;1.313548
7071.000000;1.316382
7070.000000;1.319996
7069.000000;1.324136
7068.000000;1.328231
7067.000000;1.332016
7066.000000;1.335643
7065.000000;1.339245
7064.000000;1.342555
7063.000000;1.345143
7062.000000;1.346996
7061.000000;1.348648
7060.000000;1.350705
7059.000000;1.353374
7058.000000;1.356496
7057.000000;1.359933
7056.000000;1.363638
7055.000000;1.367287
7054.000000;1.370275
7053.000000;1.372302
7052.000000;1.373681
7051.000000;1.374891
7050.000000;1.376130
7049.000000;1.377490
7048.000000;1.379257
7047.000000;1.381670
7046.000000;1.384511
7045.000000;1.387266
7044.000000;1.389651
7043.000000;1.391785
7042.000000;1.393912
7041.000000;1.396124
7040.000000;1.398370
7039.000000;1.400605
7038.000000;1.402876
7037.000000;1.405312
7036.000000;1.407982
7035.000000;1.410684
7034.000000;1.412996
7033.000000;1.414659
7032.000000;1.415859
7031.000000;1.417048
7030.000000;1.418510
7029.000000;1.420131
7028.000000;1.421588
7027.000000;1.422793
7026.000000;1.424100
7025.000000;1.425882
7024.000000;1.427846
7023.000000;1.429055
7022.000000;1.429022
7021.000000;1.428543
7020.000000;1.428966
7019.000000;1.430751
7018.000000;1.433191
7017.000000;1.435440
7016.000000;1.437247
7015.000000;1.438662
7014.000000;1.439691
7013.000000;1.440483
7012.000000;1.441315
7011.000000;1.442111
7010.000000;1.442502
7009.000000;1.442637
7008.000000;1.443329
7007.000000;1.444977
7006.000000;1.446837
7005.000000;1.447953
7004.000000;1.448393
7003.000000;1.448900
7002.000000;1.449622
7001.000000;1.450009
7000.000000;1.449910
6999.000000;1.450030
6998.000000;1.451086
6997.000000;1.452973
6996.000000;1.454964
6995.000000;1.456387
6994.000000;1.456942
6993.000000;1.456698
6992.000000;1.456062
6991.000000;1.455593
6990.000000;1.455680
6989.000000;1.456396
6988.000000;1.457573
6987.000000;1.458901
6986.000000;1.459988
6985.000000;1.460555
6984.000000;1.460669
6983.000000;1.460738
6982.000000;1.461177
6981.000000;1.462114
6980.000000;1.463346
6979.000000;1.464484
6978.000000;1.465123
6977.000000;1.465046
6976.000000;1.464372
6975.000000;1.463551
6974.000000;1.463113
6973.000000;1.463325
6972.000000;1.463978
6971.000000;1.464497
6970.000000;1.464431
6969.000000;1.463874
6968.000000;1.463335
6967.000000;1.463245
6966.000000;1.463689
6965.000000;1.464509
6964.000000;1.465435
6963.000000;1.466121
6962.000000;1.466281
6961.000000;1.465981
6960.000000;1.465678
6959.000000;1.465862
6958.000000;1.466594
6957.000000;1.467360
6956.000000;1.467354
6955.000000;1.466128
6954.000000;1.464179
6953.000000;1.462707
6952.000000;1.462547
6951.000000;1.463361
6950.000000;1.464085
6949.000000;1.464097
6948.000000;1.463640
6947.000000;1.463175
6946.000000;1.462833
6945.000000;1.462553
6944.000000;1.462300
6943.000000;1.461980
6942.000000;1.461469
6941.000000;1.460907
6940.000000;1.460642
6939.000000;1.460744
6938.000000;1.460890
6937.000000;1.460855
6936.000000;1.460719
6935.000000;1.460408
6934.000000;1.459472
6933.000000;1.457740
6932.000000;1.455886
6931.000000;1.454873
6930.000000;1.454917
6929.000000;1.455361
6928.000000;1.455460
6927.000000;1.454992
6926.000000;1.454198
6925.000000;1.453492
6924.000000;1.453206
6923.000000;1.453377
6922.000000;1.453717
6921.000000;1.453891
6920.000000;1.453818
6919.000000;1.453643
6918.000000;1.453459
6917.000000;1.453158
6916.000000;1.452531
6915.000000;1.451468
6914.000000;1.450110
6913.000000;1.448842
6912.000000;1.448035
6911.000000;1.447717
6910.000000;1.447558
6909.000000;1.447217
6908.000000;1.446620
6907.000000;1.445872
6906.000000;1.445069
6905.000000;1.444270
6904.000000;1.443485
6903.000000;1.442651
6902.000000;1.441764
6901.000000;1.441032
6900.000000;1.440716
6899.000000;1.440776
6898.000000;1.440852
6897.000000;1.440679
6896.000000;1.440317
6895.000000;1.439880
6894.000000;1.439259
6893.000000;1.438286
6892.000000;1.437040
6891.000000;1.435795
6890.000000;1.434736
6889.000000;1.433850
6888.000000;1.433066
6887.000000;1.432393
6886.000000;1.431931
6885.000000;1.431743
6884.000000;1.431698
6883.000000;1.431460
6882.000000;1.430778
6881.000000;1.429761
6880.000000;1.428767
6879.000000;1.428028
6878.000000;1.427507
6877.000000;1.427090
6876.000000;1.426699
6875.000000;1.426197
6874.000000;1.425420
6873.000000;1.424413
6872.000000;1.423444
6871.000000;1.422714
6870.000000;1.422158
6869.000000;1.421605
6868.000000;1.420984
6867.000000;1.420295
6866.000000;1.419535
6865.000000;1.418723
6864.000000;1.417887
6863.000000;1.416948
6862.000000;1.415810
6861.000000;1.414586
6860.000000;1.413532
6859.000000;1.412676
6858.000000;1.411708
6857.000000;1.410368
6856.000000;1.408802
6855.000000;1.407367
6854.000000;1.406242
6853.000000;1.405350
6852.000000;1.404507
6851.000000;1.403513
6850.000000;1.402267
6849.000000;1.400922
6848.000000;1.399805
6847.000000;1.399019
6846.000000;1.398260
6845.000000;1.397169
6844.000000;1.395743
6843.000000;1.394217
6842.000000;1.392672
6841.000000;1.390975
6840.000000;1.389084
6839.000000;1.387205
6838.000000;1.385582
6837.000000;1.384239
6836.000000;1.382993
6835.000000;1.381606
6834.000000;1.379872
6833.000000;1.377663
6832.000000;1.375043
6831.000000;1.372379
6830.000000;1.370201
6829.000000;1.368785
6828.000000;1.367827
6827.000000;1.366665
6826.000000;1.364882
6825.000000;1.362553
6824.000000;1.359898
6823.000000;1.356986
6822.000000;1.353980
6821.000000;1.351336
6820.000000;1.349363
6819.000000;1.347716
6818.000000;1.345730
6817.000000;1.343239
6816.000000;1.340722
6815.000000;1.338613
6814.000000;1.336857
6813.000000;1.335225
6812.000000;1.333650
6811.000000;1.332059
6810.000000;1.330222
6809.000000;1.328023
6808.000000;1.325661
6807.000000;1.323336
6806.000000;1.320936
6805.000000;1.318264
6804.000000;1.315427
6803.000000;1.312724
6802.000000;1.310261
6801.000000;1.307894
6800.000000;1.305518
6799.000000;1.303166
6798.000000;1.300841
6797.000000;1.298456
6796.000000;1.295970
6795.000000;1.293407
6794.000000;1.290705
6793.000000;1.287715
6792.000000;1.284464
6791.000000;1.281335
6790.000000;1.278821
6789.000000;1.277015
6788.000000;1.275426
6787.000000;1.273417
6786.000000;1.270808
6785.000000;1.267947
6784.000000;1.265200
6783.000000;1.262576
6782.000000;1.259910
6781.000000;1.257174
6780.000000;1.254389
6779.000000;1.251415
6778.000000;1.248116
6777.000000;1.244683
6776.000000;1.241494
6775.000000;1.238654
6774.000000;1.235917
6773.000000;1.233111
6772.000000;1.230371
6771.000000;1.227853
6770.000000;1.225436
6769.000000;1.222853
6768.000000;1.219997
6767.000000;1.216979
6766.000000;1.213984
6765.000000;1.211154
6764.000000;1.208527
6763.000000;1.206005
6762.000000;1.203419
6761.000000;1.200679
6760.000000;1.197827
6759.000000;1.194949
6758.000000;1.192134
6757.000000;1.189487
6756.000000;1.187043
6755.000000;1.184629
6754.000000;1.181964
6753.000000;1.178969
6752.000000;1.175866
6751.000000;1.172920
6750.000000;1.170165
6749.000000;1.167470
6748.000000;1.164759
6747.000000;1.162052
6746.000000;1.159347
6745.000000;1.156568
6744.000000;1.153649
6743.000000;1.150621
6742.000000;1.147606
6741.000000;1.144744
6740.000000;1.142089
6739.000000;1.139569
6738.000000;1.137037
6737.000000;1.134388
6736.000000;1.131610
6735.000000;1.128771
6734.000000;1.125970
6733.000000;1.123255
6732.000000;1.120548
6731.000000;1.117713
6730.000000;1.114732
6729.000000;1.111749
6728.000000;1.108881
6727.000000;1.106104
6726.000000;1.103385
6725.000000;1.100797
6724.000000;1.098357
6723.000000;1.095862
6722.000000;1.093084
6721.000000;1.090065
6720.000000;1.087055
6719.000000;1.084219
6718.000000;1.081563
6717.000000;1.079112
6716.000000;1.076833
6715.000000;1.074531
6714.000000;1.071915
6713.000000;1.068949
6712.000000;1.065918
6711.000000;1.063078
6710.000000;1.060392
6709.000000;1.057776
6708.000000;1.055170
6707.000000;1.052541
6706.000000;1.049958
6705.000000;1.047562
6704.000000;1.045448
6703.000000;1.043454
6702.000000;1.041202
6701.000000;1.038465
6700.000000;1.035385
6699.000000;1.032282
6698.000000;1.029373
6697.000000;1.026717
6696.000000;1.024266
6695.000000;1.021851
6694.000000;1.019269
6693.000000;1.016504
6692.000000;1.013775
6691.000000;1.011273
6690.000000;1.008939
6689.000000;1.006571
6688.000000;1.004070
6687.000000;1.001480
6686.000000;0.998873
6685.000000;0.996285
6684.000000;0.993734
6683.000000;0.991209
6682.000000;0.988685
6681.000000;0.986179
6680.000000;0.983749
6679.000000;0.981391
6678.000000;0.979007
6677.000000;0.976508
6676.000000;0.973882
6675.000000;0.971168
6674.000000;0.968450
6673.000000;0.965874
6672.000000;0.963553
6671.000000;0.961390
6670.000000;0.959120
6669.000000;0.956598
6668.000000;0.953952
6667.000000;0.951394
6666.000000;0.948978
6665.000000;0.946622
6664.000000;0.944268
6663.000000;0.941922
6662.000000;0.939606
6661.000000;0.937351
6660.000000;0.935186
6659.000000;0.933064
6658.000000;0.930853
6657.000000;0.928491
6656.000000;0.926068
6655.000000;0.923714
6654.000000;0.921462
6653.000000;0.919275
6652.000000;0.917134
6651.000000;0.915007
6650.000000;0.912797
6649.000000;0.910429
6648.000000;0.907938
6647.000000;0.905420
6646.000000;0.902924
6645.000000;0.900482
6644.000000;0.898170
6643.000000;0.896038
6642.000000;0.894003
6641.000000;0.891896
6640.000000;0.889654
6639.000000;0.887367
6638.000000;0.885146
6637.000000;0.882993
6636.000000;0.880825
6635.000000;0.878594
6634.000000;0.876352
6633.000000;0.874192
6632.000000;0.872123
6631.000000;0.870029
6630.000000;0.867786
6629.000000;0.865403
6628.000000;0.863007
6627.000000;0.860701
6626.000000;0.858489
6625.000000;0.856345
6624.000000;0.854272
6623.000000;0.852256
6622.000000;0.850223
6621.000000;0.848098
6620.000000;0.845881
6619.000000;0.843633
6618.000000;0.841418
6617.000000;0.839265
6616.000000;0.837161
6615.000000;0.835074
6614.000000;0.833012
6613.000000;0.831037
6612.000000;0.829171
6611.000000;0.827302
6610.000000;0.825278
6609.000000;0.823094
6608.000000;0.820905
6607.000000;0.818839
6606.000000;0.816892
6605.000000;0.815017
6604.000000;0.813199
6603.000000;0.811385
6602.000000;0.809448
6601.000000;0.807329
6600.000000;0.805144
6599.000000;0.803069
6598.000000;0.801144
6597.000000;0.799277
6596.000000;0.797369
6595.000000;0.795399
6594.000000;0.793408
6593.000000;0.791482
6592.000000;0.789708
6591.000000;0.788078
6590.000000;0.786456
6589.000000;0.784686
6588.000000;0.782744
6587.000000;0.780733
6586.000000;0.778773
6585.000000;0.776909
6584.000000;0.775102
6583.000000;0.773258
6582.000000;0.771320
6581.000000;0.769338
6580.000000;0.767413
6579.000000;0.765546
6578.000000;0.763616
6577.000000;0.761567
6576.000000;0.759521
6575.000000;0.757647
6574.000000;0.755959
6573.000000;0.754336
6572.000000;0.752694
6571.000000;0.751045
6570.000000;0.749398
6569.000000;0.747702
6568.000000;0.745917
6567.000000;0.744061
6566.000000;0.742195
6565.000000;0.740375
6564.000000;0.738640
6563.000000;0.736991
6562.000000;0.735372
6561.000000;0.733714
6560.000000;0.731994
6559.000000;0.730239
6558.000000;0.728485
6557.000000;0.726761
6556.000000;0.725095
6555.000000;0.723493
6554.000000;0.721918
6553.000000;0.720306
6552.000000;0.718628
6551.000000;0.716904
6550.000000;0.715183
6549.000000;0.713509
6548.000000;0.711886
6547.000000;0.710269
6546.000000;0.708622
6545.000000;0.706972
6544.000000;0.705392
6543.000000;0.703899
6542.000000;0.702423
6541.000000;0.700896
6540.000000;0.699313
6539.000000;0.697695
6538.000000;0.696033
6537.000000;0.694330
6536.000000;0.692640
6535.000000;0.691027
6534.000000;0.689487
6533.000000;0.687969
6532.000000;0.686451
6531.000000;0.684938
6530.000000;0.683425
6529.000000;0.681892
6528.000000;0.680335
6527.000000;0.678767
6526.000000;0.677201
6525.000000;0.675655
6524.000000;0.674155
6523.000000;0.672715
6522.000000;0.671323
6521.000000;0.669955
6520.000000;0.668580
6519.000000;0.667157
6518.000000;0.665664
6517.000000;0.664156
6516.000000;0.662716
6515.000000;0.661330
6514.000000;0.659876
6513.000000;0.658295
6512.000000;0.656694
6511.000000;0.655221
6510.000000;0.653885
6509.000000;0.652577
6508.000000;0.651235
6507.000000;0.649881
6506.000000;0.648540
6505.000000;0.647203
6504.000000;0.645875
6503.000000;0.644559
6502.000000;0.643210
6501.000000;0.641778
6500.000000;0.640308
6499.000000;0.638913
6498.000000;0.637628
6497.000000;0.636361
6496.000000;0.635018
6495.000000;0.633603
6494.000000;0.632175
6493.000000;0.630758
6492.000000;0.629351
6491.000000;0.627972
6490.000000;0.626639
6489.000000;0.625347
6488.000000;0.624079
6487.000000;0.622832
6486.000000;0.621603
6485.000000;0.620362
6484.000000;0.619089
6483.000000;0.617806
6482.000000;0.616568
6481.000000;0.615395
6480.000000;0.614245
6479.000000;0.613055
6478.000000;0.611790
6477.000000;0.610475
6476.000000;0.609156
6475.000000;0.607858
6474.000000;0.606581
6473.000000;0.605330
6472.000000;0.604122
6471.000000;0.602953
6470.000000;0.601780
6469.000000;0.600572
6468.000000;0.599346
6467.000000;0.598135
6466.000000;0.596943
6465.000000;0.595746
6464.000000;0.594543
6463.000000;0.593357
6462.000000;0.592198
6461.000000;0.591051
6460.000000;0.589905
6459.000000;0.588749
6458.000000;0.587564
6457.000000;0.586346
6456.000000;0.585138
6455.000000;0.584001
6454.000000;0.582938
6453.000000;0.581887
6452.000000;0.580789
6451.000000;0.579637
6450.000000;0.578461
6449.000000;0.577289
6448.000000;0.576132
6447.000000;0.574996
6446.000000;0.573878
6445.000000;0.572774
6444.000000;0.571689
6443.000000;0.570631
6442.000000;0.569597
6441.000000;0.568576
6440.000000;0.567569
6439.000000;0.566575
6438.000000;0.565566
6437.000000;0.564499
6436.000000;0.563369
6435.000000;0.562226
6434.000000;0.561118
6433.000000;0.560059
6432.000000;0.559048
6431.000000;0.558090
6430.000000;0.557173
6429.000000;0.556240
6428.000000;0.555226
6427.000000;0.554122
6426.000000;0.552988
6425.000000;0.551892
6424.000000;0.550849
6423.000000;0.549831
6422.000000;0.548805
6421.000000;0.547766
6420.000000;0.546736
6419.000000;0.545741
6418.000000;0.544797
6417.000000;0.543892
6416.000000;0.542986
6415.000000;0.542039
6414.000000;0.541050
6413.000000;0.540078
6412.000000;0.539173
6411.000000;0.538317
6410.000000;0.537430
6409.000000;0.536467
6408.000000;0.535469
6407.000000;0.534508
6406.000000;0.533610
6405.000000;0.532737
6404.000000;0.531847
6403.000000;0.530929
6402.000000;0.530003
6401.000000;0.529095
6400.000000;0.528222
6399.000000;0.527378
6398.000000;0.526528
6397.000000;0.525641
6396.000000;0.524720
6395.000000;0.523806
6394.000000;0.522936
6393.000000;0.522107
6392.000000;0.521282
6391.000000;0.520429
6390.000000;0.519554
6389.000000;0.518687
6388.000000;0.517837
6387.000000;0.516978
6386.000000;0.516080
6385.000000;0.515167
6384.000000;0.514294
6383.000000;0.513489
6382.000000;0.512719
6381.000000;0.511927
6380.000000;0.511088
6379.000000;0.510210
6378.000000;0.509317
6377.000000;0.508441
6376.000000;0.507611
6375.000000;0.506837
6374.000000;0.506097
6373.000000;0.505362
6372.000000;0.504615
6371.000000;0.503851
6370.000000;0.503064
6369.000000;0.502255
6368.000000;0.501441
6367.000000;0.500635
6366.000000;0.499831
6365.000000;0.499024
6364.000000;0.498230
6363.000000;0.497468
6362.000000;0.496728
6361.000000;0.495991
6360.000000;0.495256
6359.000000;0.494540
6358.000000;0.493840
6357.000000;0.493139
6356.000000;0.492432
6355.000000;0.491724
6354.000000;0.491018
6353.000000;0.490301
6352.000000;0.489568
6351.000000;0.488832
6350.000000;0.488109
6349.000000;0.487395
6348.000000;0.486677
6347.000000;0.485944
6346.000000;0.485198
6345.000000;0.484449
6344.000000;0.483715
6343.000000;0.483009
6342.000000;0.482327
6341.000000;0.481653
6340.000000;0.480977
6339.000000;0.480305
6338.000000;0.479642
6337.000000;0.478987
6336.000000;0.478332
6335.000000;0.477669
6334.000000;0.476994
6333.000000;0.476307
6332.000000;0.475611
6331.000000;0.474914
6330.000000;0.474226
6329.000000;0.473554
6328.000000;0.472900
6327.000000;0.472258
6326.000000;0.471624
6325.000000;0.470990
6324.000000;0.470349
6323.000000;0.469703
6322.000000;0.469065
6321.000000;0.468456
6320.000000;0.467870
6319.000000;0.467276
6318.000000;0.466649
6317.000000;0.466007
6316.000000;0.465386
6315.000000;0.464793
6314.000000;0.464206
6313.000000;0.463610
6312.000000;0.463014
6311.000000;0.462431
6310.000000;0.461858
6309.000000;0.461287
6308.000000;0.460702
6307.000000;0.460081
6306.000000;0.459412
6305.000000;0.458725
6304.000000;0.458071
6303.000000;0.457469
6302.000000;0.456896
6301.000000;0.456329
6300.000000;0.455770
6299.000000;0.455222
6298.000000;0.454668
6297.000000;0.454110
6296.000000;0.453577
6295.000000;0.453083
6294.000000;0.452592
6293.000000;0.452061
6292.000000;0.451492
6291.000000;0.450923
6290.000000;0.450367
6289.000000;0.449810
6288.000000;0.449241
6287.000000;0.448668
6286.000000;0.448101
6285.000000;0.447552
6284.000000;0.447030
6283.000000;0.446532
6282.000000;0.446030
6281.000000;0.445494
6280.000000;0.444934
6279.000000;0.444383
6278.000000;0.443860
6277.000000;0.443353
6276.000000;0.442849
6275.000000;0.442342
6274.000000;0.441831
6273.000000;0.441314
6272.000000;0.440793
6271.000000;0.440273
6270.000000;0.439756
6269.000000;0.439242
6268.000000;0.438739
6267.000000;0.438255
6266.000000;0.437789
6265.000000;0.437329
6264.000000;0.436871
6263.000000;0.436412
6262.000000;0.435942
6261.000000;0.435464
6260.000000;0.435003
6259.000000;0.434582
6258.000000;0.434182
6257.000000;0.433754
6256.000000;0.433270
6255.000000;0.432744
6254.000000;0.432204
6253.000000;0.431668
6252.000000;0.431140
6251.000000;0.430626
6250.000000;0.430136
6249.000000;0.429672
6248.000000;0.429232
6247.000000;0.428805
6246.000000;0.428387
6245.000000;0.427974
6244.000000;0.427568
6243.000000;0.427159
6242.000000;0.426736
6241.000000;0.426294
6240.000000;0.425850
6239.000000;0.425413
6238.000000;0.424981
6237.000000;0.424541
6236.000000;0.424103
6235.000000;0.423681
6234.000000;0.423273
6233.000000;0.422859
6232.000000;0.422431
6231.000000;0.421996
6230.000000;0.421564
6229.000000;0.421129
6228.000000;0.420688
6227.000000;0.420249
6226.000000;0.419825
6225.000000;0.419413
6224.000000;0.418997
6223.000000;0.418572
6222.000000;0.418148
6221.000000;0.417740
6220.000000;0.417349
6219.000000;0.416970
6218.000000;0.416607
6217.000000;0.416267
6216.000000;0.415937
6215.000000;0.415575
6214.000000;0.415158
6213.000000;0.414712
6212.000000;0.414298
6211.000000;0.413947
6210.000000;0.413629
6209.000000;0.413289
6208.000000;0.412904
6207.000000;0.412497
6206.000000;0.412097
6205.000000;0.411705
6204.000000;0.411294
6203.000000;0.410858
6202.000000;0.410428
6201.000000;0.410048
6200.000000;0.409724
6199.000000;0.409411
6198.000000;0.409066
6197.000000;0.408694
6196.000000;0.408326
6195.000000;0.407974
6194.000000;0.407628
6193.000000;0.407287
6192.000000;0.406960
6191.000000;0.406636
6190.000000;0.406287
6189.000000;0.405909
6188.000000;0.405536
6187.000000;0.405198
6186.000000;0.404884
6185.000000;0.404564
6184.000000;0.404225
6183.000000;0.403881
6182.000000;0.403547
6181.000000;0.403233
6180.000000;0.402932
6179.000000;0.402621
6178.000000;0.402278
6177.000000;0.401902
6176.000000;0.401517
6175.000000;0.401144
6174.000000;0.400787
6173.000000;0.400439
6172.000000;0.400099
6171.000000;0.399768
6170.000000;0.399451
6169.000000;0.399156
6168.000000;0.398878
6167.000000;0.398587
6166.000000;0.398251
6165.000000;0.397870
6164.000000;0.397486
6163.000000;0.397135
6162.000000;0.396824
6161.000000;0.396547
6160.000000;0.396292
6159.000000;0.396033
6158.000000;0.395739
6157.000000;0.395407
6156.000000;0.395064
6155.000000;0.394731
6154.000000;0.394402
6153.000000;0.394081
6152.000000;0.393793
6151.000000;0.393544
6150.000000;0.393296
6149.000000;0.393009
6148.000000;0.392690
6147.000000;0.392377
6146.000000;0.392083
6145.000000;0.391795
6144.000000;0.391510
6143.000000;0.391245
6142.000000;0.391014
6141.000000;0.390802
6140.000000;0.390567
6139.000000;0.390264
6138.000000;0.389890
6137.000000;0.389502
6136.000000;0.389184
6135.000000;0.388958
6134.000000;0.388767
6133.000000;0.388541
6132.000000;0.388272
6131.000000;0.387998
6130.000000;0.387740
6129.000000;0.387484
6128.000000;0.387209
6127.000000;0.386912
6126.000000;0.386601
6125.000000;0.386287
6124.000000;0.385986
6123.000000;0.385710
6122.000000;0.385466
6121.000000;0.385263
6120.000000;0.385097
6119.000000;0.384937
6118.000000;0.384735
6117.000000;0.384472
6116.000000;0.384182
6115.000000;0.383913
6114.000000;0.383668
6113.000000;0.383414
6112.000000;0.383135
6111.000000;0.382847
6110.000000;0.382572
6109.000000;0.382318
6108.000000;0.382080
6107.000000;0.381848
6106.000000;0.381612
6105.000000;0.381374
6104.000000;0.381142
6103.000000;0.380919
6102.000000;0.380696
6101.000000;0.380477
6100.000000;0.380278
6099.000000;0.380096
6098.000000;0.379891
6097.000000;0.379629
6096.000000;0.379327
6095.000000;0.379031
6094.000000;0.378769
6093.000000;0.378531
6092.000000;0.378298
6091.000000;0.378065
6090.000000;0.377841
6089.000000;0.377639
6088.000000;0.377463
6087.000000;0.377294
6086.000000;0.377105
6085.000000;0.376891
6084.000000;0.376673
6083.000000;0.376472
6082.000000;0.376275
6081.000000;0.376068
6080.000000;0.375858
6079.000000;0.375666
6078.000000;0.375494
6077.000000;0.375326
6076.000000;0.375155
6075.000000;0.374986
6074.000000;0.374816
6073.000000;0.374633
6072.000000;0.374429
6071.000000;0.374208
6070.000000;0.373979
6069.000000;0.373754
6068.000000;0.373545
6067.000000;0.373348
6066.000000;0.373149
6065.000000;0.372947
6064.000000;0.372756
6063.000000;0.372574
6062.000000;0.372376
6061.000000;0.372151
6060.000000;0.371933
6059.000000;0.371763
6058.000000;0.371633
6057.000000;0.371498
6056.000000;0.371337
6055.000000;0.371167
6054.000000;0.371018
6053.000000;0.370894
6052.000000;0.370782
6051.000000;0.370655
6050.000000;0.370492
6049.000000;0.370289
6048.000000;0.370072
6047.000000;0.369877
6046.000000;0.369712
6045.000000;0.369559
6044.000000;0.369404
6043.000000;0.369240
6042.000000;0.369073
6041.000000;0.368913
6040.000000;0.368774
6039.000000;0.368652
6038.000000;0.368522
6037.000000;0.368367
6036.000000;0.368211
6035.000000;0.368080
6034.000000;0.367963
6033.000000;0.367824
6032.000000;0.367655
6031.000000;0.367489
6030.000000;0.367363
6029.000000;0.367277
6028.000000;0.367196
6027.000000;0.367087
6026.000000;0.366941
6025.000000;0.366774
6024.000000;0.366614
6023.000000;0.366476
6022.000000;0.366351
6021.000000;0.366222
6020.000000;0.366081
6019.000000;0.365928
6018.000000;0.365766
6017.000000;0.365612
6016.000000;0.365489
6015.000000;0.365402
6014.000000;0.365318
6013.000000;0.365205
6012.000000;0.365068
6011.000000;0.364929
6010.000000;0.364792
6009.000000;0.364656
6008.000000;0.364531
6007.000000;0.364431
6006.000000;0.364343
6005.000000;0.364245
6004.000000;0.364139
6003.000000;0.364045
6002.000000;0.363973
6001.000000;0.363912
6000.000000;0.363857
5999.000000;0.363813
5998.000000;0.363772
5997.000000;0.363715
5996.000000;0.363631
5995.000000;0.363518
5994.000000;0.363385
5993.000000;0.363252
5992.000000;0.363149
5991.000000;0.363092
5990.000000;0.363052
5989.000000;0.362986
5988.000000;0.362886
5987.000000;0.362782
5986.000000;0.362696
5985.000000;0.362623
5984.000000;0.362556
5983.000000;0.362509
5982.000000;0.362487
5981.000000;0.362467
5980.000000;0.362424
5979.000000;0.362362
5978.000000;0.362307
5977.000000;0.362274
5976.000000;0.362251
5975.000000;0.362215
5974.000000;0.362159
5973.000000;0.362093
5972.000000;0.362026
5971.000000;0.361953
5970.000000;0.361869
5969.000000;0.361784
5968.000000;0.361726
5967.000000;0.361709
5966.000000;0.361722
5965.000000;0.361736
5964.000000;0.361730
5963.000000;0.361691
5962.000000;0.361624
5961.000000;0.361568
5960.000000;0.361569
5959.000000;0.361636
5958.000000;0.361714
5957.000000;0.361735
5956.000000;0.361681
5955.000000;0.361583
5954.000000;0.361485
5953.000000;0.361418
5952.000000;0.361396
5951.000000;0.361411
5950.000000;0.361440
5949.000000;0.361460
5948.000000;0.361465
5947.000000;0.361453
5946.000000;0.361418
5945.000000;0.361369
5944.000000;0.361335
5943.000000;0.361332
5942.000000;0.361345
5941.000000;0.361357
5940.000000;0.361378
5939.000000;0.361419
5938.000000;0.361461
5937.000000;0.361480
5936.000000;0.361487
5935.000000;0.361510
5934.000000;0.361548
5933.000000;0.361575
5932.000000;0.361592
5931.000000;0.361627
5930.000000;0.361688
5929.000000;0.361755
5928.000000;0.361804
5927.000000;0.361836
5926.000000;0.361860
5925.000000;0.361876
5924.000000;0.361891
5923.000000;0.361914
5922.000000;0.361950
5921.000000;0.361990
5920.000000;0.362027
5919.000000;0.362059
5918.000000;0.362075
5917.000000;0.362072
5916.000000;0.362069
5915.000000;0.362089
5914.000000;0.362131
5913.000000;0.362167
5912.000000;0.362186
5911.000000;0.362207
5910.000000;0.362251
5909.000000;0.362312
5908.000000;0.362369
5907.000000;0.362412
5906.000000;0.362444
5905.000000;0.362468
5904.000000;0.362483
5903.000000;0.362492
5902.000000;0.362508
5901.000000;0.362550
5900.000000;0.362628
5899.000000;0.362719
5898.000000;0.362785
5897.000000;0.362812
5896.000000;0.362831
5895.000000;0.362888
5894.000000;0.362993
5893.000000;0.363117
5892.000000;0.363227
5891.000000;0.363308
5890.000000;0.363362
5889.000000;0.363402
5888.000000;0.363445
5887.000000;0.363506
5886.000000;0.363588
5885.000000;0.363693
5884.000000;0.363818
5883.000000;0.363945
5882.000000;0.364050
5881.000000;0.364133
5880.000000;0.364219
5879.000000;0.364327
5878.000000;0.364442
5877.000000;0.364549
5876.000000;0.364662
5875.000000;0.364800
5874.000000;0.364942
5873.000000;0.365056
5872.000000;0.365149
5871.000000;0.365265
5870.000000;0.365433
5869.000000;0.365638
5868.000000;0.365842
5867.000000;0.366013
5866.000000;0.366127
5865.000000;0.366187
5864.000000;0.366237
5863.000000;0.366329
5862.000000;0.366480
5861.000000;0.366664
5860.000000;0.366856
5859.000000;0.367052
5858.000000;0.367246
5857.000000;0.367420
5856.000000;0.367567
5855.000000;0.367708
5854.000000;0.367865
5853.000000;0.368033
5852.000000;0.368196
5851.000000;0.368351
5850.000000;0.368515
5849.000000;0.368702
5848.000000;0.368914
5847.000000;0.369137
5846.000000;0.369352
5845.000000;0.369560
5844.000000;0.369774
5843.000000;0.370001
5842.000000;0.370221
5841.000000;0.370419
5840.000000;0.370611
5839.000000;0.370828
5838.000000;0.371080
5837.000000;0.371343
5836.000000;0.371587
5835.000000;0.371803
5834.000000;0.371998
5833.000000;0.372191
5832.000000;0.372402
5831.000000;0.372639
5830.000000;0.372886
5829.000000;0.373119
5828.000000;0.373329
5827.000000;0.373520
5826.000000;0.373705
5825.000000;0.373913
5824.000000;0.374178
5823.000000;0.374500
5822.000000;0.374835
5821.000000;0.375139
5820.000000;0.375407
5819.000000;0.375665
5818.000000;0.375924
5817.000000;0.376181
5816.000000;0.376438
5815.000000;0.376707
5814.000000;0.376999
5813.000000;0.377324
5812.000000;0.377689
5811.000000;0.378082
5810.000000;0.378451
5809.000000;0.378749
5808.000000;0.378984
5807.000000;0.379212
5806.000000;0.379482
5805.000000;0.379800
5804.000000;0.380147
5803.000000;0.380493
5802.000000;0.380816
5801.000000;0.381117
5800.000000;0.381429
5799.000000;0.381783
5798.000000;0.382170
5797.000000;0.382557
5796.000000;0.382922
5795.000000;0.383268
5794.000000;0.383599
5793.000000;0.383921
5792.000000;0.384253
5791.000000;0.384613
5790.000000;0.385001
5789.000000;0.385403
5788.000000;0.385806
5787.000000;0.386208
5786.000000;0.386600
5785.000000;0.386978
5784.000000;0.387358
5783.000000;0.387757
5782.000000;0.388167
5781.000000;0.388560
5780.000000;0.388930
5779.000000;0.389293
5778.000000;0.389666
5777.000000;0.390059
5776.000000;0.390481
5775.000000;0.390932
5774.000000;0.391387
5773.000000;0.391818
5772.000000;0.392224
5771.000000;0.392631
5770.000000;0.393054
5769.000000;0.393485
5768.000000;0.393916
5767.000000;0.394348
5766.000000;0.394781
5765.000000;0.395217
5764.000000;0.395663
5763.000000;0.396127
5762.000000;0.396612
5761.000000;0.397114
5760.000000;0.397639
5759.000000;0.398182
5758.000000;0.398718
5757.000000;0.399222
5756.000000;0.399695
5755.000000;0.400155
5754.000000;0.400617
5753.000000;0.401089
5752.000000;0.401587
5751.000000;0.402118
5750.000000;0.402664
5749.000000;0.403200
5748.000000;0.403728
5747.000000;0.404263
5746.000000;0.404803
5745.000000;0.405331
5744.000000;0.405850
5743.000000;0.406371
5742.000000;0.406897
5741.000000;0.407417
5740.000000;0.407942
5739.000000;0.408491
5738.000000;0.409072
5737.000000;0.409686
5736.000000;0.410334
5735.000000;0.411010
5734.000000;0.411678
5733.000000;0.412306
5732.000000;0.412903
5731.000000;0.413497
5730.000000;0.414096
5729.000000;0.414690
5728.000000;0.415299
5727.000000;0.415954
5726.000000;0.416642
5725.000000;0.417313
5724.000000;0.417937
5723.000000;0.418537
5722.000000;0.419143
5721.000000;0.419761
5720.000000;0.420377
5719.000000;0.420987
5718.000000;0.421600
5717.000000;0.422238
5716.000000;0.422919
5715.000000;0.423637
5714.000000;0.424345
5713.000000;0.425007
5712.000000;0.425646
5711.000000;0.426308
5710.000000;0.427002
5709.000000;0.427699
5708.000000;0.428390
5707.000000;0.429094
5706.000000;0.429816
5705.000000;0.430526
5704.000000;0.431212
5703.000000;0.431897
5702.000000;0.432608
5701.000000;0.433358
5700.000000;0.434129
5699.000000;0.434901
5698.000000;0.435646
5697.000000;0.436335
5696.000000;0.436981
5695.000000;0.437634
5694.000000;0.438339
5693.000000;0.439096
5692.000000;0.439881
5691.000000;0.440669
5690.000000;0.441436
5689.000000;0.442177
5688.000000;0.442909
5687.000000;0.443658
5686.000000;0.444427
5685.000000;0.445194
5684.000000;0.445940
5683.000000;0.446670
5682.000000;0.447394
5681.000000;0.448120
5680.000000;0.448852
5679.000000;0.449597
5678.000000;0.450348
5677.000000;0.451090
5676.000000;0.451816
5675.000000;0.452533
5674.000000;0.453249
5673.000000;0.453979
5672.000000;0.454738
5671.000000;0.455517
5670.000000;0.456276
5669.000000;0.456977
5668.000000;0.457629
5667.000000;0.458277
5666.000000;0.458953
5665.000000;0.459670
5664.000000;0.460434
5663.000000;0.461233
5662.000000;0.462025
5661.000000;0.462761
5660.000000;0.463436
5659.000000;0.464085
5658.000000;0.464740
5657.000000;0.465415
5656.000000;0.466119
5655.000000;0.466841
5654.000000;0.467548
5653.000000;0.468213
5652.000000;0.468840
5651.000000;0.469443
5650.000000;0.470020
5649.000000;0.470590
5648.000000;0.471212
5647.000000;0.471919
5646.000000;0.472652
5645.000000;0.473322
5644.000000;0.473916
5643.000000;0.474504
5642.000000;0.475133
5641.000000;0.475788
5640.000000;0.476441
5639.000000;0.477077
5638.000000;0.477673
5637.000000;0.478210
5636.000000;0.478711
5635.000000;0.479230
5634.000000;0.479785
5633.000000;0.480349
5632.000000;0.480902
5631.000000;0.481447
5630.000000;0.481976
5629.000000;0.482465
5628.000000;0.482922
5627.000000;0.483388
5626.000000;0.483876
5625.000000;0.484358
5624.000000;0.484813
5623.000000;0.485258
5622.000000;0.485716
5621.000000;0.486186
5620.000000;0.486660
5619.000000;0.487133
5618.000000;0.487585
5617.000000;0.487981
5616.000000;0.488317
5615.000000;0.488637
5614.000000;0.488992
5613.000000;0.489397
5612.000000;0.489834
5611.000000;0.490266
5610.000000;0.490649
5609.000000;0.490957
5608.000000;0.491213
5607.000000;0.491467
5606.000000;0.491747
5605.000000;0.492054
5604.000000;0.492389
5603.000000;0.492753
5602.000000;0.493110
5601.000000;0.493412
5600.000000;0.493652
5599.000000;0.493861
5598.000000;0.494052
5597.000000;0.494216
5596.000000;0.494366
5595.000000;0.494539
5594.000000;0.494733
5593.000000;0.494905
5592.000000;0.495045
5591.000000;0.495202
5590.000000;0.495412
5589.000000;0.495657
5588.000000;0.495890
5587.000000;0.496085
5586.000000;0.496237
5585.000000;0.496354
5584.000000;0.496462
5583.000000;0.496587
5582.000000;0.496722
5581.000000;0.496848
5580.000000;0.496977
5579.000000;0.497124
5578.000000;0.497257
5577.000000;0.497321
5576.000000;0.497319
5575.000000;0.497319
5574.000000;0.497354
5573.000000;0.497399
5572.000000;0.497435
5571.000000;0.497474
5570.000000;0.497519
5569.000000;0.497545
5568.000000;0.497547
5567.000000;0.497557
5566.000000;0.497600
5565.000000;0.497651
5564.000000;0.497672
5563.000000;0.497648
5562.000000;0.497579
5561.000000;0.497489
5560.000000;0.497429
5559.000000;0.497431
5558.000000;0.497458
5557.000000;0.497458
5556.000000;0.497440
5555.000000;0.497447
5554.000000;0.497464
5553.000000;0.497440
5552.000000;0.497379
5551.000000;0.497325
5550.000000;0.497271
5549.000000;0.497175
5548.000000;0.497054
5547.000000;0.496972
5546.000000;0.496934
5545.000000;0.496872
5544.000000;0.496762
5543.000000;0.496659
5542.000000;0.496595
5541.000000;0.496553
5540.000000;0.496519
5539.000000;0.496497
5538.000000;0.496468
5537.000000;0.496408
5536.000000;0.496328
5535.000000;0.496244
5534.000000;0.496142
5533.000000;0.496004
5532.000000;0.495870
5531.000000;0.495789
5530.000000;0.495754
5529.000000;0.495721
5528.000000;0.495682
5527.000000;0.495661
5526.000000;0.495658
5525.000000;0.495632
5524.000000;0.495580
5523.000000;0.495522
5522.000000;0.495446
5521.000000;0.495350
5520.000000;0.495275
5519.000000;0.495253
5518.000000;0.495246
5517.000000;0.495191
5516.000000;0.495098
5515.000000;0.495020
5514.000000;0.494953
5513.000000;0.494893
5512.000000;0.494907
5511.000000;0.495032
5510.000000;0.495177
5509.000000;0.495234
5508.000000;0.495228
5507.000000;0.495245
5506.000000;0.495274
5505.000000;0.495232
5504.000000;0.495162
5503.000000;0.495177
5502.000000;0.495260
5501.000000;0.495315
5500.000000;0.495313
5499.000000;0.495317
5498.000000;0.495430
5497.000000;0.495667
5496.000000;0.495949
5495.000000;0.496170
5494.000000;0.496312
5493.000000;0.496457
5492.000000;0.496636
5491.000000;0.496771
5490.000000;0.496765
5489.000000;0.496635
5488.000000;0.496503
5487.000000;0.496445
5486.000000;0.496442
5485.000000;0.496454
5484.000000;0.496543
5483.000000;0.496777
5482.000000;0.497029
5481.000000;0.497213
5480.000000;0.497484
5479.000000;0.497944
5478.000000;0.498422
5477.000000;0.498712
5476.000000;0.498939
5475.000000;0.499310
5474.000000;0.499706
5473.000000;0.499936
5472.000000;0.500086
5471.000000;0.500313
5470.000000;0.500571
5469.000000;0.500812
5468.000000;0.501116
5467.000000;0.501495
5466.000000;0.501832
5465.000000;0.502111
5464.000000;0.502517
5463.000000;0.503124
5462.000000;0.503692
5461.000000;0.504078
5460.000000;0.504484
5459.000000;0.504990
5458.000000;0.505367
5457.000000;0.505553
5456.000000;0.505835
5455.000000;0.506388
5454.000000;0.507096
5453.000000;0.507824
5452.000000;0.508584
5451.000000;0.509385
5450.000000;0.510179
5449.000000;0.511059
5448.000000;0.512058
5447.000000;0.512934
5446.000000;0.513591
5445.000000;0.514280
5444.000000;0.515150
5443.000000;0.516003
5442.000000;0.516625
5441.000000;0.517178
5440.000000;0.517995
5439.000000;0.519102
5438.000000;0.520236
5437.000000;0.521269
5436.000000;0.522307
5435.000000;0.523397
5434.000000;0.524517
5433.000000;0.525754
5432.000000;0.527070
5431.000000;0.528195
5430.000000;0.529122
5429.000000;0.530216
5428.000000;0.531557
5427.000000;0.532811
5426.000000;0.533803
5425.000000;0.534725
5424.000000;0.535830
5423.000000;0.537194
5422.000000;0.538798
5421.000000;0.540560
5420.000000;0.542403
5419.000000;0.544377
5418.000000;0.546511
5417.000000;0.548695
5416.000000;0.550746
5415.000000;0.552678
5414.000000;0.554709
5413.000000;0.556869
5412.000000;0.558950
5411.000000;0.560831
5410.000000;0.562628
5409.000000;0.564548
5408.000000;0.566654
5407.000000;0.568851
5406.000000;0.571030
5405.000000;0.573260
5404.000000;0.575708
5403.000000;0.578346
5402.000000;0.581173
5401.000000;0.584216
5400.000000;0.587336
5399.000000;0.590509
5398.000000;0.593822
5397.000000;0.597238
5396.000000;0.600615
5395.000000;0.603950
5394.000000;0.607437
5393.000000;0.611072
5392.000000;0.614667
5391.000000;0.618277
5390.000000;0.622111
5389.000000;0.626165
5388.000000;0.630265
5387.000000;0.634407
5386.000000;0.638771
5385.000000;0.643460
5384.000000;0.648284
5383.000000;0.653044
5382.000000;0.657966
5381.000000;0.663296
5380.000000;0.668803
5379.000000;0.674187
5378.000000;0.679612
5377.000000;0.685407
5376.000000;0.691459
5375.000000;0.697454
5374.000000;0.703465
5373.000000;0.709710
5372.000000;0.716157
5371.000000;0.722746
5370.000000;0.729580
5369.000000;0.736754
5368.000000;0.744211
5367.000000;0.751922
5366.000000;0.759981
5365.000000;0.768463
5364.000000;0.777192
5363.000000;0.785957
5362.000000;0.794886
5361.000000;0.804128
5360.000000;0.813601
5359.000000;0.823323
5358.000000;0.833525
5357.000000;0.844210
5356.000000;0.855024
5355.000000;0.865924
5354.000000;0.877437
5353.000000;0.889830
5352.000000;0.902483
5351.000000;0.914728
5350.000000;0.926874
5349.000000;0.939691
5348.000000;0.953279
5347.000000;0.967237
5346.000000;0.981600
5345.000000;0.996756
5344.000000;1.012559
5343.000000;1.028383
5342.000000;1.044081
5341.000000;1.059906
5340.000000;1.076090
5339.000000;1.093032
5338.000000;1.111074
5337.000000;1.129958
5336.000000;1.148971
5335.000000;1.167796
5334.000000;1.186915
5333.000000;1.207076
5332.000000;1.228314
5331.000000;1.249974
5330.000000;1.271830
5329.000000;1.294320
5328.000000;1.317757
5327.000000;1.342054
5326.000000;1.367016
5325.000000;1.392437
5324.000000;1.418129
5323.000000;1.444175
5322.000000;1.471003
5321.000000;1.498692
5320.000000;1.526531
5319.000000;1.553958
5318.000000;1.581634
5317.000000;1.610735
5316.000000;1.641491
5315.000000;1.673269
5314.000000;1.705551
5313.000000;1.738001
5312.000000;1.769948
5311.000000;1.801030
5310.000000;1.832250
5309.000000;1.864972
5308.000000;1.898968
5307.000000;1.932706
5306.000000;1.965412
5305.000000;1.997338
5304.000000;2.028412
5303.000000;2.058680
5302.000000;2.089428
5301.000000;2.121573
5300.000000;2.153726
5299.000000;2.184075
5298.000000;2.212948
5297.000000;2.240837
5296.000000;2.266189
5295.000000;2.288558
5294.000000;2.311025
5293.000000;2.335509
5292.000000;2.358789
5291.000000;2.377736
5290.000000;2.395141
5289.000000;2.414338
5288.000000;2.432148
5287.000000;2.444189
5286.000000;2.453338
5285.000000;2.465327
5284.000000;2.479673
5283.000000;2.492005
5282.000000;2.502203
5281.000000;2.512589
5280.000000;2.521012
5279.000000;2.523730
5278.000000;2.522541
5277.000000;2.521587
5276.000000;2.520777
5275.000000;2.518765
5274.000000;2.517858
5273.000000;2.520104
5272.000000;2.522628
5271.000000;2.522275
5270.000000;2.521668
5269.000000;2.524574
5268.000000;2.528564
5267.000000;2.528642
5266.000000;2.525304
5265.000000;2.523050
5264.000000;2.523994
5263.000000;2.527644
5262.000000;2.533621
5261.000000;2.539898
5260.000000;2.541673
5259.000000;2.537555
5258.000000;2.532801
5257.000000;2.531798
5256.000000;2.532329
5255.000000;2.531016
5254.000000;2.530017
5253.000000;2.532720
5252.000000;2.536973
5251.000000;2.538583
5250.000000;2.538480
5249.000000;2.540471
5248.000000;2.544199
5247.000000;2.546339
5246.000000;2.546776
5245.000000;2.547522
5244.000000;2.547771
5243.000000;2.545695
5242.000000;2.542936
5241.000000;2.542346
5240.000000;2.543527
5239.000000;2.544741
5238.000000;2.546702
5237.000000;2.550538
5236.000000;2.554421
5235.000000;2.556104
5234.000000;2.556481
5233.000000;2.556999
5232.000000;2.556467
5231.000000;2.553727
5230.000000;2.550067
5229.000000;2.545934
5228.000000;2.539467
5227.000000;2.531467
5226.000000;2.527251
5225.000000;2.530181
5224.000000;2.537225
5223.000000;2.543865
5222.000000;2.549507
5221.000000;2.554415
5220.000000;2.556487
5219.000000;2.555967
5218.000000;2.557603
5217.000000;2.562575
5216.000000;2.564578
5215.000000;2.559922
5214.000000;2.554865
5213.000000;2.556056
5212.000000;2.560529
5211.000000;2.561317
5210.000000;2.558509
5209.000000;2.557017
5208.000000;2.556898
5207.000000;2.554173
5206.000000;2.549137
5205.000000;2.546118
5204.000000;2.546286
5203.000000;2.547510
5202.000000;2.549743
5201.000000;2.554436
5200.000000;2.559523
5199.000000;2.560673
5198.000000;2.557223
5197.000000;2.552136
5196.000000;2.547042
5195.000000;2.542189
5194.000000;2.539870
5193.000000;2.542540
5192.000000;2.548392
5191.000000;2.552712
5190.000000;2.553200
5189.000000;2.551050
5188.000000;2.547648
5187.000000;2.543996
5186.000000;2.542293
5185.000000;2.544211
5184.000000;2.548006
5183.000000;2.550142
5182.000000;2.549685
5181.000000;2.548629
5180.000000;2.548678
5179.000000;2.550191
5178.000000;2.552766
5177.000000;2.554468
5176.000000;2.552450
5175.000000;2.546924
5174.000000;2.542144
5173.000000;2.541440
5172.000000;2.543666
5171.000000;2.546101
5170.000000;2.548628
5169.000000;2.552220
5168.000000;2.555545
5167.000000;2.556806
5166.000000;2.557117
5165.000000;2.558724
5164.000000;2.561495
5163.000000;2.563584
5162.000000;2.564083
5161.000000;2.563211
5160.000000;2.561025
5159.000000;2.557593
5158.000000;2.553491
5157.000000;2.548727
5156.000000;2.543433
5155.000000;2.540615
5154.000000;2.544277
5153.000000;2.553532
5152.000000;2.561788
5151.000000;2.563837
5150.000000;2.561293
5149.000000;2.558291
5148.000000;2.555891
5147.000000;2.553641
5146.000000;2.552482
5145.000000;2.553004
5144.000000;2.553602
5143.000000;2.553257
5142.000000;2.553640
5141.000000;2.555679
5140.000000;2.557332
5139.000000;2.557610
5138.000000;2.558981
5137.000000;2.562648
5136.000000;2.565307
5135.000000;2.564072
5134.000000;2.561309
5133.000000;2.560550
5132.000000;2.560767
5131.000000;2.559108
5130.000000;2.556612
5129.000000;2.556076
5128.000000;2.556669
5127.000000;2.555428
5126.000000;2.552199
5125.000000;2.549064
5124.000000;2.546754
5123.000000;2.545201
5122.000000;2.545441
5121.000000;2.547368
5120.000000;2.547694
5119.000000;2.544171
5118.000000;2.539595
5117.000000;2.537716
5116.000000;2.537958
5115.000000;2.537469
5114.000000;2.536327
5113.000000;2.537084
5112.000000;2.540431
5111.000000;2.544786
5110.000000;2.548878
5109.000000;2.551680
5108.000000;2.551140
5107.000000;2.546536
5106.000000;2.541237
5105.000000;2.539700
5104.000000;2.542373
5103.000000;2.545801
5102.000000;2.546921
5101.000000;2.545355
5100.000000;2.542282
5099.000000;2.539393
5098.000000;2.538539
5097.000000;2.540350
5096.000000;2.543317
5095.000000;2.545404
5094.000000;2.545863
5093.000000;2.544510
5092.000000;2.541318
5091.000000;2.537955
5090.000000;2.537037
5089.000000;2.538432
5088.000000;2.538787
5087.000000;2.536576
5086.000000;2.535045
5085.000000;2.537875
5084.000000;2.544427
5083.000000;2.550830
5082.000000;2.553486
5081.000000;2.550348
5080.000000;2.541427
5079.000000;2.530425
5078.000000;2.523488
5077.000000;2.523443
5076.000000;2.527048
5075.000000;2.529783
5074.000000;2.530870
5073.000000;2.531657
5072.000000;2.532139
5071.000000;2.531908
5070.000000;2.532385
5069.000000;2.534879
5068.000000;2.537739
5067.000000;2.538258
5066.000000;2.536279
5065.000000;2.533721
5064.000000;2.532006
5063.000000;2.531724
5062.000000;2.532966
5061.000000;2.534295
5060.000000;2.533456
5059.000000;2.530767
5058.000000;2.529064
5057.000000;2.528659
5056.000000;2.525782
5055.000000;2.518335
5054.000000;2.509782
5053.000000;2.504305
5052.000000;2.501290
5051.000000;2.497647
5050.000000;2.493337
5049.000000;2.491164
5048.000000;2.492334
5047.000000;2.495121
5046.000000;2.497031
5045.000000;2.496295
5044.000000;2.492518
5043.000000;2.488176
5042.000000;2.487780
5041.000000;2.493111
5040.000000;2.500380
5039.000000;2.503928
5038.000000;2.502214
5037.000000;2.497854
5036.000000;2.492892
5035.000000;2.487358
5034.000000;2.481481
5033.000000;2.476623
5032.000000;2.474115
5031.000000;2.474200
5030.000000;2.475984
5029.000000;2.477831
5028.000000;2.478015
5027.000000;2.475869
5026.000000;2.472050
5025.000000;2.467058
5024.000000;2.460831
5023.000000;2.454461
5022.000000;2.450287
5021.000000;2.449089
5020.000000;2.448839
5019.000000;2.447485
5018.000000;2.445348
5017.000000;2.443370
5016.000000;2.441047
5015.000000;2.437582
5014.000000;2.433198
5013.000000;2.428165
5012.000000;2.422227
5011.000000;2.415775
5010.000000;2.409778
5009.000000;2.403836
5008.000000;2.396442
5007.000000;2.388233
5006.000000;2.382514
5005.000000;2.381187
5004.000000;2.382334
5003.000000;2.382996
5002.000000;2.382368
5001.000000;2.381143
5000.000000;2.379523
4999.000000;2.377256
4998.000000;2.374289
4997.000000;2.369671
4996.000000;2.362054
4995.000000;2.353005
4994.000000;2.347175
4993.000000;2.347144
4992.000000;2.349753
4991.000000;2.349369
4990.000000;2.343735
4989.000000;2.334682
4988.000000;2.324734
4987.000000;2.315615
4986.000000;2.308618
4985.000000;2.303771
4984.000000;2.299312
4983.000000;2.293935
4982.000000;2.288776
4981.000000;2.285587
4980.000000;2.284015
4979.000000;2.282301
4978.000000;2.279526
4977.000000;2.275382
4976.000000;2.268901
4975.000000;2.259863
4974.000000;2.250729
4973.000000;2.244743
4972.000000;2.242317
4971.000000;2.240838
4970.000000;2.237841
4969.000000;2.232994
4968.000000;2.227088
4967.000000;2.220757
4966.000000;2.214559
4965.000000;2.209006
4964.000000;2.204047
4963.000000;2.199200
4962.000000;2.194111
4961.000000;2.188249
4960.000000;2.180460
4959.000000;2.170030
4958.000000;2.158298
4957.000000;2.148320
4956.000000;2.142538
4955.000000;2.140826
4954.000000;2.140456
4953.000000;2.137920
4952.000000;2.131530
4951.000000;2.122693
4950.000000;2.114324
4949.000000;2.108057
4948.000000;2.103395
4947.000000;2.099239
4946.000000;2.095325
4945.000000;2.091841
4944.000000;2.088379
4943.000000;2.083926
4942.000000;2.077723
4941.000000;2.069949
4940.000000;2.061823
4939.000000;2.054880
4938.000000;2.049602
4937.000000;2.044859
4936.000000;2.039354
4935.000000;2.033400
4934.000000;2.028182
4933.000000;2.023394
4932.000000;2.017082
4931.000000;2.008295
4930.000000;1.998529
4929.000000;1.989835
4928.000000;1.982734
4927.000000;1.976719
4926.000000;1.971688
4925.000000;1.967795
4924.000000;1.964466
4923.000000;1.960552
4922.000000;1.955331
4921.000000;1.948816
4920.000000;1.941438
4919.000000;1.933976
4918.000000;1.927336
4917.000000;1.921763
4916.000000;1.916454
4915.000000;1.910376
4914.000000;1.903286
4913.000000;1.895763
4912.000000;1.888632
4911.000000;1.882562
4910.000000;1.877716
4909.000000;1.873455
4908.000000;1.868782
4907.000000;1.863385
4906.000000;1.857767
4905.000000;1.852252
4904.000000;1.846563
4903.000000;1.840687
4902.000000;1.835325
4901.000000;1.830917
4900.000000;1.826814
4899.000000;1.822039
4898.000000;1.816425
4897.000000;1.810438
4896.000000;1.804316
4895.000000;1.798010
4894.000000;1.791613
4893.000000;1.785268
4892.000000;1.778878
4891.000000;1.772411
4890.000000;1.766303
4889.000000;1.761084
4888.000000;1.756730
4887.000000;1.752669
4886.000000;1.748263
4885.000000;1.743034
4884.000000;1.736747
4883.000000;1.729731
4882.000000;1.722915
4881.000000;1.717105
4880.000000;1.712244
4879.000000;1.707565
4878.000000;1.702361
4877.000000;1.696474
4876.000000;1.690315
4875.000000;1.684606
4874.000000;1.679858
4873.000000;1.675841
4872.000000;1.671768
4871.000000;1.667145
4870.000000;1.662141
4869.000000;1.656947
4868.000000;1.651301
4867.000000;1.645048
4866.000000;1.638743
4865.000000;1.633167
4864.000000;1.628407
4863.000000;1.623870
4862.000000;1.619058
4861.000000;1.613926
4860.000000;1.608585
4859.000000;1.603100
4858.000000;1.597631
4857.000000;1.592410
4856.000000;1.587510
4855.000000;1.582781
4854.000000;1.578030
4853.000000;1.573130
4852.000000;1.568025
4851.000000;1.562801
4850.000000;1.557676
4849.000000;1.552770
4848.000000;1.547954
4847.000000;1.543061
4846.000000;1.538163
4845.000000;1.533451
4844.000000;1.528921
4843.000000;1.524356
4842.000000;1.519605
4841.000000;1.514737
4840.000000;1.509929
4839.000000;1.505244
4838.000000;1.500541
4837.000000;1.495578
4836.000000;1.490303
4835.000000;1.485033
4834.000000;1.480199
4833.000000;1.475869
4832.000000;1.471660
4831.000000;1.467213
4830.000000;1.462574
4829.000000;1.458016
4828.000000;1.453658
4827.000000;1.449378
4826.000000;1.445012
4825.000000;1.440503
4824.000000;1.435918
4823.000000;1.431375
4822.000000;1.426915
4821.000000;1.422448
4820.000000;1.417928
4819.000000;1.413528
4818.000000;1.409469
4817.000000;1.405660
4816.000000;1.401695
4815.000000;1.397228
4814.000000;1.392235
4813.000000;1.386933
4812.000000;1.381667
4811.000000;1.376834
4810.000000;1.372643
4809.000000;1.368841
4808.000000;1.364934
4807.000000;1.360746
4806.000000;1.356531
4805.000000;1.352506
4804.000000;1.348563
4803.000000;1.344598
4802.000000;1.340773
4801.000000;1.337198
4800.000000;1.333603
4799.000000;1.329588
4798.000000;1.325101
4797.000000;1.320466
4796.000000;1.316058
4795.000000;1.312118
4794.000000;1.308712
4793.000000;1.305602
4792.000000;1.302243
4791.000000;1.298178
4790.000000;1.293491
4789.000000;1.288741
4788.000000;1.284456
4787.000000;1.280736
4786.000000;1.277276
4785.000000;1.273653
4784.000000;1.269648
4783.000000;1.265405
4782.000000;1.261260
4781.000000;1.257408
4780.000000;1.253785
4779.000000;1.250257
4778.000000;1.246765
4777.000000;1.243234
4776.000000;1.239532
4775.000000;1.235652
4774.000000;1.231810
4773.000000;1.228219
4772.000000;1.224845
4771.000000;1.221468
4770.000000;1.217923
4769.000000;1.214197
4768.000000;1.210409
4767.000000;1.206747
4766.000000;1.203348
4765.000000;1.200112
4764.000000;1.196738
4763.000000;1.193034
4762.000000;1.189153
4761.000000;1.185448
4760.000000;1.182153
4759.000000;1.179220
4758.000000;1.176363
4757.000000;1.173234
4756.000000;1.169701
4755.000000;1.166027
4754.000000;1.162639
4753.000000;1.159660
4752.000000;1.156786
4751.000000;1.153680
4750.000000;1.150331
4749.000000;1.146931
4748.000000;1.143573
4747.000000;1.140253
4746.000000;1.137021
4745.000000;1.133961
4744.000000;1.131049
4743.000000;1.128168
4742.000000;1.125227
4741.000000;1.122173
4740.000000;1.118972
4739.000000;1.115677
4738.000000;1.112441
4737.000000;1.109362
4736.000000;1.106379
4735.000000;1.103410
4734.000000;1.100471
4733.000000;1.097564
4732.000000;1.094602
4731.000000;1.091568
4730.000000;1.088648
4729.000000;1.086015
4728.000000;1.083531
4727.000000;1.080866
4726.000000;1.077876
4725.000000;1.074741
4724.000000;1.071730
4723.000000;1.068978
4722.000000;1.066469
4721.000000;1.064095
4720.000000;1.061700
4719.000000;1.059170
4718.000000;1.056503
4717.000000;1.053758
4716.000000;1.050963
4715.000000;1.048163
4714.000000;1.045484
4713.000000;1.043028
4712.000000;1.040715
4711.000000;1.038343
4710.000000;1.035806
4709.000000;1.033168
4708.000000;1.030532
4707.000000;1.027932
4706.000000;1.025384
4705.000000;1.022928
4704.000000;1.020598
4703.000000;1.018381
4702.000000;1.016220
4701.000000;1.014027
4700.000000;1.011729
4699.000000;1.009364
4698.000000;1.007083
4697.000000;1.004996
4696.000000;1.003026
4695.000000;1.000984
4694.000000;0.998791
4693.000000;0.996532
4692.000000;0.994316
4691.000000;0.992157
4690.000000;0.990006
4689.000000;0.987838
4688.000000;0.985672
4687.000000;0.983579
4686.000000;0.981646
4685.000000;0.979887
4684.000000;0.978173
4683.000000;0.976287
4682.000000;0.974100
4681.000000;0.971693
4680.000000;0.969308
4679.000000;0.967187
4678.000000;0.965405
4677.000000;0.963816
4676.000000;0.962174
4675.000000;0.960350
4674.000000;0.958420
4673.000000;0.956529
4672.000000;0.954710
4671.000000;0.952880
4670.000000;0.950993
4669.000000;0.949099
4668.000000;0.947273
4667.000000;0.945526
4666.000000;0.943804
4665.000000;0.942063
4664.000000;0.940326
4663.000000;0.938666
4662.000000;0.937126
4661.000000;0.935640
4660.000000;0.934075
4659.000000;0.932370
4658.000000;0.930608
4657.000000;0.928945
4656.000000;0.927462
4655.000000;0.926111
4654.000000;0.924749
4653.000000;0.923225
4652.000000;0.921494
4651.000000;0.919679
4650.000000;0.918007
4649.000000;0.916617
4648.000000;0.915436
4647.000000;0.914251
4646.000000;0.912890
4645.000000;0.911337
4644.000000;0.909719
4643.000000;0.908214
4642.000000;0.906912
4641.000000;0.905749
4640.000000;0.904574
4639.000000;0.903309
4638.000000;0.902006
4637.000000;0.900738
4636.000000;0.899506
4635.000000;0.898264
4634.000000;0.896993
4633.000000;0.895705
4632.000000;0.894426
4631.000000;0.893204
4630.000000;0.892073
4629.000000;0.890996
4628.000000;0.889884
4627.000000;0.888713
4626.000000;0.887578
4625.000000;0.886579
4624.000000;0.885697
4623.000000;0.884823
4622.000000;0.883865
4621.000000;0.882790
4620.000000;0.881602
4619.000000;0.880354
4618.000000;0.879139
4617.000000;0.878046
4616.000000;0.877098
4615.000000;0.876260
4614.000000;0.875462
4613.000000;0.874611
4612.000000;0.873636
4611.000000;0.872571
4610.000000;0.871540
4609.000000;0.870635
4608.000000;0.869828
4607.000000;0.869026
4606.000000;0.868168
4605.000000;0.867242
4604.000000;0.866273
4603.000000;0.865350
4602.000000;0.864616
4601.000000;0.864148
4600.000000;0.863847
4599.000000;0.863497
4598.000000;0.862917
4597.000000;0.862065
4596.000000;0.861037
4595.000000;0.860001
4594.000000;0.859097
4593.000000;0.858366
4592.000000;0.857770
4591.000000;0.857282
4590.000000;0.856886
4589.000000;0.856510
4588.000000;0.856038
4587.000000;0.855435
4586.000000;0.854796
4585.000000;0.854214
4584.000000;0.853685
4583.000000;0.853177
4582.000000;0.852709
4581.000000;0.852301
4580.000000;0.851906
4579.000000;0.851478
4578.000000;0.851052
4577.000000;0.850668
4576.000000;0.850289
4575.000000;0.849883
4574.000000;0.849533
4573.000000;0.849358
4572.000000;0.849329
4571.000000;0.849281
4570.000000;0.849104
4569.000000;0.848845
4568.000000;0.848610
4567.000000;0.848450
4566.000000;0.848373
4565.000000;0.848372
4564.000000;0.848405
4563.000000;0.848386
4562.000000;0.848268
4561.000000;0.848116
4560.000000;0.848062
4559.000000;0.848178
4558.000000;0.848392
4557.000000;0.848553
4556.000000;0.848573
4555.000000;0.848522
4554.000000;0.848551
4553.000000;0.848756
4552.000000;0.849095
4551.000000;0.849439
4550.000000;0.849660
4549.000000;0.849719
4548.000000;0.849722
4547.000000;0.849857
4546.000000;0.850224
4545.000000;0.850700
4544.000000;0.851074
4543.000000;0.851293
4542.000000;0.851501
4541.000000;0.851832
4540.000000;0.852270
4539.000000;0.852744
4538.000000;0.853248
4537.000000;0.853785
4536.000000;0.854291
4535.000000;0.854705
4534.000000;0.855061
4533.000000;0.855438
4532.000000;0.855856
4531.000000;0.856278
4530.000000;0.856667
4529.000000;0.856993
4528.000000;0.857250
4527.000000;0.857503
4526.000000;0.857854
4525.000000;0.858307
4524.000000;0.858748
4523.000000;0.859112
4522.000000;0.859476
4521.000000;0.859895
4520.000000;0.860254
4519.000000;0.860401
4518.000000;0.860394
4517.000000;0.860471
4516.000000;0.860791
4515.000000;0.861318
4514.000000;0.861926
4513.000000;0.862527
4512.000000;0.863083
4511.000000;0.863602
4510.000000;0.864120
4509.000000;0.864643
4508.000000;0.865092
4507.000000;0.865390
4506.000000;0.865585
4505.000000;0.865843
4504.000000;0.866285
4503.000000;0.866906
4502.000000;0.867620
4501.000000;0.868343
4500.000000;0.869044
4499.000000;0.869750
4498.000000;0.870506
4497.000000;0.871283
4496.000000;0.871985
4495.000000;0.872580
4494.000000;0.873162
4493.000000;0.873829
4492.000000;0.874566
4491.000000;0.875310
4490.000000;0.876089
4489.000000;0.876983
4488.000000;0.877989
4487.000000;0.879021
4486.000000;0.880036
4485.000000;0.881056
4484.000000;0.882083
4483.000000;0.883080
4482.000000;0.884049
4481.000000;0.885040
4480.000000;0.886075
4479.000000;0.887131
4478.000000;0.888186
4477.000000;0.889224
4476.000000;0.890219
4475.000000;0.891194
4474.000000;0.892280
4473.000000;0.893612
4472.000000;0.895152
4471.000000;0.896698
4470.000000;0.898082
4469.000000;0.899290
4468.000000;0.900419
4467.000000;0.901595
4466.000000;0.902924
4465.000000;0.904440
4464.000000;0.906062
4463.000000;0.907650
4462.000000;0.909129
4461.000000;0.910498
4460.000000;0.911768
4459.000000;0.912962
4458.000000;0.914192
4457.000000;0.915619
4456.000000;0.917297
4455.000000;0.919115
4454.000000;0.920913
4453.000000;0.922606
4452.000000;0.924212
4451.000000;0.925813
4450.000000;0.927505
4449.000000;0.929310
4448.000000;0.931128
4447.000000;0.932827
4446.000000;0.934418
4445.000000;0.936043
4444.000000;0.937799
4443.000000;0.939639
4442.000000;0.941480
4441.000000;0.943343
4440.000000;0.945321
4439.000000;0.947437
4438.000000;0.949596
4437.000000;0.951652
4436.000000;0.953532
4435.000000;0.955318
4434.000000;0.957231
4433.000000;0.959467
4432.000000;0.962001
4431.000000;0.964577
4430.000000;0.966901
4429.000000;0.968876
4428.000000;0.970646
4427.000000;0.972468
4426.000000;0.974522
4425.000000;0.976819
4424.000000;0.979255
4423.000000;0.981723
4422.000000;0.984171
4421.000000;0.986565
4420.000000;0.988900
4419.000000;0.991258
4418.000000;0.993783
4417.000000;0.996506
4416.000000;0.999247
4415.000000;1.001801
4414.000000;1.004177
4413.000000;1.006539
4412.000000;1.008941
4411.000000;1.011270
4410.000000;1.013488
4409.000000;1.015775
4408.000000;1.018338
4407.000000;1.021144
4406.000000;1.023960
4405.000000;1.026619
4404.000000;1.029172
4403.000000;1.031798
4402.000000;1.034616
4401.000000;1.037573
4400.000000;1.040481
4399.000000;1.043181
4398.000000;1.045696
4397.000000;1.048227
4396.000000;1.050960
4395.000000;1.053911
4394.000000;1.056969
4393.000000;1.060027
4392.000000;1.063038
4391.000000;1.065986
4390.000000;1.068875
4389.000000;1.071768
4388.000000;1.074760
4387.000000;1.077905
4386.000000;1.081189
4385.000000;1.084566
4384.000000;1.087951
4383.000000;1.091198
4382.000000;1.094161
4381.000000;1.096860
4380.000000;1.099518
4379.000000;1.102380
4378.000000;1.105519
4377.000000;1.108867
4376.000000;1.112355
4375.000000;1.115928
4374.000000;1.119458
4373.000000;1.122810
4372.000000;1.126013
4371.000000;1.129279
4370.000000;1.132790
4369.000000;1.136537
4368.000000;1.140385
4367.000000;1.144201
4366.000000;1.147910
4365.000000;1.151536
4364.000000;1.155216
4363.000000;1.159055
4362.000000;1.162901
4361.000000;1.166426
4360.000000;1.169503
4359.000000;1.172396
4358.000000;1.175474
4357.000000;1.178905
4356.000000;1.182724
4355.000000;1.186987
4354.000000;1.191631
4353.000000;1.196345
4352.000000;1.200830
4351.000000;1.205115
4350.000000;1.209403
4349.000000;1.213684
4348.000000;1.217765
4347.000000;1.221629
4346.000000;1.225507
4345.000000;1.229606
4344.000000;1.233962
4343.000000;1.238527
4342.000000;1.243161
4341.000000;1.247603
4340.000000;1.251736
4339.000000;1.255866
4338.000000;1.260438
4337.000000;1.265450
4336.000000;1.270434
4335.000000;1.275037
4334.000000;1.279342
4333.000000;1.283589
4332.000000;1.287945
4331.000000;1.292596
4330.000000;1.297652
4329.000000;1.302800
4328.000000;1.307410
4327.000000;1.311288
4326.000000;1.315083
4325.000000;1.319639
4324.000000;1.325097
4323.000000;1.330868
4322.000000;1.336350
4321.000000;1.341441
4320.000000;1.346364
4319.000000;1.351244
4318.000000;1.355960
4317.000000;1.360408
4316.000000;1.364816
4315.000000;1.369612
4314.000000;1.374887
4313.000000;1.380203
4312.000000;1.385108
4311.000000;1.389678
4310.000000;1.394285
4309.000000;1.399064
4308.000000;1.404012
4307.000000;1.409401
4306.000000;1.415524
4305.000000;1.422054
4304.000000;1.428209
4303.000000;1.433695
4302.000000;1.439008
4301.000000;1.444678
4300.000000;1.450690
4299.000000;1.456795
4298.000000;1.462880
4297.000000;1.468759
4296.000000;1.474053
4295.000000;1.478653
4294.000000;1.483023
4293.000000;1.487778
4292.000000;1.493148
4291.000000;1.498940
4290.000000;1.504713
4289.000000;1.510016
4288.000000;1.514843
4287.000000;1.519908
4286.000000;1.526098
4285.000000;1.533600
4284.000000;1.541817
4283.000000;1.549956
4282.000000;1.557278
4281.000000;1.563119
4280.000000;1.567604
4279.000000;1.572214
4278.000000;1.578503
4277.000000;1.586145
4276.000000;1.593288
4275.000000;1.599071
4274.000000;1.604619
4273.000000;1.611018
4272.000000;1.617647
4271.000000;1.623420
4270.000000;1.628654
4269.000000;1.634598
4268.000000;1.641688
4267.000000;1.649244
4266.000000;1.656487
4265.000000;1.663112
4264.000000;1.669101
4263.000000;1.674599
4262.000000;1.679861
4261.000000;1.684957
4260.000000;1.689848
4259.000000;1.694934
4258.000000;1.700910
4257.000000;1.707945
4256.000000;1.715663
4255.000000;1.724085
4254.000000;1.733565
4253.000000;1.743389
4252.000000;1.751693
4251.000000;1.757658
4250.000000;1.762762
4249.000000;1.769114
4248.000000;1.777045
4247.000000;1.785521
4246.000000;1.793492
4245.000000;1.800253
4244.000000;1.805420
4243.000000;1.809505
4242.000000;1.813989
4241.000000;1.819807
4240.000000;1.826298
4239.000000;1.832568
4238.000000;1.839213
4237.000000;1.847661
4236.000000;1.858259
4235.000000;1.869640
4234.000000;1.879718
4233.000000;1.887332
4232.000000;1.893454
4231.000000;1.900425
4230.000000;1.908934
4229.000000;1.916363
4228.000000;1.920147
4227.000000;1.922414
4226.000000;1.928050
4225.000000;1.938202
4224.000000;1.948733
4223.000000;1.955928
4222.000000;1.960790
4221.000000;1.965583
4220.000000;1.969976
4219.000000;1.973819
4218.000000;1.980107
4217.000000;1.991153
4216.000000;2.004117
4215.000000;2.014360
4214.000000;2.022020
4213.000000;2.030624
4212.000000;2.040063
4211.000000;2.046214
4210.000000;2.047935
4209.000000;2.050094
4208.000000;2.057841
4207.000000;2.071009
4206.000000;2.085405
4205.000000;2.097284
4204.000000;2.105852
4203.000000;2.112941
4202.000000;2.120786
4201.000000;2.129392
4200.000000;2.136631
4199.000000;2.141890
4198.000000;2.147826
4197.000000;2.156337
4196.000000;2.164663
4195.000000;2.168870
4194.000000;2.170274
4193.000000;2.174411
4192.000000;2.183984
4191.000000;2.195959
4190.000000;2.205605
4189.000000;2.211323
4188.000000;2.215285
4187.000000;2.221709
4186.000000;2.234454
4185.000000;2.253435
4184.000000;2.272898
4183.000000;2.285856
4182.000000;2.291675
4181.000000;2.296987
4180.000000;2.308387
4179.000000;2.326043
4178.000000;2.343581
4177.000000;2.353178
4176.000000;2.352806
4175.000000;2.349085
4174.000000;2.351044
4173.000000;2.361401
4172.000000;2.374626
4171.000000;2.382876
4170.000000;2.382586
4169.000000;2.374831
4168.000000;2.363630
4167.000000;2.356920
4166.000000;2.363479
4165.000000;2.385698
4164.000000;2.416649
4163.000000;2.444615
4162.000000;2.461952
4161.000000;2.469945
4160.000000;2.475090
4159.000000;2.481974
4158.000000;2.489625
4157.000000;2.494775
4156.000000;2.498221
4155.000000;2.504852
4154.000000;2.516308
4153.000000;2.526082
4152.000000;2.527867
4151.000000;2.528179
4150.000000;2.539665
4149.000000;2.561697
4148.000000;2.576438
4147.000000;2.572321
4146.000000;2.561843
4145.000000;2.561726
4144.000000;2.573409
4143.000000;2.589792
4142.000000;2.607745
4141.000000;2.624118
4140.000000;2.630811
4139.000000;2.627153
4138.000000;2.626400
4137.000000;2.640651
4136.000000;2.660313
4135.000000;2.663022
4134.000000;2.650034
4133.000000;2.645370
4132.000000;2.665160
4131.000000;2.705360
4130.000000;2.742787
4129.000000;2.750727
4128.000000;2.727701
4127.000000;2.696300
4126.000000;2.680589
4125.000000;2.690023
4124.000000;2.715314
4123.000000;2.743088
4122.000000;2.768680
4121.000000;2.784448
4120.000000;2.775784
4119.000000;2.748709
4118.000000;2.733317
4117.000000;2.746148
4116.000000;2.773008
4115.000000;2.791275
4114.000000;2.796551
4113.000000;2.804627
4112.000000;2.824674
4111.000000;2.839719
4110.000000;2.834462
4109.000000;2.816964
4108.000000;2.799305
4107.000000;2.786131
4106.000000;2.785952
4105.000000;2.810982
4104.000000;2.857677
4103.000000;2.901684
4102.000000;2.925530
4101.000000;2.932936
4100.000000;2.934021
4099.000000;2.932032
4098.000000;2.927176
4097.000000;2.922242
4096.000000;2.921331
4095.000000;2.920624
4094.000000;2.912815
4093.000000;2.903736
4092.000000;2.897761
4091.000000;2.891397
4090.000000;2.889759
4089.000000;2.903234
4088.000000;2.924714
4087.000000;2.931800
4086.000000;2.934669
4085.000000;2.961192
4084.000000;3.001732
4083.000000;3.025811
4082.000000;3.017738
4081.000000;2.981029
4080.000000;2.945626
4079.000000;2.938028
4078.000000;2.959956
4077.000000;3.000832
4076.000000;3.033098
4075.000000;3.013784
4074.000000;2.961462
4073.000000;2.933125
4072.000000;2.933682
4071.000000;2.930127
4070.000000;2.908455
4069.000000;2.893147
4068.000000;2.907564
4067.000000;2.952322
4066.000000;3.021364
4065.000000;3.096437
4064.000000;3.113852
4063.000000;3.044075
4062.000000;2.956356
4061.000000;2.909561
4060.000000;2.918079
4059.000000;2.964319
4058.000000;3.013921
4057.000000;3.043214
4056.000000;3.058990
4055.000000;3.077676
4054.000000;3.095769
4053.000000;3.111138
4052.000000;3.123920
4051.000000;3.098958
4050.000000;3.044722
4049.000000;3.012036
4048.000000;3.015162
4047.000000;3.046928
4046.000000;3.091916
4045.000000;3.119641
4044.000000;3.098333
4043.000000;3.046332
4042.000000;3.019266
4041.000000;3.044333
4040.000000;3.108538
4039.000000;3.185338
4038.000000;3.264545
4037.000000;3.335119
4036.000000;3.328179
4035.000000;3.201349
4034.000000;3.050718
4033.000000;2.954127
4032.000000;2.915569
4031.000000;2.907757
4030.000000;2.903835
4029.000000;2.896744
4028.000000;2.899941
4027.000000;2.923730
4026.000000;2.963340
4025.000000;3.000751
4024.000000;3.014914
4023.000000;3.012583
4022.000000;3.026979
4021.000000;3.073362
4020.000000;3.117227
4019.000000;3.103607
4018.000000;3.066245
4017.000000;3.090372
4016.000000;3.210896
4015.000000;3.322491
4014.000000;3.339646
4013.000000;3.411003
4012.000000;3.625321
4011.000000;3.789079
4010.000000;3.469227
4009.000000;3.231619
4008.000000;3.083439
4007.000000;3.003289
4006.000000;2.984454
4005.000000;2.979494
4004.000000;2.939573
4003.000000;2.885184
4002.000000;2.851392
4001.000000;2.845566
4000.000000;2.866115
3999.000000;2.924939
3998.000000;3.042918
3997.000000;3.222111
3996.000000;3.455176
3995.000000;3.884044
3994.000000;3.778146
3993.000000;3.656159
3992.000000;3.874556
3991.000000;3.329743
3990.000000;3.054025
3989.000000;3.006559
3988.000000;3.064910
3987.000000;3.154028
3986.000000;3.182935
3985.000000;3.180518
3984.000000;3.186202
3983.000000;3.171938
3982.000000;3.134768
3981.000000;3.097516
3980.000000;3.075455
3979.000000;3.074132
3978.000000;3.058520
3977.000000;3.037424
3976.000000;3.051379
3975.000000;3.091124
3974.000000;3.109894
3973.000000;3.079128
3972.000000;3.072764
3971.000000;3.134642
3970.000000;3.248934
3969.000000;3.365186
3968.000000;3.272171
3967.000000;3.077428
3966.000000;2.982777
3965.000000;2.985474
3964.000000;3.060235
3963.000000;3.191470
3962.000000;3.427184
3961.000000;3.553720
3960.000000;3.445736
3959.000000;3.461930
3958.000000;3.321778
3957.000000;3.175302
3956.000000;3.207790
3955.000000;3.378933
3954.000000;3.439258
3953.000000;3.311191
3952.000000;3.101881
3951.000000;2.937249
3950.000000;2.867513
3949.000000;2.889265
3948.000000;3.097136
3947.000000;3.341168
3946.000000;3.101403
3945.000000;3.068629
3944.000000;3.161460
3943.000000;3.283139
3942.000000;3.395736
3941.000000;3.437380
3940.000000;3.369557
3939.000000;3.257783
3938.000000;3.077603
3937.000000;2.950045
3936.000000;3.004762
3935.000000;3.425524
3934.000000;3.171238
3933.000000;2.858852
3932.000000;2.747998
3931.000000;2.701603
3930.000000;2.724078
3929.000000;2.821688
3928.000000;2.968688
3927.000000;3.091458
3926.000000;3.090227
3925.000000;3.021651
3924.000000;3.052234
3923.000000;3.193145
3922.000000;3.386679
3921.000000;3.609620
3920.000000;3.569291
3919.000000;3.345315
3918.000000;3.070229
3917.000000;2.870021
3916.000000;2.858193
3915.000000;3.070988
3914.000000;3.648213
3913.000000;3.614818
3912.000000;3.247787
3911.000000;3.137392
3910.000000;3.103965
3909.000000;3.116216
3908.000000;2.913512
3907.000000;2.781061
3906.000000;2.642977
3905.000000;2.553046
3904.000000;2.429844
3903.000000;3.025728
3902.000000;3.274202
3901.000000;3.057619
3900.000000;3.166181
3899.000000;3.255773
3898.000000;3.417744
3897.000000;3.406738
3896.000000;3.317459
3895.000000;3.190857
3894.000000;3.113410
3893.000000;3.123835
3892.000000;3.219279
3891.000000;3.341488
3890.000000;3.463579
3889.000000;3.408051
3888.000000;3.199764
3887.000000;3.079483
3886.000000;3.006089
3885.000000;2.925645
3884.000000;2.863991
3883.000000;2.877903
3882.000000;2.986527
3881.000000;3.135470
3880.000000;3.154335
3879.000000;3.063301
3878.000000;3.043667
3877.000000;3.108138
3876.000000;3.183194
3875.000000;3.422120
3874.000000;3.640842
3873.000000;3.283727
3872.000000;3.392791
3871.000000;3.692349
3870.000000;3.262941
3869.000000;3.084506
3868.000000;3.009168
3867.000000;2.994464
3866.000000;3.014206
3865.000000;3.061700
3864.000000;3.147097
3863.000000;3.247323
3862.000000;3.464214
3861.000000;3.977201
3860.000000;3.548832
3859.000000;3.102525
3858.000000;2.922614
3857.000000;2.906380
3856.000000;3.038516
3855.000000;3.216351
3854.000000;3.377365
3853.000000;3.850996
3852.000000;3.501784
3851.000000;3.279512
3850.000000;3.276257
3849.000000;3.203343
3848.000000;3.060753
3847.000000;2.994246
3846.000000;3.092955
3845.000000;3.501038
3844.000000;3.725550
3843.000000;3.334275
3842.000000;3.424332
3841.000000;3.507543
3840.000000;3.305107
3839.000000;3.173310
3838.000000;3.099467
3837.000000;3.115423
3836.000000;3.269888
3835.000000;3.647243
3834.000000;3.990116
3833.000000;3.505475
3832.000000;3.186631
3831.000000;3.057490
3830.000000;3.050151
3829.000000;3.082353
3828.000000;3.079021
3827.000000;3.068043
3826.000000;3.076685
3825.000000;3.103243
3824.000000;3.166162
3823.000000;3.233977
3822.000000;3.237366
3821.000000;3.314654
3820.000000;3.294372
3819.000000;3.009247
3818.000000;2.861385
3817.000000;2.846647
3816.000000;2.921580
3815.000000;3.013295
3814.000000;3.054095
3813.000000;3.061404
3812.000000;2.976318
3811.000000;2.850470
3810.000000;2.755264
3809.000000;2.677851
3808.000000;2.617956
3807.000000;2.603730
3806.000000;2.668499
3805.000000;2.825442
3804.000000;3.080645
3803.000000;3.375403
3802.000000;3.387550
3801.000000;3.309306
3800.000000;3.476797
3799.000000;3.609082
3798.000000;3.113712
3797.000000;2.860225
3796.000000;2.794184
3795.000000;2.853368
3794.000000;2.999882
3793.000000;3.119175
3792.000000;3.118396
3791.000000;3.118886
3790.000000;3.121182
3789.000000;3.164005
3788.000000;2.762127
3787.000000;2.524262
3786.000000;2.435717
3785.000000;2.408346
3784.000000;2.415254
3783.000000;2.451594
3782.000000;2.521140
3781.000000;2.611133
3780.000000;2.661379
3779.000000;3.023104
3778.000000;3.156766
3777.000000;3.083020
3776.000000;3.099861
3775.000000;3.031865
3774.000000;3.074572
3773.000000;3.154286
3772.000000;3.332808
3771.000000;3.453541
3770.000000;3.180128
3769.000000;2.979829
3768.000000;3.072789
3767.000000;3.429709
3766.000000;3.189296
3765.000000;3.079056
3764.000000;2.885873
3763.000000;2.753336
3762.000000;2.794339
3761.000000;2.892838
3760.000000;2.857268
3759.000000;2.790306
3758.000000;2.818983
3757.000000;2.883605
3756.000000;2.859212
3755.000000;2.789064
3754.000000;2.733102
3753.000000;2.701239
3752.000000;2.757735
3751.000000;2.992261
3750.000000;3.465468
3749.000000;3.264952
3748.000000;3.014739
3747.000000;2.900848
3746.000000;2.792594
3745.000000;2.746300
3744.000000;2.847307
3743.000000;3.392969
3742.000000;3.216222
3741.000000;2.917768
3740.000000;2.933164
3739.000000;3.001701
3738.000000;2.959433
3737.000000;2.889446
3736.000000;2.861822
3735.000000;2.893583
3734.000000;3.056425
3733.000000;2.991113
3732.000000;2.705835
3731.000000;2.604037
3730.000000;2.657489
3729.000000;2.805235
3728.000000;2.906925
3727.000000;2.897654
3726.000000;2.809686
3725.000000;2.684039
3724.000000;2.596090
3723.000000;2.570014
3722.000000;2.601904
3721.000000;2.651187
3720.000000;2.673066
3719.000000;2.680924
3718.000000;2.676926
3717.000000;2.665373
3716.000000;2.682321
3715.000000;2.765677
3714.000000;2.975449
3713.000000;3.184163
3712.000000;3.153410
3711.000000;3.046212
3710.000000;3.020461
3709.000000;2.849127
3708.000000;2.890145
3707.000000;2.386323
3706.000000;2.340569
3705.000000;2.526489
3704.000000;2.610606
3703.000000;2.471853
3702.000000;2.654865
3701.000000;2.737207
3700.000000;2.646834
3699.000000;2.804126
3698.000000;3.060918
3697.000000;2.870145
3696.000000;2.650740
3695.000000;2.626946
3694.000000;2.668644
3693.000000;2.785240
3692.000000;3.044836
3691.000000;3.458516
3690.000000;3.348873
3689.000000;2.993799
3688.000000;3.026244
3687.000000;3.047143
3686.000000;2.609540
3685.000000;2.461562
3684.000000;2.528344
3683.000000;2.704387
3682.000000;2.753123
3681.000000;2.612055
3680.000000;2.514253
3679.000000;2.498715
3678.000000;2.569907
3677.000000;2.726007
3676.000000;2.911308
3675.000000;3.152085
3674.000000;3.445845
3673.000000;3.218164
3672.000000;2.843632
3671.000000;2.591247
3670.000000;2.485267
3669.000000;2.454716
3668.000000;2.437329
3667.000000;2.457700
3666.000000;2.603153
3665.000000;2.796085
3664.000000;2.660361
3663.000000;2.544710
3662.000000;2.580386
3661.000000;2.723795
3660.000000;2.961396
3659.000000;3.179513
3658.000000;3.157763
3657.000000;2.985336
3656.000000;2.832644
3655.000000;2.730960
3654.000000;2.655742
3653.000000;2.597572
3652.000000;2.585598
3651.000000;2.685548
3650.000000;3.096896
3649.000000;3.333001
3648.000000;3.007193
3647.000000;2.905221
3646.000000;2.534011
3645.000000;2.306009
3644.000000;2.241110
3643.000000;2.331197
3642.000000;2.815780
3641.000000;2.900157
3640.000000;2.496990
3639.000000;2.400356
3638.000000;2.298394
3637.000000;2.176706
3636.000000;2.103471
3635.000000;2.131578
3634.000000;2.298727
3633.000000;2.714077
3632.000000;3.608809
3631.000000;3.406061
3630.000000;2.896537
3629.000000;2.513943
3628.000000;2.388207
3627.000000;2.418808
3626.000000;2.625913
3625.000000;3.038212
3624.000000;3.034882
3623.000000;2.900902
3622.000000;2.838108
3621.000000;2.738319
3620.000000;2.617939
3619.000000;2.618778
3618.000000;2.797628
3617.000000;2.642521
3616.000000;2.426373
3615.000000;2.377928
3614.000000;2.381273
3613.000000;2.408376
3612.000000;2.535946
3611.000000;2.876662
3610.000000;2.938007
3609.000000;2.523999
3608.000000;2.574137
3607.000000;2.208429
3606.000000;2.231835
3605.000000;2.349655
3604.000000;2.115616
3603.000000;1.971959
3602.000000;1.927760
3601.000000;2.013767
3600.000000;2.250219
3599.000000;2.470984
3598.000000;2.485599
3597.000000;2.570074
3596.000000;2.519929
3595.000000;2.320943
3594.000000;2.114781
3593.000000;1.950549
3592.000000;1.884822
3591.000000;1.949544
3590.000000;2.064253
3589.000000;1.961734
3588.000000;1.811960
3587.000000;1.799636
3586.000000;1.853737
3585.000000;2.007034
3584.000000;2.425688
3583.000000;2.663753
3582.000000;2.342292
3581.000000;2.289293
3580.000000;2.433627
3579.000000;2.534370
3578.000000;2.495912
3577.000000;2.558022
3576.000000;2.691726
3575.000000;2.691380
3574.000000;2.574268
3573.000000;2.539407
3572.000000;2.448695
3571.000000;2.184815
3570.000000;2.019932
3569.000000;1.924032
3568.000000;1.837397
3567.000000;1.718718
3566.000000;1.615124
3565.000000;1.610612
3564.000000;1.690319
3563.000000;1.802730
3562.000000;1.941685
3561.000000;2.106136
3560.000000;2.270914
3559.000000;2.402934
3558.000000;2.526577
3557.000000;2.640062
3556.000000;2.370817
3555.000000;2.155540
3554.000000;2.093701
3553.000000;2.113112
3552.000000;2.213720
3551.000000;2.235490
3550.000000;2.103021
3549.000000;1.976691
3548.000000;1.910654
3547.000000;1.900839
3546.000000;1.928016
3545.000000;1.996031
3544.000000;2.101641
3543.000000;2.231435
3542.000000;2.373973
3541.000000;2.495431
3540.000000;2.522735
3539.000000;2.494815
3538.000000;2.830163
3537.000000;2.936485
3536.000000;2.387222
3535.000000;2.260670
3534.000000;2.347029
3533.000000;2.592354
3532.000000;2.718247
3531.000000;2.528450
3530.000000;2.331570
3529.000000;2.208617
3528.000000;2.173085
3527.000000;2.159726
3526.000000;2.119693
3525.000000;2.073032
3524.000000;2.081110
3523.000000;2.195898
3522.000000;2.446096
3521.000000;2.779252
3520.000000;2.865287
3519.000000;2.690946
3518.000000;2.570520
3517.000000;2.606188
3516.000000;2.799509
3515.000000;2.914505
3514.000000;2.893146
3513.000000;2.823404
3512.000000;2.667773
3511.000000;2.407697
3510.000000;2.201255
3509.000000;2.124433
3508.000000;2.185354
3507.000000;2.564872
3506.000000;2.792858
3505.000000;2.313855
3504.000000;2.120981
3503.000000;2.057606
3502.000000;2.080920
3501.000000;2.164789
3500.000000;2.252089
3499.000000;2.320608
3498.000000;2.438787
3497.000000;2.747586
3496.000000;2.818976
3495.000000;2.580736
3494.000000;2.500808
3493.000000;2.472616
3492.000000;2.478584
3491.000000;2.529616
3490.000000;2.691381
3489.000000;2.829549
3488.000000;2.683183
3487.000000;2.542107
3486.000000;2.446839
3485.000000;2.416733
3484.000000;2.432824
3483.000000;2.358497
3482.000000;2.223494
3481.000000;2.143012
3480.000000;2.166026
3479.000000;2.278869
3478.000000;2.432009
3477.000000;2.556224
3476.000000;2.676485
3475.000000;3.052412
3474.000000;2.941978
3473.000000;2.566090
3472.000000;2.477467
3471.000000;2.577118
3470.000000;2.739734
3469.000000;2.641395
3468.000000;2.537620
3467.000000;2.542408
3466.000000;2.588610
3465.000000;2.621744
3464.000000;2.584092
3463.000000;2.555488
3462.000000;2.607358
3461.000000;2.601628
3460.000000;2.470125
3459.000000;2.423183
3458.000000;2.408618
3457.000000;2.368427
3456.000000;2.381251
3455.000000;2.565389
3454.000000;3.088320
3453.000000;2.835637
3452.000000;2.515232
3451.000000;2.413561
3450.000000;2.311564
3449.000000;2.256510
3448.000000;2.292363
3447.000000;2.469499
3446.000000;2.890067
3445.000000;3.405444
3444.000000;3.306987
3443.000000;3.251721
3442.000000;3.057197
3441.000000;2.989454
3440.000000;2.819368
3439.000000;2.609632
3438.000000;2.552940
3437.000000;2.512144
3436.000000;2.453403
3435.000000;2.457498
3434.000000;2.536730
3433.000000;2.595393
3432.000000;2.542263
3431.000000;2.454146
3430.000000;2.362245
3429.000000;2.283835
3428.000000;2.248867
3427.000000;2.248782
3426.000000;2.265367
3425.000000;2.296995
3424.000000;2.352597
3423.000000;2.441734
3422.000000;2.543354
3421.000000;2.570659
3420.000000;2.531663
3419.000000;2.540255
3418.000000;2.640993
3417.000000;2.836250
3416.000000;2.891309
3415.000000;2.644339
3414.000000;2.437942
3413.000000;2.352781
3412.000000;2.382136
3411.000000;2.559778
3410.000000;2.949758
3409.000000;2.872994
3408.000000;2.629086
3407.000000;2.705061
3406.000000;3.006114
3405.000000;3.367985
3404.000000;2.862878
3403.000000;2.528424
3402.000000;2.446982
3401.000000;2.514267
3400.000000;2.649050
3399.000000;2.728433
3398.000000;2.787387
3397.000000;3.037040
3396.000000;3.663397
3395.000000;3.408717
3394.000000;3.323819
3393.000000;3.306824
3392.000000;2.957943
3391.000000;2.648164
3390.000000;2.455962
3389.000000;2.391452
3388.000000;2.428392
3387.000000;2.543084
3386.000000;2.691070
3385.000000;2.833821
3384.000000;2.980845
3383.000000;3.013540
3382.000000;2.861128
3381.000000;2.771786
3380.000000;2.838809
3379.000000;2.961486
3378.000000;2.950098
3377.000000;2.873292
3376.000000;2.645378
3375.000000;2.441319
3374.000000;2.359760
3373.000000;2.414376
3372.000000;2.580388
3371.000000;2.765180
3370.000000;3.155801
3369.000000;3.011071
3368.000000;2.682439
3367.000000;2.649971
3366.000000;2.627361
3365.000000;2.564710
3364.000000;2.567976
3363.000000;2.632622
3362.000000;2.697703
3361.000000;2.789569
3360.000000;2.885689
3359.000000;2.871904
3358.000000;2.736797
3357.000000;2.599679
3356.000000;2.556139
3355.000000;2.616212
3354.000000;2.737677
3353.000000;2.839165
3352.000000;2.837378
3351.000000;2.825213
3350.000000;3.128431
3349.000000;3.468263
3348.000000;3.032090
3347.000000;2.947633
3346.000000;2.925101
3345.000000;2.858228
3344.000000;2.878362
3343.000000;2.998445
3342.000000;3.039369
3341.000000;2.829488
3340.000000;2.626885
3339.000000;2.532047
3338.000000;2.534080
3337.000000;2.677481
3336.000000;3.068845
3335.000000;3.089981
3334.000000;2.847560
3333.000000;2.815641
3332.000000;2.876452
3331.000000;3.178365
3330.000000;3.046898
3329.000000;2.674933
3328.000000;2.613299
3327.000000;2.722287
3326.000000;2.992715
3325.000000;3.525296
3324.000000;3.475836
3323.000000;3.129335
3322.000000;3.175002
3321.000000;3.743071
3320.000000;3.637247
3319.000000;3.094460
3318.000000;2.837237
3317.000000;2.701823
3316.000000;2.701256
3315.000000;2.803921
3314.000000;3.026742
3313.000000;3.224569
3312.000000;3.013724
3311.000000;2.853056
3310.000000;2.837945
3309.000000;2.838208
3308.000000;2.743068
3307.000000;2.678587
3306.000000;2.758140
3305.000000;2.825717
3304.000000;2.698620
3303.000000;2.613572
3302.000000;2.640470
3301.000000;2.867887
3300.000000;3.236674
3299.000000;3.059499
3298.000000;2.920483
3297.000000;2.937630
3296.000000;2.925184
3295.000000;2.886399
3294.000000;3.152612
3293.000000;3.261601
3292.000000;2.853031
3291.000000;2.663016
3290.000000;2.509357
3289.000000;2.431297
3288.000000;2.465979
3287.000000;2.572002
3286.000000;2.690351
3285.000000;2.776981
3284.000000;2.955114
3283.000000;3.128716
3282.000000;2.870889
3281.000000;2.636836
3280.000000;2.514908
3279.000000;2.487448
3278.000000;2.559581
3277.000000;2.625142
3276.000000;2.566841
3275.000000;2.498878
3274.000000;2.488667
3273.000000;2.533720
3272.000000;2.671021
3271.000000;2.886499
3270.000000;3.268120
3269.000000;3.551945
3268.000000;3.147547
3267.000000;3.031315
3266.000000;2.930961
3265.000000;2.782991
3264.000000;2.742399
3263.000000;2.790201
3262.000000;2.927337
3261.000000;3.059813
3260.000000;3.039281
3259.000000;2.958408
3258.000000;2.855846
3257.000000;2.780075
3256.000000;2.714318
3255.000000;2.662903
3254.000000;2.688983
3253.000000;2.705682
3252.000000;2.675137
3251.000000;2.706550
3250.000000;2.962858
3249.000000;3.252617
3248.000000;2.939396
3247.000000;2.838172
3246.000000;2.896532
3245.000000;2.960968
3244.000000;2.881573
3243.000000;2.721051
3242.000000;2.645861
3241.000000;2.617901
3240.000000;2.597148
3239.000000;2.547751
3238.000000;2.531142
3237.000000;2.623906
3236.000000;2.892080
3235.000000;3.504378
3234.000000;4.036163
3233.000000;3.515931
3232.000000;3.132999
3231.000000;2.832660
3230.000000;2.655599
3229.000000;2.584702
3228.000000;2.572332
3227.000000;2.607168
3226.000000;2.682885
3225.000000;2.939083
3224.000000;3.452008
3223.000000;3.081382
3222.000000;2.869386
3221.000000;2.839874
3220.000000;2.844064
3219.000000;3.070865
3218.000000;3.475910
3217.000000;3.053831
3216.000000;2.835022
3215.000000;2.866287
3214.000000;2.990919
3213.000000;3.142353
3212.000000;3.258429
3211.000000;3.483317
3210.000000;3.451616
3209.000000;3.169965
3208.000000;3.180662
3207.000000;3.294805
3206.000000;2.947619
3205.000000;2.729141
3204.000000;2.711987
3203.000000;2.746708
3202.000000;2.734076
3201.000000;2.713706
3200.000000;2.742695
3199.000000;2.828187
3198.000000;3.069071
3197.000000;3.630448
3196.000000;3.492783
3195.000000;3.051851
3194.000000;2.945239
3193.000000;2.983523
3192.000000;2.960383
3191.000000;2.840231
3190.000000;2.833190
3189.000000;3.113696
3188.000000;3.143630
3187.000000;2.822734
3186.000000;2.719013
3185.000000;2.686970
3184.000000;2.684699
3183.000000;2.689506
3182.000000;2.675993
3181.000000;2.655354
3180.000000;2.643787
3179.000000;2.664339
3178.000000;2.725964
3177.000000;2.784611
3176.000000;2.741664
3175.000000;2.659860
3174.000000;2.608405
3173.000000;2.598795
3172.000000;2.683854
3171.000000;2.957000
3170.000000;3.031685
3169.000000;2.835257
3168.000000;2.892612
3167.000000;3.106933
3166.000000;3.242243
3165.000000;3.228818
3164.000000;3.148989
3163.000000;2.927551
3162.000000;2.752481
3161.000000;2.740592
3160.000000;2.862653
3159.000000;2.988518
3158.000000;2.906321
3157.000000;2.750843
3156.000000;2.659787
3155.000000;2.668811
3154.000000;2.799484
3153.000000;3.007805
3152.000000;3.003367
3151.000000;2.850482
3150.000000;2.791131
3149.000000;2.829141
3148.000000;2.931966
3147.000000;3.120455
3146.000000;3.235114
3145.000000;3.001825
3144.000000;2.809957
3143.000000;2.717244
3142.000000;2.692573
3141.000000;2.730180
3140.000000;2.798281
3139.000000;2.862091
3138.000000;2.917807
3137.000000;2.901678
3136.000000;2.876701
3135.000000;2.867483
3134.000000;3.043561
3133.000000;3.442416
3132.000000;3.012492
3131.000000;2.742393
3130.000000;2.818977
3129.000000;3.368106
3128.000000;3.388372
3127.000000;3.069640
3126.000000;3.010787
3125.000000;2.722479
3124.000000;2.578289
3123.000000;2.585902
3122.000000;2.764021
3121.000000;3.260335
3120.000000;3.084168
3119.000000;2.739681
3118.000000;2.639135
3117.000000;2.661798
3116.000000;2.791374
3115.000000;2.866713
3114.000000;2.845027
3113.000000;2.905762
3112.000000;3.371210
3111.000000;3.433283
3110.000000;2.897325
3109.000000;2.795299
3108.000000;2.839468
3107.000000;3.091163
3106.000000;3.171175
3105.000000;2.955549
3104.000000;2.989210
3103.000000;3.089533
3102.000000;3.103391
3101.000000;3.047516
3100.000000;3.008903
3099.000000;2.992177
3098.000000;2.940538
3097.000000;2.895120
3096.000000;2.952271
3095.000000;3.254431
3094.000000;3.254569
3093.000000;2.831128
3092.000000;2.668137
3091.000000;2.626548
3090.000000;2.646384
3089.000000;2.705279
3088.000000;2.696927
3087.000000;2.684665
3086.000000;2.817910
3085.000000;3.163575
3084.000000;3.510391
3083.000000;3.148792
3082.000000;2.831892
3081.000000;2.716776
3080.000000;2.754171
3079.000000;2.895915
3078.000000;3.104297
3077.000000;3.289345
3076.000000;3.005377
3075.000000;2.761420
3074.000000;2.682742
3073.000000;2.686649
3072.000000;2.778175
3071.000000;2.874802
3070.000000;2.862703
3069.000000;2.822802
3068.000000;2.815858
3067.000000;2.840528
3066.000000;2.884389
3065.000000;3.036729
3064.000000;3.495820
3063.000000;3.615231
3062.000000;3.257044
3061.000000;3.098324
3060.000000;2.886326
3059.000000;2.705013
3058.000000;2.624782
3057.000000;2.649754
3056.000000;2.742518
3055.000000;2.815687
3054.000000;2.864764
3053.000000;2.922367
3052.000000;2.955251
3051.000000;2.977907
3050.000000;2.976680
3049.000000;2.926980
3048.000000;2.935516
3047.000000;3.042290
3046.000000;3.150468
3045.000000;3.214999
3044.000000;3.230919
3043.000000;3.109146
3042.000000;2.969181
3041.000000;2.916678
3040.000000;2.901283
3039.000000;2.834102
3038.000000;2.732109
3037.000000;2.644447
3036.000000;2.595785
3035.000000;2.617797
3034.000000;2.729629
3033.000000;2.898772
3032.000000;2.996146
3031.000000;2.838924
3030.000000;2.639586
3029.000000;2.571826
3028.000000;2.607654
3027.000000;2.664533
3026.000000;2.647191
3025.000000;2.623421
3024.000000;2.671243
3023.000000;2.855543
3022.000000;3.173911
3021.000000;3.283408
3020.000000;3.459831
3019.000000;3.241277
3018.000000;2.923288
3017.000000;2.845221
3016.000000;2.852236
3015.000000;2.804950
3014.000000;2.704642
3013.000000;2.655984
3012.000000;2.762584
3011.000000;3.052735
3010.000000;3.006857
3009.000000;2.875328
3008.000000;3.008513
3007.000000;3.107641
3006.000000;3.021257
3005.000000;3.078205
3004.000000;3.325219
3003.000000;3.706151
3002.000000;4.138070
3001.000000;3.802566
3000.000000;3.308873
2999.000000;2.993748
2998.000000;2.779980
2997.000000;2.639303
2996.000000;2.557554
2995.000000;2.544583
2994.000000;2.608622
2993.000000;2.798400
2992.000000;3.165236
2991.000000;3.556824
2990.000000;3.760363
2989.000000;3.351651
2988.000000;3.082921
2987.000000;3.094852
2986.000000;3.442022
2985.000000;3.326105
2984.000000;2.871604
2983.000000;2.686127
2982.000000;2.601436
2981.000000;2.582873
2980.000000;2.632310
2979.000000;2.748694
2978.000000;2.882858
2977.000000;2.891542
2976.000000;2.844858
2975.000000;2.790353
2974.000000;2.760264
2973.000000;2.755335
2972.000000;2.844301
2971.000000;2.937274
2970.000000;3.004905
2969.000000;3.544547
2968.000000;3.072078
2967.000000;2.707029
2966.000000;2.729731
2965.000000;2.864973
2964.000000;2.912360
2963.000000;2.902120
2962.000000;3.017583
2961.000000;3.188977
2960.000000;3.168472
2959.000000;2.932261
2958.000000;2.714648
2957.000000;2.595411
2956.000000;2.555539
2955.000000;2.567253
2954.000000;2.604764
2953.000000;2.682295
2952.000000;2.827831
2951.000000;3.128644
2950.000000;3.354851
2949.000000;3.205398
2948.000000;3.655297
2947.000000;3.542283
2946.000000;2.944033
2945.000000;2.789534
2944.000000;2.724441
2943.000000;2.702445
2942.000000;2.669211
2941.000000;2.619021
2940.000000;2.591515
2939.000000;2.602281
2938.000000;2.680837
2937.000000;2.828480
2936.000000;3.029310
2935.000000;3.323610
2934.000000;3.396428
2933.000000;3.145930
2932.000000;2.997777
2931.000000;2.895784
2930.000000;2.849655
2929.000000;2.852697
2928.000000;2.825177
2927.000000;2.736770
2926.000000;2.652863
2925.000000;2.610654
2924.000000;2.603965
2923.000000;2.631271
2922.000000;2.710385
2921.000000;2.867715
2920.000000;2.999276
2919.000000;2.942964
2918.000000;2.955430
2917.000000;3.151774
2916.000000;3.086513
2915.000000;2.902362
2914.000000;2.830354
2913.000000;2.723979
2912.000000;2.627482
2911.000000;2.619204
2910.000000;2.698205
2909.000000;2.803764
2908.000000;2.807975
2907.000000;2.721652
2906.000000;2.682247
2905.000000;2.784900
2904.000000;3.163935
2903.000000;3.292381
2902.000000;2.942606
2901.000000;2.892656
2900.000000;2.918647
2899.000000;3.029658
2898.000000;3.243394
2897.000000;3.191205
2896.000000;3.212663
2895.000000;3.275545
2894.000000;3.253729
2893.000000;3.316215
2892.000000;3.185686
2891.000000;3.039742
2890.000000;3.002020
2889.000000;2.944455
2888.000000;2.919892
2887.000000;3.112803
2886.000000;3.127500
2885.000000;2.792811
2884.000000;2.624485
2883.000000;2.575675
2882.000000;2.594402
2881.000000;2.685097
2880.000000;2.842527
2879.000000;3.115533
2878.000000;3.442017
2877.000000;3.191307
2876.000000;2.986284
2875.000000;2.930030
2874.000000;2.940140
2873.000000;2.976996
2872.000000;2.962368
2871.000000;2.935969
2870.000000;2.952160
2869.000000;3.042264
2868.000000;3.146181
2867.000000;3.153940
2866.000000;3.388016
2865.000000;3.767465
2864.000000;3.390655
2863.000000;3.466808
2862.000000;3.803824
2861.000000;3.360858
2860.000000;3.043051
2859.000000;2.905044
2858.000000;2.880109
2857.000000;2.875141
2856.000000;2.824633
2855.000000;2.774497
2854.000000;2.750803
2853.000000;2.766124
2852.000000;2.795828
2851.000000;2.790113
2850.000000;2.821900
2849.000000;2.965240
2848.000000;2.996800
2847.000000;2.840452
2846.000000;2.767216
2845.000000;2.782274
2844.000000;2.849467
2843.000000;2.931170
2842.000000;2.979053
2841.000000;2.961995
2840.000000;2.869855
2839.000000;2.781104
2838.000000;2.760395
2837.000000;2.847859
2836.000000;3.091666
2835.000000;3.463453
2834.000000;3.409509
2833.000000;3.420527
2832.000000;4.116138
2831.000000;3.410251
2830.000000;2.988384
2829.000000;2.818953
2828.000000;2.756967
2827.000000;2.790274
2826.000000;2.898278
2825.000000;3.088057
2824.000000;3.059772
2823.000000;2.866343
2822.000000;2.775127
2821.000000;2.723658
2820.000000;2.657908
2819.000000;2.589135
2818.000000;2.542518
2817.000000;2.534254
2816.000000;2.572133
2815.000000;2.650433
2814.000000;2.739020
2813.000000;2.818149
2812.000000;2.879982
2811.000000;2.879642
2810.000000;2.836523
2809.000000;2.822288
2808.000000;2.823414
2807.000000;2.795243
2806.000000;2.777898
2805.000000;2.815468
2804.000000;2.933337
2803.000000;3.086134
2802.000000;3.159828
2801.000000;3.319550
2800.000000;3.361356
2799.000000;3.068614
2798.000000;2.869550
2797.000000;2.789673
2796.000000;2.811828
2795.000000;2.928416
2794.000000;3.079289
2793.000000;3.110403
2792.000000;3.120192
2791.000000;2.967850
2790.000000;2.701816
2789.000000;2.571369
2788.000000;2.560923
2787.000000;2.634751
2786.000000;2.748155
2785.000000;2.842523
2784.000000;2.878288
2783.000000;2.841725
2782.000000;2.783963
2781.000000;2.757004
2780.000000;2.826375
2779.000000;3.047444
2778.000000;3.080133
2777.000000;2.934771
2776.000000;2.919004
2775.000000;3.106937
2774.000000;3.468550
2773.000000;3.187210
2772.000000;3.052733
2771.000000;3.089781
2770.000000;3.239686
2769.000000;3.649217
2768.000000;3.463106
2767.000000;3.169691
2766.000000;3.218672
2765.000000;3.541446
2764.000000;3.606793
2763.000000;3.450042
2762.000000;3.262014
2761.000000;3.111575
2760.000000;3.149407
2759.000000;3.294687
2758.000000;3.275789
2757.000000;3.149431
2756.000000;3.125996
2755.000000;3.278740
2754.000000;3.594389
2753.000000;3.071395
2752.000000;2.727407
2751.000000;2.630829
2750.000000;2.681684
2749.000000;2.865061
2748.000000;3.002367
2747.000000;2.922227
2746.000000;2.845186
2745.000000;2.807757
2744.000000;2.754792
2743.000000;2.725577
2742.000000;2.765073
2741.000000;2.944190
2740.000000;3.355545
2739.000000;3.337231
2738.000000;3.124154
2737.000000;3.159477
2736.000000;3.336165
2735.000000;3.542390
2734.000000;3.704939
2733.000000;4.083786
2732.000000;3.710179
2731.000000;3.734895
2730.000000;3.735818
2729.000000;3.239217
2728.000000;3.017746
2727.000000;2.885506
2726.000000;2.767918
2725.000000;2.673502
2724.000000;2.608974
2723.000000;2.601171
2722.000000;2.681627
2721.000000;2.968611
2720.000000;3.285791
2719.000000;2.941601
2718.000000;2.834313
2717.000000;2.907911
2716.000000;3.079324
2715.000000;3.202746
2714.000000;3.033158
2713.000000;2.869281
2712.000000;2.849675
2711.000000;2.973158
2710.000000;2.986389
2709.000000;2.885928
2708.000000;2.887813
2707.000000;2.925329
2706.000000;2.935376
2705.000000;2.907976
2704.000000;2.851052
2703.000000;2.767362
2702.000000;2.695020
2701.000000;2.683286
2700.000000;2.737028
2699.000000;2.812532
2698.000000;2.845224
2697.000000;2.829325
2696.000000;2.830881
2695.000000;2.898232
2694.000000;3.052872
2693.000000;3.359760
2692.000000;3.248030
2691.000000;2.860523
2690.000000;2.658329
2689.000000;2.584280
2688.000000;2.619931
2687.000000;2.774166
2686.000000;2.956465
2685.000000;2.926302
2684.000000;2.834619
2683.000000;2.784023
2682.000000;2.760852
2681.000000;2.769886
2680.000000;2.802792
2679.000000;2.858338
2678.000000;2.979088
2677.000000;3.058875
2676.000000;2.846548
2675.000000;2.635756
2674.000000;2.551714
2673.000000;2.582481
2672.000000;2.734673
2671.000000;3.008831
2670.000000;3.303188
2669.000000;3.262399
2668.000000;3.129789
2667.000000;3.091445
2666.000000;3.036923
2665.000000;3.001834
2664.000000;3.179018
2663.000000;3.432865
2662.000000;3.030688
2661.000000;2.826362
2660.000000;2.760818
2659.000000;2.772503
2658.000000;2.848958
2657.000000;2.976164
2656.000000;3.128404
2655.000000;3.158781
2654.000000;3.270513
2653.000000;3.552474
2652.000000;3.150234
2651.000000;2.823176
2650.000000;2.720780
2649.000000;2.756273
2648.000000;2.971210
2647.000000;3.387731
2646.000000;3.273035
2645.000000;3.136724
2644.000000;3.071370
2643.000000;2.845637
2642.000000;2.700222
2641.000000;2.679526
2640.000000;2.758922
2639.000000;2.978204
2638.000000;3.412280
2637.000000;3.233616
2636.000000;3.050154
2635.000000;3.043835
2634.000000;3.054142
2633.000000;3.029493
2632.000000;2.953072
2631.000000;2.804822
2630.000000;2.692128
2629.000000;2.675391
2628.000000;2.696860
2627.000000;2.684612
2626.000000;2.652972
2625.000000;2.647475
2624.000000;2.704101
2623.000000;2.815419
2622.000000;2.910054
2621.000000;3.006011
2620.000000;3.281562
2619.000000;3.858478
2618.000000;3.458460
2617.000000;3.194337
2616.000000;3.147892
2615.000000;3.145509
2614.000000;3.117552
2613.000000;3.015550
2612.000000;2.908799
2611.000000;2.869480
2610.000000;2.920378
2609.000000;3.045377
2608.000000;3.263959
2607.000000;3.165590
2606.000000;2.915948
2605.000000;2.915843
2604.000000;3.005879
2603.000000;2.968198
2602.000000;2.938654
2601.000000;3.130601
2600.000000;3.619859
2599.000000;3.384423
2598.000000;3.199663
2597.000000;3.232192
2596.000000;3.179809
2595.000000;3.072481
2594.000000;2.998759
2593.000000;3.028208
2592.000000;3.126209
2591.000000;3.109389
2590.000000;3.081120
2589.000000;3.091287
2588.000000;2.847020
2587.000000;2.622274
2586.000000;2.545870
2585.000000;2.607737
2584.000000;2.809361
2583.000000;3.072309
2582.000000;3.192110
2581.000000;3.187010
2580.000000;3.136428
2579.000000;3.109130
2578.000000;3.243796
2577.000000;3.386039
2576.000000;3.053059
2575.000000;2.857856
2574.000000;2.814369
2573.000000;2.853004
2572.000000;2.907561
2571.000000;2.984265
2570.000000;3.118096
2569.000000;3.155647
2568.000000;3.117206
2567.000000;3.154499
2566.000000;3.178097
2565.000000;3.170070
2564.000000;3.199328
2563.000000;3.172355
2562.000000;3.058892
2561.000000;2.975825
2560.000000;3.014246
2559.000000;3.139624
2558.000000;3.031038
2557.000000;2.895954
2556.000000;2.966375
2555.000000;3.152686
2554.000000;2.887061
2553.000000;2.677834
2552.000000;2.615433
2551.000000;2.638021
2550.000000;2.696336
2549.000000;2.736892
2548.000000;2.744210
2547.000000;2.731928
2546.000000;2.723428
2545.000000;2.745439
2544.000000;2.839173
2543.000000;2.987836
2542.000000;2.994795
2541.000000;2.915534
2540.000000;2.898783
2539.000000;2.906074
2538.000000;2.941301
2537.000000;3.029779
2536.000000;3.157244
2535.000000;3.275138
2534.000000;3.344358
2533.000000;3.279271
2532.000000;3.167649
2531.000000;3.169827
2530.000000;3.444956
2529.000000;3.884698
2528.000000;3.271572
2527.000000;3.039577
2526.000000;2.874542
2525.000000;2.784570
2524.000000;2.794046
2523.000000;2.866770
2522.000000;2.930781
2521.000000;2.914700
2520.000000;2.815076
2519.000000;2.723579
2518.000000;2.712562
2517.000000;2.793087
2516.000000;2.969799
2515.000000;3.264371
2514.000000;3.569016
2513.000000;3.652517
2512.000000;3.235253
2511.000000;2.885783
2510.000000;2.728608
2509.000000;2.715710
2508.000000;2.836498
2507.000000;3.106349
2506.000000;3.336404
2505.000000;3.172407
2504.000000;3.075292
2503.000000;3.036606
2502.000000;2.998061
2501.000000;3.007293
2500.000000;3.095228
2499.000000;3.269207
2498.000000;3.355166
2497.000000;3.261510
2496.000000;3.280391
2495.000000;3.388308
2494.000000;3.326773
2493.000000;3.184016
2492.000000;3.173618
2491.000000;3.230026
2490.000000;3.126573
2489.000000;3.011361
2488.000000;2.992027
2487.000000;2.968204
2486.000000;2.904392
2485.000000;2.859615
2484.000000;2.863121
2483.000000;2.852979
2482.000000;2.779769
2481.000000;2.716811
2480.000000;2.719378
2479.000000;2.803911
2478.000000;3.011333
2477.000000;3.115216
2476.000000;2.874974
2475.000000;2.727185
2474.000000;2.663571
2473.000000;2.646884
2472.000000;2.664390
2471.000000;2.704148
2470.000000;2.790055
2469.000000;2.964629
2468.000000;3.288090
2467.000000;3.805165
2466.000000;3.519870
2465.000000;3.127777
2464.000000;2.978486
2463.000000;2.977859
2462.000000;3.109511
2461.000000;3.252946
2460.000000;3.200887
2459.000000;3.043658
2458.000000;2.917679
2457.000000;2.871422
2456.000000;2.906994
2455.000000;2.997907
2454.000000;3.038893
2453.000000;2.960147
2452.000000;2.932429
2451.000000;3.042487
2450.000000;3.002638
2449.000000;2.817339
2448.000000;2.737069
2447.000000;2.737813
2446.000000;2.797571
2445.000000;2.938323
2444.000000;3.169190
2443.000000;3.227316
2442.000000;3.068828
2441.000000;3.028767
2440.000000;3.085925
2439.000000;3.195139
2438.000000;3.257792
2437.000000;3.238422
2436.000000;3.256245
2435.000000;3.152497
2434.000000;2.974494
2433.000000;2.897637
2432.000000;2.925048
2431.000000;3.047741
2430.000000;3.176677
2429.000000;3.214872
2428.000000;3.250383
2427.000000;3.298318
2426.000000;3.302290
2425.000000;3.145619
2424.000000;2.995706
2423.000000;2.971514
2422.000000;3.048570
2421.000000;3.212017
2420.000000;3.616643
2419.000000;3.499453
2418.000000;3.113231
2417.000000;2.970511
2416.000000;2.978328
2415.000000;3.108623
2414.000000;3.186334
2413.000000;3.149624
2412.000000;3.069254
2411.000000;2.983621
2410.000000;2.976247
2409.000000;2.973455
2408.000000;2.940926
2407.000000;2.971937
2406.000000;3.070879
2405.000000;3.073008
2404.000000;2.989467
2403.000000;2.955785
2402.000000;2.992280
2401.000000;3.088044
2400.000000;3.164608
2399.000000;3.132295
2398.000000;3.057600
2397.000000;3.033117
2396.000000;3.086947
2395.000000;3.164452
2394.000000;3.154111
2393.000000;3.073275
2392.000000;2.994099
2391.000000;2.971447
2390.000000;3.042169
2389.000000;3.338888
2388.000000;3.610079
2387.000000;3.048327
2386.000000;2.777895
2385.000000;2.592854
2384.000000;2.472127
2383.000000;2.402456
2382.000000;2.375373
2381.000000;2.412172
2380.000000;2.440649
2379.000000;2.481056
2378.000000;3.067232
2377.000000;3.042564
2376.000000;3.115050
2375.000000;3.022927
2374.000000;2.929491
2373.000000;2.883173
2372.000000;2.904044
2371.000000;2.934395
2370.000000;2.916438
2369.000000;2.866384
2368.000000;2.871170
2367.000000;2.976557
2366.000000;3.180371
2365.000000;3.265233
2364.000000;3.084782
2363.000000;2.999994
2362.000000;3.116292
2361.000000;3.324275
2360.000000;3.045931
2359.000000;2.842118
2358.000000;2.791267
2357.000000;2.852223
2356.000000;2.896908
2355.000000;2.786998
2354.000000;2.699918
2353.000000;2.727135
2352.000000;2.823620
2351.000000;2.795779
2350.000000;2.698525
2349.000000;2.676829
2348.000000;2.723811
2347.000000;2.817915
2346.000000;2.929495
2345.000000;3.022528
2344.000000;3.092556
2343.000000;3.135355
2342.000000;3.140440
2341.000000;3.254694
2340.000000;3.699547
2339.000000;3.615096
2338.000000;3.301412
2337.000000;3.023238
2336.000000;2.880653
2335.000000;2.898251
2334.000000;2.924286
2333.000000;2.783349
2332.000000;2.686396
2331.000000;2.707588
2330.000000;2.847229
2329.000000;3.125366
2328.000000;3.770500
2327.000000;4.502912
2326.000000;3.692928
2325.000000;3.414024
2324.000000;3.277313
2323.000000;3.097136
2322.000000;2.898854
2321.000000;2.816338
2320.000000;2.837382
2319.000000;2.950289
2318.000000;3.133970
2317.000000;3.322510
2316.000000;3.222214
2315.000000;3.133341
2314.000000;3.002733
2313.000000;2.563862
2312.000000;2.672681
2311.000000;2.760710
2310.000000;2.876201
2309.000000;2.957764
2308.000000;3.055843
2307.000000;3.296219
2306.000000;3.131359
2305.000000;2.741222
2304.000000;2.567726
2303.000000;2.489634
2302.000000;2.476588
2301.000000;2.503538
2300.000000;2.570190
2299.000000;2.668410
2298.000000;2.734058
2297.000000;2.708336
2296.000000;2.662352
2295.000000;2.657895
2294.000000;2.709725
2293.000000;2.800988
2292.000000;2.886151
2291.000000;2.960475
2290.000000;3.022225
2289.000000;3.020108
2288.000000;2.989824
2287.000000;2.967330
2286.000000;2.931875
2285.000000;2.851577
2284.000000;2.794646
2283.000000;2.817112
2282.000000;2.837455
2281.000000;2.832414
2280.000000;2.916885
2279.000000;3.350551
2278.000000;3.854766
2277.000000;3.190658
2276.000000;3.314825
2275.000000;3.347592
2274.000000;3.253504
2273.000000;3.048968
2272.000000;2.845133
2271.000000;2.765077
2270.000000;2.795794
2269.000000;2.887583
2268.000000;2.979403
2267.000000;3.036034
2266.000000;3.041095
2265.000000;3.025035
2264.000000;3.050306
2263.000000;3.124001
2262.000000;3.173933
2261.000000;3.171627
2260.000000;3.264217
2259.000000;3.264330
2258.000000;2.937835
2257.000000;2.768152
2256.000000;2.719815
2255.000000;2.745455
2254.000000;2.783809
2253.000000;2.788273
2252.000000;2.791711
2251.000000;2.824474
2250.000000;2.839279
2249.000000;2.794980
2248.000000;2.743800
2247.000000;2.746422
2246.000000;2.813455
2245.000000;2.949189
2244.000000;3.147627
2243.000000;3.287000
2242.000000;3.425476
2241.000000;4.309521
2240.000000;3.890066
2239.000000;3.382094
2238.000000;3.150102
2237.000000;3.067358
2236.000000;3.076016
2235.000000;3.048281
2234.000000;2.930122
2233.000000;2.774183
2232.000000;2.676020
2231.000000;2.668442
2230.000000;2.736589
2229.000000;2.804943
2228.000000;2.821617
2227.000000;2.867273
2226.000000;2.954900
2225.000000;2.978257
2224.000000;2.929189
2223.000000;2.883004
2222.000000;2.855960
2221.000000;2.866792
2220.000000;2.963466
2219.000000;3.165355
2218.000000;3.761120
2217.000000;3.971732
2216.000000;3.449346
2215.000000;3.306435
2214.000000;3.238817
2213.000000;3.304027
2212.000000;3.158797
2211.000000;2.960547
2210.000000;2.935584
2209.000000;3.109267
2208.000000;3.518614
2207.000000;3.791310
2206.000000;3.578495
2205.000000;3.299698
2204.000000;3.242958
2203.000000;3.445812
2202.000000;3.732233
2201.000000;3.215923
2200.000000;3.001090
2199.000000;2.887817
2198.000000;2.892744
2197.000000;3.034140
2196.000000;3.320649
2195.000000;3.336121
2194.000000;3.096830
2193.000000;3.034477
2192.000000;3.090566
2191.000000;3.158763
2190.000000;3.226065
2189.000000;3.305456
2188.000000;3.321919
2187.000000;3.283208
2186.000000;3.236857
2185.000000;3.233180
2184.000000;3.360878
2183.000000;3.178087
2182.000000;2.906028
2181.000000;2.800442
2180.000000;2.823260
2179.000000;2.900264
2178.000000;2.940557
2177.000000;2.970002
2176.000000;2.987474
2175.000000;2.960587
2174.000000;2.892377
2173.000000;2.817314
2172.000000;2.800335
2171.000000;2.842954
2170.000000;2.934400
2169.000000;3.096593
2168.000000;3.326304
2167.000000;3.806598
2166.000000;3.707831
2165.000000;3.246704
2164.000000;3.035778
2163.000000;2.901193
2162.000000;2.849445
2161.000000;2.850244
2160.000000;2.920146
2159.000000;3.050798
2158.000000;3.150494
2157.000000;3.262792
2156.000000;4.069072
2155.000000;3.568532
2154.000000;3.465360
2153.000000;3.727920
2152.000000;3.758777
2151.000000;3.276161
2150.000000;3.050995
2149.000000;2.928552
2148.000000;2.797300
2147.000000;2.703417
2146.000000;2.720856
2145.000000;2.872442
2144.000000;3.152249
2143.000000;3.320091
2142.000000;3.232737
2141.000000;3.171215
2140.000000;3.043022
2139.000000;2.902551
2138.000000;2.838579
2137.000000;2.856218
2136.000000;2.950263
2135.000000;3.118904
2134.000000;3.289576
2133.000000;3.357979
2132.000000;3.349877
2131.000000;3.262038
2130.000000;3.148186
2129.000000;3.047903
2128.000000;2.953948
2127.000000;2.891795
2126.000000;2.910195
2125.000000;3.039828
2124.000000;3.298404
2123.000000;3.648801
2122.000000;3.809211
2121.000000;3.718271
2120.000000;3.776661
2119.000000;4.066145
2118.000000;3.507141
2117.000000;3.085266
2116.000000;2.858826
2115.000000;2.792400
2114.000000;2.863355
2113.000000;3.183176
2112.000000;3.540905
2111.000000;3.136627
2110.000000;2.934550
2109.000000;2.849757
2108.000000;2.829275
2107.000000;2.851653
2106.000000;2.909921
2105.000000;3.024808
2104.000000;3.233767
2103.000000;3.535357
2102.000000;3.321999
2101.000000;3.130472
2100.000000;3.064017
2099.000000;3.079982
2098.000000;3.200175
2097.000000;3.462717
2096.000000;3.897399
2095.000000;3.900332
2094.000000;3.631791
2093.000000;3.541618
2092.000000;3.622571
2091.000000;3.793703
2090.000000;3.598216
2089.000000;3.340208
2088.000000;3.206674
2087.000000;3.177964
2086.000000;3.070017
2085.000000;2.889807
2084.000000;2.796420
2083.000000;2.790271
2082.000000;2.857504
2081.000000;2.985008
2080.000000;3.103265
2079.000000;3.167421
2078.000000;3.212883
2077.000000;3.400303
2076.000000;3.295362
2075.000000;3.041069
2074.000000;2.945006
2073.000000;2.917008
2072.000000;2.893283
2071.000000;2.885468
2070.000000;2.932320
2069.000000;3.057189
2068.000000;3.253274
2067.000000;3.648629
2066.000000;3.753464
2065.000000;3.151681
2064.000000;2.971615
2063.000000;2.883484
2062.000000;2.876445
2061.000000;2.932425
2060.000000;3.020551
2059.000000;3.007507
2058.000000;2.935008
2057.000000;2.920393
2056.000000;2.941356
2055.000000;2.940739
2054.000000;2.932706
2053.000000;2.975745
2052.000000;3.104045
2051.000000;3.266515
2050.000000;3.280899
2049.000000;3.292611
2048.000000;3.414411
2047.000000;3.794282
2046.000000;3.777179
2045.000000;3.511938
2044.000000;3.476271
2043.000000;3.360089
2042.000000;3.166742
2041.000000;3.012964
2040.000000;2.894068
2039.000000;2.799460
2038.000000;2.744454
2037.000000;2.756673
2036.000000;2.854514
2035.000000;2.991067
2034.000000;3.003583
2033.000000;2.962154
2032.000000;3.027405
2031.000000;3.082275
2030.000000;3.068541
2029.000000;3.091901
2028.000000;3.484091
2027.000000;3.480998
2026.000000;3.047847
2025.000000;2.930665
2024.000000;2.933660
2023.000000;2.957630
2022.000000;2.934625
2021.000000;2.915645
2020.000000;2.997105
2019.000000;3.265794
2018.000000;3.801430
2017.000000;3.164634
2016.000000;2.944757
2015.000000;2.876742
2014.000000;2.927575
2013.000000;3.078471
2012.000000;3.309608
2011.000000;3.289842
2010.000000;3.001308
2009.000000;2.845292
2008.000000;2.855858
2007.000000;3.036082
2006.000000;3.657245
2005.000000;4.190936
2004.000000;3.552549
2003.000000;3.428802
2002.000000;3.156753
2001.000000;3.006984
2000.000000;2.944257
1999.000000;2.968198
1998.000000;3.016588
1997.000000;2.973271
1996.000000;2.872005
1995.000000;2.803932
1994.000000;2.783274
1993.000000;2.810106
1992.000000;2.881613
1991.000000;2.964390
1990.000000;2.996760
1989.000000;2.989601
1988.000000;3.037353
1987.000000;3.178541
1986.000000;3.238287
1985.000000;3.160541
1984.000000;3.040968
1983.000000;2.922633
1982.000000;2.938250
1981.000000;3.075071
1980.000000;3.606927
1979.000000;3.734179
1978.000000;3.039268
1977.000000;2.828357
1976.000000;2.725100
1975.000000;2.731234
1974.000000;2.801968
1973.000000;2.886299
1972.000000;2.913787
1971.000000;2.901764
1970.000000;2.914291
1969.000000;2.959692
1968.000000;3.024559
1967.000000;3.150860
1966.000000;3.412465
1965.000000;3.428892
1964.000000;3.157958
1963.000000;2.943628
1962.000000;2.785404
1961.000000;2.707422
1960.000000;2.714148
1959.000000;2.789334
1958.000000;2.914221
1957.000000;3.052786
1956.000000;3.094068
1955.000000;3.079071
1954.000000;3.149452
1953.000000;3.241066
1952.000000;3.166845
1951.000000;2.994288
1950.000000;2.840337
1949.000000;2.753864
1948.000000;2.749203
1947.000000;2.800570
1946.000000;2.857632
1945.000000;2.907776
1944.000000;3.009429
1943.000000;3.292505
1942.000000;3.605304
1941.000000;3.435417
1940.000000;3.444286
1939.000000;3.759165
1938.000000;3.273794
1937.000000;2.993858
1936.000000;2.936451
1935.000000;2.916582
1934.000000;2.804893
1933.000000;2.733470
1932.000000;2.712359
1931.000000;2.693582
1930.000000;2.693391
1929.000000;2.741840
1928.000000;2.847349
1927.000000;3.020865
1926.000000;3.227815
1925.000000;3.272591
1924.000000;3.140943
1923.000000;3.021433
1922.000000;2.939150
1921.000000;2.889002
1920.000000;2.858394
1919.000000;2.821585
1918.000000;2.772215
1917.000000;2.725686
1916.000000;2.708534
1915.000000;2.738678
1914.000000;2.799593
1913.000000;2.838707
1912.000000;2.832392
1911.000000;2.830568
1910.000000;2.885604
1909.000000;2.960506
1908.000000;2.957742
1907.000000;2.959161
1906.000000;3.032752
1905.000000;3.158301
1904.000000;3.326056
1903.000000;3.733201
1902.000000;3.517835
1901.000000;3.037770
1900.000000;2.909101
1899.000000;2.892461
1898.000000;2.959872
1897.000000;3.090340
1896.000000;3.295024
1895.000000;3.406636
1894.000000;3.349386
1893.000000;3.407293
1892.000000;3.384686
1891.000000;3.194159
1890.000000;3.141866
1889.000000;3.230917
1888.000000;3.282820
1887.000000;3.154861
1886.000000;2.975550
1885.000000;2.845033
1884.000000;2.768442
1883.000000;2.729131
1882.000000;2.739510
1881.000000;2.816827
1880.000000;2.886902
1879.000000;2.836458
1878.000000;2.768297
1877.000000;2.753009
1876.000000;2.776150
1875.000000;2.796618
1874.000000;2.800562
1873.000000;2.830840
1872.000000;2.940151
1871.000000;3.140686
1870.000000;3.214211
1869.000000;3.082077
1868.000000;2.999559
1867.000000;3.026339
1866.000000;3.192167
1865.000000;3.415030
1864.000000;3.391065
1863.000000;3.168654
1862.000000;2.983432
1861.000000;2.875530
1860.000000;2.846297
1859.000000;2.908194
1858.000000;3.073893
1857.000000;3.320597
1856.000000;3.186430
1855.000000;2.937703
1854.000000;2.814486
1853.000000;2.776989
1852.000000;2.762886
1851.000000;2.737238
1850.000000;2.716471
1849.000000;2.713055
1848.000000;2.740845
1847.000000;2.823287
1846.000000;2.991736
1845.000000;3.168962
1844.000000;3.170709
1843.000000;3.196961
1842.000000;3.349717
1841.000000;3.448145
1840.000000;3.464673
1839.000000;3.535648
1838.000000;3.533530
1837.000000;3.478695
1836.000000;3.814571
1835.000000;3.491601
1834.000000;3.102296
1833.000000;2.934762
1832.000000;2.827404
1831.000000;2.727755
1830.000000;2.674525
1829.000000;2.719424
1828.000000;2.863628
1827.000000;2.991233
1826.000000;2.924721
1825.000000;2.806215
1824.000000;2.723489
1823.000000;2.689997
1822.000000;2.703990
1821.000000;2.746842
1820.000000;2.818610
1819.000000;2.940505
1818.000000;3.055008
1817.000000;3.021627
1816.000000;2.876920
1815.000000;2.748190
1814.000000;2.684241
1813.000000;2.700114
1812.000000;2.812499
1811.000000;3.168094
1810.000000;3.545139
1809.000000;3.095064
1808.000000;2.928851
1807.000000;2.964742
1806.000000;3.162957
1805.000000;3.318347
1804.000000;3.226038
1803.000000;3.203511
1802.000000;3.115624
1801.000000;2.946055
1800.000000;2.828707
1799.000000;2.781991
1798.000000;2.802516
1797.000000;2.872539
1796.000000;2.939614
1795.000000;2.985890
1794.000000;3.056278
1793.000000;3.120607
1792.000000;3.120458
1791.000000;3.114770
1790.000000;3.142525
1789.000000;3.190155
1788.000000;3.248832
1787.000000;3.317469
1786.000000;3.405801
1785.000000;3.474147
1784.000000;3.390520
1783.000000;3.264595
1782.000000;3.259139
1781.000000;3.296782
1780.000000;3.143853
1779.000000;2.989058
1778.000000;2.897603
1777.000000;2.842557
1776.000000;2.815897
1775.000000;2.817037
1774.000000;2.869523
1773.000000;3.021540
1772.000000;3.269232
1771.000000;3.449586
1770.000000;3.383498
1769.000000;3.197206
1768.000000;3.034527
1767.000000;2.936472
1766.000000;2.930610
1765.000000;3.023662
1764.000000;3.380270
1763.000000;3.399735
1762.000000;3.033804
1761.000000;2.985917
1760.000000;3.033315
1759.000000;3.057410
1758.000000;3.038869
1757.000000;2.990065
1756.000000;2.906396
1755.000000;2.823697
1754.000000;2.753749
1753.000000;2.696837
1752.000000;2.645373
1751.000000;2.598202
1750.000000;2.570700
1749.000000;2.574204
1748.000000;2.584662
1747.000000;2.579170
1746.000000;2.585882
1745.000000;2.614112
1744.000000;2.637376
1743.000000;2.647517
1742.000000;2.682108
1741.000000;2.781640
1740.000000;2.945187
1739.000000;2.999824
1738.000000;2.911604
1737.000000;2.861923
1736.000000;2.875223
1735.000000;2.971965
1734.000000;3.049540
1733.000000;2.966940
1732.000000;2.893663
1731.000000;2.862646
1730.000000;2.863132
1729.000000;2.895659
1728.000000;2.893978
1727.000000;2.862922
1726.000000;2.867037
1725.000000;2.943468
1724.000000;3.207270
1723.000000;3.462947
1722.000000;3.073768
1721.000000;2.955970
1720.000000;2.973067
1719.000000;3.062095
1718.000000;3.162907
1717.000000;3.030111
1716.000000;2.873321
1715.000000;2.800821
1714.000000;2.783079
1713.000000;2.785494
1712.000000;2.806122
1711.000000;2.834963
1710.000000;2.824977
1709.000000;2.775090
1708.000000;2.737325
1707.000000;2.743383
1706.000000;2.811485
1705.000000;2.923714
1704.000000;3.016574
1703.000000;3.024532
1702.000000;3.002700
1701.000000;3.028910
1700.000000;3.130208
1699.000000;3.183695
1698.000000;3.076660
1697.000000;3.057108
1696.000000;3.054372
1695.000000;3.024246
1694.000000;3.033035
1693.000000;2.975354
1692.000000;2.857883
1691.000000;2.767603
1690.000000;2.726670
1689.000000;2.742866
1688.000000;2.818972
1687.000000;2.971951
1686.000000;3.121178
1685.000000;3.125422
1684.000000;3.087003
1683.000000;3.061895
1682.000000;2.982519
1681.000000;2.792503
1680.000000;2.650190
1679.000000;2.609117
1678.000000;2.605810
1677.000000;2.609906
1676.000000;2.641790
1675.000000;2.709197
1674.000000;2.782900
1673.000000;2.836992
1672.000000;2.895004
1671.000000;2.983847
1670.000000;3.033087
1669.000000;2.929055
1668.000000;2.822979
1667.000000;2.804343
1666.000000;2.864090
1665.000000;2.940256
1664.000000;3.026822
1663.000000;3.286426
1662.000000;3.328690
1661.000000;3.042576
1660.000000;3.013403
1659.000000;3.082153
1658.000000;3.110162
1657.000000;3.113424
1656.000000;3.190437
1655.000000;3.427041
1654.000000;3.910937
1653.000000;3.750955
1652.000000;3.742346
1651.000000;4.239562
1650.000000;4.129537
1649.000000;3.999886
1648.000000;3.681179
1647.000000;3.205187
1646.000000;2.944280
1645.000000;2.796532
1644.000000;2.726237
1643.000000;2.749102
1642.000000;2.935227
1641.000000;3.437100
1640.000000;3.457370
1639.000000;3.169099
1638.000000;2.976790
1637.000000;2.803784
1636.000000;2.741682
1635.000000;2.771708
1634.000000;2.827546
1633.000000;2.887702
1632.000000;3.127077
1631.000000;3.381211
1630.000000;3.003306
1629.000000;2.810468
1628.000000;2.787328
1627.000000;2.901222
1626.000000;3.205974
1625.000000;3.480101
1624.000000;3.232054
1623.000000;3.011252
1622.000000;2.855821
1621.000000;2.733316
1620.000000;2.647059
1619.000000;2.584392
1618.000000;2.540598
1617.000000;2.531033
1616.000000;2.562597
1615.000000;2.621158
1614.000000;2.700671
1613.000000;2.810582
1612.000000;2.939325
1611.000000;3.019874
1610.000000;3.033094
1609.000000;3.000349
1608.000000;2.926910
1607.000000;2.850903
1606.000000;2.782646
1605.000000;2.727818
1604.000000;2.687750
1603.000000;2.689537
1602.000000;2.772244
1601.000000;2.994842
1600.000000;3.570457
1599.000000;3.367655
1598.000000;2.998568
1597.000000;2.931915
1596.000000;2.980605
1595.000000;3.156498
1594.000000;3.141662
1593.000000;2.973437
1592.000000;2.863961
1591.000000;2.814990
1590.000000;2.858679
1589.000000;2.978484
1588.000000;3.067649
1587.000000;3.115250
1586.000000;3.202732
1585.000000;3.351083
1584.000000;3.422853
1583.000000;3.188730
1582.000000;3.027519
1581.000000;3.081441
1580.000000;3.299740
1579.000000;3.229141
1578.000000;2.894589
1577.000000;2.708808
1576.000000;2.695241
1575.000000;2.815898
1574.000000;2.963881
1573.000000;3.108723
1572.000000;3.479864
1571.000000;3.599930
1570.000000;3.193738
1569.000000;3.066273
1568.000000;3.108361
1567.000000;3.261563
1566.000000;3.364591
1565.000000;3.204884
1564.000000;3.001316
1563.000000;2.898718
1562.000000;2.904361
1561.000000;2.972840
1560.000000;2.999704
1559.000000;3.020580
1558.000000;2.984880
1557.000000;2.845812
1556.000000;2.737121
1555.000000;2.733265
1554.000000;2.842868
1553.000000;3.044309
1552.000000;3.205240
1551.000000;3.204372
1550.000000;3.161313
1549.000000;3.059767
1548.000000;2.986642
1547.000000;3.055415
1546.000000;3.459211
1545.000000;3.386383
1544.000000;3.031076
1543.000000;2.976397
1542.000000;3.050545
1541.000000;3.729450
1540.000000;3.181368
1539.000000;2.909463
1538.000000;2.991938
1537.000000;3.063000
1536.000000;3.048083
1535.000000;2.986216
1534.000000;2.953191
1533.000000;2.952316
1532.000000;2.998457
1531.000000;3.062286
1530.000000;3.060528
1529.000000;2.992703
1528.000000;2.894228
1527.000000;2.808084
1526.000000;2.788613
1525.000000;2.839635
1524.000000;2.923184
1523.000000;3.074713
1522.000000;3.286273
1521.000000;3.296697
1520.000000;3.217051
1519.000000;3.114845
1518.000000;3.012466
1517.000000;3.008075
1516.000000;3.062154
1515.000000;3.068951
1514.000000;3.016448
1513.000000;2.956318
1512.000000;2.918111
1511.000000;2.916919
1510.000000;2.918621
1509.000000;2.881491
1508.000000;2.825983
1507.000000;2.889731
1506.000000;3.056148
1505.000000;3.132066
1504.000000;3.105710
1503.000000;3.143040
1502.000000;3.319663
1501.000000;3.480860
1500.000000;3.368990
1499.000000;3.293930
1498.000000;3.266925
1497.000000;3.098037
1496.000000;2.935773
1495.000000;2.893578
1494.000000;2.977800
1493.000000;3.163297
1492.000000;3.339313
1491.000000;3.236003
1490.000000;2.986572
1489.000000;2.839869
1488.000000;2.794077
1487.000000;2.788714
1486.000000;2.791883
1485.000000;2.797581
1484.000000;2.758067
1483.000000;2.666211
1482.000000;2.588968
1481.000000;2.553076
1480.000000;2.537491
1479.000000;2.533895
1478.000000;2.543270
1477.000000;2.530960
1476.000000;2.500404
1475.000000;2.503695
1474.000000;2.552508
1473.000000;2.626726
1472.000000;2.700099
1471.000000;2.759772
1470.000000;2.771866
1469.000000;2.733782
1468.000000;2.716885
1467.000000;2.765926
1466.000000;2.941590
1465.000000;3.048574
1464.000000;2.860535
1463.000000;2.808340
1462.000000;3.075948
1461.000000;3.226005
1460.000000;2.881871
1459.000000;2.675499
1458.000000;2.581806
1457.000000;2.552401
1456.000000;2.542461
1455.000000;2.518371
1454.000000;2.603388
1453.000000;2.801953
1452.000000;2.598468
1451.000000;2.455891
1450.000000;2.499452
1449.000000;2.585245
1448.000000;2.602371
1447.000000;2.602948
1446.000000;2.682729
1445.000000;2.673942
1444.000000;2.625603
1443.000000;2.787968
1442.000000;2.979095
1441.000000;2.723495
1440.000000;2.573684
1439.000000;2.623728
1438.000000;2.796213
1437.000000;3.030178
1436.000000;3.141466
1435.000000;3.062997
1434.000000;3.024398
1433.000000;3.019079
1432.000000;2.917518
1431.000000;2.806798
1430.000000;2.761853
1429.000000;2.758471
1428.000000;2.760582
1427.000000;2.754391
1426.000000;2.758498
1425.000000;2.818161
1424.000000;2.987124
1423.000000;3.266360
1422.000000;3.425738
1421.000000;3.285321
1420.000000;3.133151
1419.000000;3.050214
1418.000000;2.981737
1417.000000;2.877872
1416.000000;2.783026
1415.000000;2.774341
1414.000000;2.866749
1413.000000;2.971649
1412.000000;3.012542
1411.000000;3.080202
1410.000000;3.210776
1409.000000;3.385469
1408.000000;3.292380
1407.000000;2.966715
1406.000000;2.776183
1405.000000;2.726260
1404.000000;2.775649
1403.000000;2.863077
1402.000000;2.926624
1401.000000;2.945628
1400.000000;2.905023
1399.000000;2.849065
1398.000000;2.813266
1397.000000;2.796029
1396.000000;2.794069
1395.000000;2.801658
1394.000000;2.812539
1393.000000;2.822498
1392.000000;2.820705
1391.000000;2.780702
1390.000000;2.726878
1389.000000;2.707674
1388.000000;2.729274
1387.000000;2.785868
1386.000000;2.897078
1385.000000;2.994468
1384.000000;2.953683
1383.000000;2.933278
1382.000000;2.964111
1381.000000;2.891293
1380.000000;2.752323
1379.000000;2.658154
1378.000000;2.641720
1377.000000;2.702045
1376.000000;2.832152
1375.000000;3.078572
1374.000000;3.352124
1373.000000;3.256756
1372.000000;3.174155
1371.000000;3.176801
1370.000000;3.108884
1369.000000;2.996289
1368.000000;2.945904
1367.000000;2.968362
1366.000000;3.020906
1365.000000;3.121844
1364.000000;3.190612
1363.000000;3.190407
1362.000000;3.294797
1361.000000;3.187991
1360.000000;2.927097
1359.000000;2.831714
1358.000000;2.823141
1357.000000;2.764563
1356.000000;2.679997
1355.000000;2.667415
1354.000000;2.739237
1353.000000;2.855073
1352.000000;3.009406
1351.000000;3.155074
1350.000000;3.046672
1349.000000;2.908735
1348.000000;2.902542
1347.000000;2.983020
1346.000000;3.099191
1345.000000;3.234887
1344.000000;3.446764
1343.000000;3.597560
1342.000000;3.470652
1341.000000;3.257227
1340.000000;3.042608
1339.000000;2.838200
1338.000000;2.658077
1337.000000;2.531385
1336.000000;2.459636
1335.000000;2.427680
1334.000000;2.434837
1333.000000;2.496387
1332.000000;2.593000
1331.000000;2.683690
1330.000000;2.765666
1329.000000;2.932071
1328.000000;3.299389
1327.000000;3.329487
1326.000000;3.162039
1325.000000;3.211440
1324.000000;3.388387
1323.000000;3.615222
1322.000000;3.568900
1321.000000;3.591042
1320.000000;3.723862
1319.000000;3.536012
1318.000000;3.275955
1317.000000;3.187330
1316.000000;3.296349
1315.000000;3.481389
1314.000000;3.397163
1313.000000;3.152869
1312.000000;2.969354
1311.000000;2.836659
1310.000000;2.733548
1309.000000;2.645085
1308.000000;2.578109
1307.000000;2.526036
1306.000000;2.529216
1305.000000;2.620964
1304.000000;2.828998
1303.000000;3.335401
1302.000000;3.422187
1301.000000;2.974505
1300.000000;2.822251
1299.000000;2.760508
1298.000000;2.847543
1297.000000;3.221100
1296.000000;3.198561
1295.000000;2.877398
1294.000000;2.771923
1293.000000;2.754301
1292.000000;2.751032
1291.000000;2.699323
1290.000000;2.641344
1289.000000;2.614867
1288.000000;2.603290
1287.000000;2.600219
1286.000000;2.605423
1285.000000;2.618774
1284.000000;2.633870
1283.000000;2.635233
1282.000000;2.614515
1281.000000;2.589290
1280.000000;2.586703
1279.000000;2.626647
1278.000000;2.722658
1277.000000;2.887415
1276.000000;3.089273
1275.000000;3.124301
1274.000000;2.970630
1273.000000;2.814783
1272.000000;2.715666
1271.000000;2.691120
1270.000000;2.735767
1269.000000;2.800752
1268.000000;2.793863
1267.000000;2.735396
1266.000000;2.690902
1265.000000;2.665896
1264.000000;2.670336
1263.000000;2.709433
1262.000000;2.762127
1261.000000;2.798737
1260.000000;2.823570
1259.000000;2.832292
1258.000000;2.762433
1257.000000;2.646105
1256.000000;2.564958
1255.000000;2.535356
1254.000000;2.557012
1253.000000;2.618295
1252.000000;2.686448
1251.000000;2.745126
1250.000000;2.814370
1249.000000;2.942138
1248.000000;2.969591
1247.000000;2.761759
1246.000000;2.588182
1245.000000;2.497023
1244.000000;2.454123
1243.000000;2.456588
1242.000000;2.512235
1241.000000;2.598871
1240.000000;2.673756
1239.000000;2.736469
1238.000000;2.861004
1237.000000;2.975834
1236.000000;2.815813
1235.000000;2.634005
1234.000000;2.546802
1233.000000;2.534358
1232.000000;2.584175
1231.000000;2.674462
1230.000000;2.737794
1229.000000;2.688852
1228.000000;2.615368
1227.000000;2.583979
1226.000000;2.590020
1225.000000;2.636023
1224.000000;2.736472
1223.000000;2.883642
1222.000000;2.963823
1221.000000;2.946085
1220.000000;2.962834
1219.000000;3.027151
1218.000000;3.217001
1217.000000;3.305340
1216.000000;2.926415
1215.000000;2.662225
1214.000000;2.514591
1213.000000;2.427852
1212.000000;2.390980
1211.000000;2.389744
1210.000000;2.419021
1209.000000;2.480360
1208.000000;2.581577
1207.000000;2.719674
1206.000000;2.814572
1205.000000;2.779079
1204.000000;2.719393
1203.000000;2.714717
1202.000000;2.747106
1201.000000;2.829234
1200.000000;2.960291
