Criado como novo conjunto de dados;"0307_DANIEL.spp","39783.8 Secs"
cm-1;Abs
10000.000000;1.074452
9999.000000;1.073223
9998.000000;1.072474
9997.000000;1.071801
9996.000000;1.070809
9995.000000;1.069472
9994.000000;1.068033
9993.000000;1.066699
9992.000000;1.065515
9991.000000;1.064360
9990.000000;1.062994
9989.000000;1.061242
9988.000000;1.059260
9987.000000;1.057506
9986.000000;1.056305
9985.000000;1.055531
9984.000000;1.054817
9983.000000;1.053988
9982.000000;1.053141
9981.000000;1.052400
9980.000000;1.051715
9979.000000;1.050871
9978.000000;1.049652
9977.000000;1.048058
9976.000000;1.046427
9975.000000;1.045187
9974.000000;1.044423
9973.000000;1.043786
9972.000000;1.042930
9971.000000;1.041806
9970.000000;1.040427
9969.000000;1.038631
9968.000000;1.036351
9967.000000;1.033925
9966.000000;1.031811
9965.000000;1.030120
9964.000000;1.028728
9963.000000;1.027690
9962.000000;1.027147
9961.000000;1.026873
9960.000000;1.026376
9959.000000;1.025501
9958.000000;1.024548
9957.000000;1.023701
9956.000000;1.022728
9955.000000;1.021415
9954.000000;1.019917
9953.000000;1.018471
9952.000000;1.017074
9951.000000;1.015715
9950.000000;1.014606
9949.000000;1.013836
9948.000000;1.012990
9947.000000;1.011493
9946.000000;1.009296
9945.000000;1.006906
9944.000000;1.004802
9943.000000;1.003100
9942.000000;1.001769
9941.000000;1.000832
9940.000000;1.000227
9939.000000;0.999665
9938.000000;0.998800
9937.000000;0.997527
9936.000000;0.996086
9935.000000;0.994843
9934.000000;0.993933
9933.000000;0.993075
9932.000000;0.991811
9931.000000;0.990016
9930.000000;0.988087
9929.000000;0.986534
9928.000000;0.985461
9927.000000;0.984581
9926.000000;0.983634
9925.000000;0.982595
9924.000000;0.981489
9923.000000;0.980251
9922.000000;0.978831
9921.000000;0.977288
9920.000000;0.975692
9919.000000;0.974053
9918.000000;0.972396
9917.000000;0.970831
9916.000000;0.969453
9915.000000;0.968237
9914.000000;0.967109
9913.000000;0.966054
9912.000000;0.965054
9911.000000;0.963945
9910.000000;0.962476
9909.000000;0.960570
9908.000000;0.958472
9907.000000;0.956598
9906.000000;0.955257
9905.000000;0.954476
9904.000000;0.953996
9903.000000;0.953351
9902.000000;0.952096
9901.000000;0.950144
9900.000000;0.947935
9899.000000;0.946113
9898.000000;0.944948
9897.000000;0.944175
9896.000000;0.943427
9895.000000;0.942643
9894.000000;0.941877
9893.000000;0.940889
9892.000000;0.939264
9891.000000;0.936963
9890.000000;0.934500
9889.000000;0.932473
9888.000000;0.931110
9887.000000;0.930330
9886.000000;0.929985
9885.000000;0.929828
9884.000000;0.929439
9883.000000;0.928467
9882.000000;0.926952
9881.000000;0.925220
9880.000000;0.923467
9879.000000;0.921623
9878.000000;0.919644
9877.000000;0.917751
9876.000000;0.916241
9875.000000;0.915146
9874.000000;0.914152
9873.000000;0.912825
9872.000000;0.910916
9871.000000;0.908534
9870.000000;0.906109
9869.000000;0.904118
9868.000000;0.902685
9867.000000;0.901433
9866.000000;0.899841
9865.000000;0.897833
9864.000000;0.895936
9863.000000;0.894781
9862.000000;0.894480
9861.000000;0.894574
9860.000000;0.894516
9859.000000;0.894030
9858.000000;0.892998
9857.000000;0.891288
9856.000000;0.888910
9855.000000;0.886239
9854.000000;0.883828
9853.000000;0.881970
9852.000000;0.880564
9851.000000;0.879381
9850.000000;0.878342
9849.000000;0.877472
9848.000000;0.876713
9847.000000;0.875840
9846.000000;0.874575
9845.000000;0.872821
9844.000000;0.870861
9843.000000;0.869215
9842.000000;0.868134
9841.000000;0.867247
9840.000000;0.865887
9839.000000;0.863813
9838.000000;0.861460
9837.000000;0.859449
9836.000000;0.858026
9835.000000;0.857008
9834.000000;0.856058
9833.000000;0.854861
9832.000000;0.853191
9831.000000;0.851051
9830.000000;0.848731
9829.000000;0.846608
9828.000000;0.844895
9827.000000;0.843607
9826.000000;0.842638
9825.000000;0.841727
9824.000000;0.840446
9823.000000;0.838526
9822.000000;0.836283
9821.000000;0.834488
9820.000000;0.833589
9819.000000;0.833104
9818.000000;0.832007
9817.000000;0.829785
9816.000000;0.827013
9815.000000;0.824749
9814.000000;0.823474
9813.000000;0.822756
9812.000000;0.821858
9811.000000;0.820461
9810.000000;0.818732
9809.000000;0.816945
9808.000000;0.815249
9807.000000;0.813703
9806.000000;0.812299
9805.000000;0.810913
9804.000000;0.809353
9803.000000;0.807515
9802.000000;0.805455
9801.000000;0.803341
9800.000000;0.801396
9799.000000;0.799798
9798.000000;0.798551
9797.000000;0.797487
9796.000000;0.796454
9795.000000;0.795393
9794.000000;0.794162
9793.000000;0.792490
9792.000000;0.790334
9791.000000;0.788122
9790.000000;0.786332
9789.000000;0.784890
9788.000000;0.783273
9787.000000;0.781199
9786.000000;0.778930
9785.000000;0.776852
9784.000000;0.775080
9783.000000;0.773558
9782.000000;0.772213
9781.000000;0.770824
9780.000000;0.769017
9779.000000;0.766663
9778.000000;0.764135
9777.000000;0.761995
9776.000000;0.760520
9775.000000;0.759610
9774.000000;0.758930
9773.000000;0.758026
9772.000000;0.756555
9771.000000;0.754646
9770.000000;0.752849
9769.000000;0.751491
9768.000000;0.750216
9767.000000;0.748412
9766.000000;0.745981
9765.000000;0.743412
9764.000000;0.741172
9763.000000;0.739347
9762.000000;0.737848
9761.000000;0.736626
9760.000000;0.735588
9759.000000;0.734513
9758.000000;0.733205
9757.000000;0.731623
9756.000000;0.729810
9755.000000;0.727838
9754.000000;0.725869
9753.000000;0.724127
9752.000000;0.722695
9751.000000;0.721413
9750.000000;0.720033
9749.000000;0.718402
9748.000000;0.716489
9747.000000;0.714334
9746.000000;0.712074
9745.000000;0.709950
9744.000000;0.708176
9743.000000;0.706741
9742.000000;0.705371
9741.000000;0.703728
9740.000000;0.701694
9739.000000;0.699465
9738.000000;0.697359
9737.000000;0.695513
9736.000000;0.693796
9735.000000;0.692018
9734.000000;0.690140
9733.000000;0.688253
9732.000000;0.686392
9731.000000;0.684487
9730.000000;0.682483
9729.000000;0.680444
9728.000000;0.678502
9727.000000;0.676722
9726.000000;0.675041
9725.000000;0.673364
9724.000000;0.671700
9723.000000;0.670137
9722.000000;0.668641
9721.000000;0.666960
9720.000000;0.664861
9719.000000;0.662421
9718.000000;0.659942
9717.000000;0.657603
9716.000000;0.655352
9715.000000;0.653151
9714.000000;0.651105
9713.000000;0.649287
9712.000000;0.647615
9711.000000;0.646027
9710.000000;0.644580
9709.000000;0.643248
9708.000000;0.641782
9707.000000;0.639965
9706.000000;0.637885
9705.000000;0.635776
9704.000000;0.633701
9703.000000;0.631591
9702.000000;0.629507
9701.000000;0.627601
9700.000000;0.625864
9699.000000;0.624125
9698.000000;0.622301
9697.000000;0.620434
9696.000000;0.618474
9695.000000;0.616287
9694.000000;0.613945
9693.000000;0.611767
9692.000000;0.609914
9691.000000;0.608127
9690.000000;0.606026
9689.000000;0.603600
9688.000000;0.601233
9687.000000;0.599283
9686.000000;0.597772
9685.000000;0.596440
9684.000000;0.594964
9683.000000;0.593124
9682.000000;0.590904
9681.000000;0.588540
9680.000000;0.586384
9679.000000;0.584592
9678.000000;0.582921
9677.000000;0.580941
9676.000000;0.578501
9675.000000;0.575936
9674.000000;0.573716
9673.000000;0.571962
9672.000000;0.570358
9671.000000;0.568512
9670.000000;0.566297
9669.000000;0.563861
9668.000000;0.561454
9667.000000;0.559295
9666.000000;0.557435
9665.000000;0.555657
9664.000000;0.553633
9663.000000;0.551291
9662.000000;0.548931
9661.000000;0.546882
9660.000000;0.545132
9659.000000;0.543440
9658.000000;0.541664
9657.000000;0.539803
9656.000000;0.537781
9655.000000;0.535467
9654.000000;0.532949
9653.000000;0.530578
9652.000000;0.528610
9651.000000;0.526898
9650.000000;0.525020
9649.000000;0.522656
9648.000000;0.519835
9647.000000;0.516910
9646.000000;0.514350
9645.000000;0.512396
9644.000000;0.510800
9643.000000;0.508957
9642.000000;0.506451
9641.000000;0.503471
9640.000000;0.500619
9639.000000;0.498298
9638.000000;0.496380
9637.000000;0.494428
9636.000000;0.492164
9635.000000;0.489680
9634.000000;0.487284
9633.000000;0.485220
9632.000000;0.483479
9631.000000;0.481791
9630.000000;0.479809
9629.000000;0.477421
9628.000000;0.474897
9627.000000;0.472624
9626.000000;0.470660
9625.000000;0.468641
9624.000000;0.466245
9623.000000;0.463622
9622.000000;0.461227
9621.000000;0.459258
9620.000000;0.457444
9619.000000;0.455384
9618.000000;0.452965
9617.000000;0.450378
9616.000000;0.447892
9615.000000;0.445678
9614.000000;0.443721
9613.000000;0.441779
9612.000000;0.439529
9611.000000;0.436883
9610.000000;0.434125
9609.000000;0.431653
9608.000000;0.429619
9607.000000;0.427873
9606.000000;0.426174
9605.000000;0.424317
9604.000000;0.422106
9603.000000;0.419392
9602.000000;0.416272
9601.000000;0.413167
9600.000000;0.410597
9599.000000;0.408758
9598.000000;0.407310
9597.000000;0.405625
9596.000000;0.403330
9595.000000;0.400604
9594.000000;0.397886
9593.000000;0.395353
9592.000000;0.392838
9591.000000;0.390231
9590.000000;0.387697
9589.000000;0.385399
9588.000000;0.383225
9587.000000;0.380972
9586.000000;0.378665
9585.000000;0.376463
9584.000000;0.374339
9583.000000;0.372113
9582.000000;0.369778
9581.000000;0.367556
9580.000000;0.365561
9579.000000;0.363597
9578.000000;0.361391
9577.000000;0.358880
9576.000000;0.356200
9575.000000;0.353505
9574.000000;0.350898
9573.000000;0.348434
9572.000000;0.346084
9571.000000;0.343726
9570.000000;0.341288
9569.000000;0.338855
9568.000000;0.336581
9567.000000;0.334514
9566.000000;0.332574
9565.000000;0.330671
9564.000000;0.328740
9563.000000;0.326700
9562.000000;0.324468
9561.000000;0.322033
9560.000000;0.319464
9559.000000;0.316822
9558.000000;0.314128
9557.000000;0.311448
9556.000000;0.308942
9555.000000;0.306756
9554.000000;0.304863
9553.000000;0.303046
9552.000000;0.301047
9551.000000;0.298718
9550.000000;0.296073
9549.000000;0.293281
9548.000000;0.290603
9547.000000;0.288243
9546.000000;0.286175
9545.000000;0.284184
9544.000000;0.282141
9543.000000;0.280153
9542.000000;0.278368
9541.000000;0.276678
9540.000000;0.274751
9539.000000;0.272383
9538.000000;0.269695
9537.000000;0.266960
9536.000000;0.264347
9535.000000;0.261883
9534.000000;0.259572
9533.000000;0.257440
9532.000000;0.255452
9531.000000;0.253442
9530.000000;0.251211
9529.000000;0.248765
9528.000000;0.246420
9527.000000;0.244551
9526.000000;0.243162
9525.000000;0.241803
9524.000000;0.239990
9523.000000;0.237645
9522.000000;0.235025
9521.000000;0.232369
9520.000000;0.229817
9519.000000;0.227561
9518.000000;0.225782
9517.000000;0.224368
9516.000000;0.222932
9515.000000;0.221176
9514.000000;0.219112
9513.000000;0.216910
9512.000000;0.214718
9511.000000;0.212689
9510.000000;0.210945
9509.000000;0.209404
9508.000000;0.207818
9507.000000;0.206091
9506.000000;0.204395
9505.000000;0.202860
9504.000000;0.201357
9503.000000;0.199706
9502.000000;0.197934
9501.000000;0.196158
9500.000000;0.194375
9499.000000;0.192540
9498.000000;0.190710
9497.000000;0.188934
9496.000000;0.187146
9495.000000;0.185333
9494.000000;0.183680
9493.000000;0.182331
9492.000000;0.181117
9491.000000;0.179757
9490.000000;0.178229
9489.000000;0.176727
9488.000000;0.175328
9487.000000;0.173967
9486.000000;0.172692
9485.000000;0.171655
9484.000000;0.170806
9483.000000;0.169828
9482.000000;0.168506
9481.000000;0.167028
9480.000000;0.165791
9479.000000;0.164984
9478.000000;0.164411
9477.000000;0.163687
9476.000000;0.162582
9475.000000;0.161194
9474.000000;0.159787
9473.000000;0.158495
9472.000000;0.157289
9471.000000;0.156211
9470.000000;0.155442
9469.000000;0.155010
9468.000000;0.154588
9467.000000;0.153805
9466.000000;0.152671
9465.000000;0.151537
9464.000000;0.150660
9463.000000;0.149999
9462.000000;0.149397
9461.000000;0.148812
9460.000000;0.148333
9459.000000;0.148045
9458.000000;0.147858
9457.000000;0.147455
9456.000000;0.146536
9455.000000;0.145242
9454.000000;0.144170
9453.000000;0.143791
9452.000000;0.143954
9451.000000;0.144115
9450.000000;0.143952
9449.000000;0.143533
9448.000000;0.143053
9447.000000;0.142678
9446.000000;0.142594
9445.000000;0.142878
9444.000000;0.143268
9443.000000;0.143332
9442.000000;0.142929
9441.000000;0.142331
9440.000000;0.141849
9439.000000;0.141530
9438.000000;0.141260
9437.000000;0.140994
9436.000000;0.140823
9435.000000;0.140931
9434.000000;0.141466
9433.000000;0.142315
9432.000000;0.143031
9431.000000;0.143211
9430.000000;0.142965
9429.000000;0.142793
9428.000000;0.143015
9427.000000;0.143532
9426.000000;0.144119
9425.000000;0.144673
9424.000000;0.145118
9423.000000;0.145364
9422.000000;0.145486
9421.000000;0.145730
9420.000000;0.146216
9419.000000;0.146796
9418.000000;0.147334
9417.000000;0.147917
9416.000000;0.148679
9415.000000;0.149559
9414.000000;0.150403
9413.000000;0.151160
9412.000000;0.151863
9411.000000;0.152516
9410.000000;0.153117
9409.000000;0.153696
9408.000000;0.154271
9407.000000;0.154866
9406.000000;0.155611
9405.000000;0.156648
9404.000000;0.157856
9403.000000;0.158867
9402.000000;0.159488
9401.000000;0.159960
9400.000000;0.160648
9399.000000;0.161586
9398.000000;0.162482
9397.000000;0.163067
9396.000000;0.163311
9395.000000;0.163431
9394.000000;0.163804
9393.000000;0.164764
9392.000000;0.166308
9391.000000;0.168056
9390.000000;0.169625
9389.000000;0.170952
9388.000000;0.172154
9387.000000;0.173221
9386.000000;0.174066
9385.000000;0.174765
9384.000000;0.175520
9383.000000;0.176407
9382.000000;0.177384
9381.000000;0.178507
9380.000000;0.179892
9379.000000;0.181403
9378.000000;0.182637
9377.000000;0.183363
9376.000000;0.183832
9375.000000;0.184506
9374.000000;0.185567
9373.000000;0.186824
9372.000000;0.188003
9371.000000;0.188999
9370.000000;0.189871
9369.000000;0.190745
9368.000000;0.191776
9367.000000;0.193068
9366.000000;0.194550
9365.000000;0.195969
9364.000000;0.197091
9363.000000;0.197925
9362.000000;0.198706
9361.000000;0.199674
9360.000000;0.200914
9359.000000;0.202362
9358.000000;0.203886
9357.000000;0.205319
9356.000000;0.206516
9355.000000;0.207471
9354.000000;0.208349
9353.000000;0.209333
9352.000000;0.210439
9351.000000;0.211532
9350.000000;0.212505
9349.000000;0.213396
9348.000000;0.214336
9347.000000;0.215441
9346.000000;0.216748
9345.000000;0.218179
9344.000000;0.219568
9343.000000;0.220792
9342.000000;0.221883
9341.000000;0.223001
9340.000000;0.224277
9339.000000;0.225713
9338.000000;0.227203
9337.000000;0.228617
9336.000000;0.229864
9335.000000;0.230958
9334.000000;0.232020
9333.000000;0.233180
9332.000000;0.234444
9331.000000;0.235685
9330.000000;0.236757
9329.000000;0.237611
9328.000000;0.238325
9327.000000;0.239069
9326.000000;0.240025
9325.000000;0.241254
9324.000000;0.242640
9323.000000;0.243979
9322.000000;0.245153
9321.000000;0.246198
9320.000000;0.247260
9319.000000;0.248497
9318.000000;0.249974
9317.000000;0.251594
9316.000000;0.253139
9315.000000;0.254443
9314.000000;0.255470
9313.000000;0.256244
9312.000000;0.256810
9311.000000;0.257352
9310.000000;0.258207
9309.000000;0.259576
9308.000000;0.261237
9307.000000;0.262735
9306.000000;0.263857
9305.000000;0.264798
9304.000000;0.265817
9303.000000;0.266919
9302.000000;0.267944
9301.000000;0.268865
9300.000000;0.269846
9299.000000;0.271056
9298.000000;0.272490
9297.000000;0.273950
9296.000000;0.275178
9295.000000;0.276060
9294.000000;0.276746
9293.000000;0.277518
9292.000000;0.278520
9291.000000;0.279672
9290.000000;0.280846
9289.000000;0.282046
9288.000000;0.283330
9287.000000;0.284625
9286.000000;0.285734
9285.000000;0.286549
9284.000000;0.287206
9283.000000;0.287954
9282.000000;0.288888
9281.000000;0.289861
9280.000000;0.290697
9279.000000;0.291443
9278.000000;0.292338
9277.000000;0.293510
9276.000000;0.294814
9275.000000;0.296034
9274.000000;0.297172
9273.000000;0.298409
9272.000000;0.299829
9271.000000;0.301257
9270.000000;0.302393
9269.000000;0.303053
9268.000000;0.303312
9267.000000;0.303504
9266.000000;0.304038
9265.000000;0.305098
9264.000000;0.306501
9263.000000;0.307900
9262.000000;0.309128
9261.000000;0.310256
9260.000000;0.311323
9259.000000;0.312203
9258.000000;0.312789
9257.000000;0.313222
9256.000000;0.313813
9255.000000;0.314750
9254.000000;0.315949
9253.000000;0.317195
9252.000000;0.318374
9251.000000;0.319523
9250.000000;0.320653
9249.000000;0.321601
9248.000000;0.322160
9247.000000;0.322367
9246.000000;0.322557
9245.000000;0.323040
9244.000000;0.323813
9243.000000;0.324677
9242.000000;0.325553
9241.000000;0.326545
9240.000000;0.327721
9239.000000;0.328984
9238.000000;0.330190
9237.000000;0.331282
9236.000000;0.332277
9235.000000;0.333201
9234.000000;0.334064
9233.000000;0.334863
9232.000000;0.335609
9231.000000;0.336397
9230.000000;0.337360
9229.000000;0.338474
9228.000000;0.339484
9227.000000;0.340172
9226.000000;0.340657
9225.000000;0.341285
9224.000000;0.342217
9223.000000;0.343302
9222.000000;0.344329
9221.000000;0.345202
9220.000000;0.345863
9219.000000;0.346259
9218.000000;0.346519
9217.000000;0.346958
9216.000000;0.347773
9215.000000;0.348839
9214.000000;0.349895
9213.000000;0.350822
9212.000000;0.351619
9211.000000;0.352242
9210.000000;0.352646
9209.000000;0.352962
9208.000000;0.353462
9207.000000;0.354330
9206.000000;0.355514
9205.000000;0.356778
9204.000000;0.357834
9203.000000;0.358484
9202.000000;0.358784
9201.000000;0.359058
9200.000000;0.359679
9199.000000;0.360774
9198.000000;0.362149
9197.000000;0.363454
9196.000000;0.364416
9195.000000;0.364956
9194.000000;0.365195
9193.000000;0.365374
9192.000000;0.365726
9191.000000;0.366380
9190.000000;0.367317
9189.000000;0.368359
9188.000000;0.369219
9187.000000;0.369680
9186.000000;0.369791
9185.000000;0.369859
9184.000000;0.370196
9183.000000;0.370894
9182.000000;0.371807
9181.000000;0.372700
9180.000000;0.373399
9179.000000;0.373897
9178.000000;0.374336
9177.000000;0.374877
9176.000000;0.375538
9175.000000;0.376223
9174.000000;0.376855
9173.000000;0.377428
9172.000000;0.377929
9171.000000;0.378349
9170.000000;0.378788
9169.000000;0.379424
9168.000000;0.380319
9167.000000;0.381327
9166.000000;0.382248
9165.000000;0.382991
9164.000000;0.383548
9163.000000;0.383916
9162.000000;0.384139
9161.000000;0.384347
9160.000000;0.384682
9159.000000;0.385213
9158.000000;0.385923
9157.000000;0.386713
9156.000000;0.387401
9155.000000;0.387851
9154.000000;0.388165
9153.000000;0.388602
9152.000000;0.389233
9151.000000;0.389829
9150.000000;0.390202
9149.000000;0.390521
9148.000000;0.391104
9147.000000;0.391984
9146.000000;0.392884
9145.000000;0.393603
9144.000000;0.394215
9143.000000;0.394849
9142.000000;0.395451
9141.000000;0.395866
9140.000000;0.396064
9139.000000;0.396197
9138.000000;0.396458
9137.000000;0.396923
9136.000000;0.397491
9135.000000;0.397984
9134.000000;0.398307
9133.000000;0.398520
9132.000000;0.398729
9131.000000;0.398963
9130.000000;0.399225
9129.000000;0.399620
9128.000000;0.400316
9127.000000;0.401329
9126.000000;0.402406
9125.000000;0.403190
9124.000000;0.403516
9123.000000;0.403552
9122.000000;0.403648
9121.000000;0.404013
9120.000000;0.404538
9119.000000;0.404962
9118.000000;0.405205
9117.000000;0.405451
9116.000000;0.405884
9115.000000;0.406436
9114.000000;0.406897
9113.000000;0.407186
9112.000000;0.407402
9111.000000;0.407670
9110.000000;0.408051
9109.000000;0.408613
9108.000000;0.409419
9107.000000;0.410401
9106.000000;0.411327
9105.000000;0.411981
9104.000000;0.412327
9103.000000;0.412482
9102.000000;0.412591
9101.000000;0.412757
9100.000000;0.413056
9099.000000;0.413517
9098.000000;0.414090
9097.000000;0.414641
9096.000000;0.415010
9095.000000;0.415135
9094.000000;0.415153
9093.000000;0.415337
9092.000000;0.415853
9091.000000;0.416586
9090.000000;0.417254
9089.000000;0.417701
9088.000000;0.418020
9087.000000;0.418380
9086.000000;0.418816
9085.000000;0.419240
9084.000000;0.419581
9083.000000;0.419825
9082.000000;0.419948
9081.000000;0.419904
9080.000000;0.419736
9079.000000;0.419635
9078.000000;0.419831
9077.000000;0.420379
9076.000000;0.421104
9075.000000;0.421769
9074.000000;0.422277
9073.000000;0.422676
9072.000000;0.423014
9071.000000;0.423263
9070.000000;0.423395
9069.000000;0.423457
9068.000000;0.423531
9067.000000;0.423675
9066.000000;0.423930
9065.000000;0.424337
9064.000000;0.424875
9063.000000;0.425425
9062.000000;0.425866
9061.000000;0.426197
9060.000000;0.426520
9059.000000;0.426901
9058.000000;0.427301
9057.000000;0.427617
9056.000000;0.427765
9055.000000;0.427728
9054.000000;0.427604
9053.000000;0.427572
9052.000000;0.427748
9051.000000;0.428065
9050.000000;0.428341
9049.000000;0.428503
9048.000000;0.428681
9047.000000;0.429051
9046.000000;0.429612
9045.000000;0.430169
9044.000000;0.430549
9043.000000;0.430767
9042.000000;0.430967
9041.000000;0.431208
9040.000000;0.431386
9039.000000;0.431411
9038.000000;0.431389
9037.000000;0.431525
9036.000000;0.431850
9035.000000;0.432175
9034.000000;0.432365
9033.000000;0.432519
9032.000000;0.432788
9031.000000;0.433105
9030.000000;0.433290
9029.000000;0.433350
9028.000000;0.433503
9027.000000;0.433869
9026.000000;0.434296
9025.000000;0.434554
9024.000000;0.434609
9023.000000;0.434621
9022.000000;0.434751
9021.000000;0.435056
9020.000000;0.435471
9019.000000;0.435820
9018.000000;0.435897
9017.000000;0.435677
9016.000000;0.435408
9015.000000;0.435407
9014.000000;0.435757
9013.000000;0.436265
9012.000000;0.436703
9011.000000;0.436988
9010.000000;0.437125
9009.000000;0.437121
9008.000000;0.437039
9007.000000;0.437053
9006.000000;0.437325
9005.000000;0.437821
9004.000000;0.438331
9003.000000;0.438678
9002.000000;0.438859
9001.000000;0.438964
9000.000000;0.439051
8999.000000;0.439117
8998.000000;0.439152
8997.000000;0.439156
8996.000000;0.439120
8995.000000;0.439039
8994.000000;0.438926
8993.000000;0.438805
8992.000000;0.438718
8991.000000;0.438765
8990.000000;0.439041
8989.000000;0.439482
8988.000000;0.439848
8987.000000;0.439983
8986.000000;0.440049
8985.000000;0.440325
8984.000000;0.440791
8983.000000;0.441084
8982.000000;0.440960
8981.000000;0.440622
8980.000000;0.440463
8979.000000;0.440591
8978.000000;0.440820
8977.000000;0.441010
8976.000000;0.441206
8975.000000;0.441417
8974.000000;0.441482
8973.000000;0.441269
8972.000000;0.440906
8971.000000;0.440674
8970.000000;0.440724
8969.000000;0.440966
8968.000000;0.441207
8967.000000;0.441352
8966.000000;0.441476
8965.000000;0.441731
8964.000000;0.442145
8963.000000;0.442539
8962.000000;0.442694
8961.000000;0.442593
8960.000000;0.442439
8959.000000;0.442407
8958.000000;0.442490
8957.000000;0.442618
8956.000000;0.442801
8955.000000;0.443043
8954.000000;0.443227
8953.000000;0.443223
8952.000000;0.443106
8951.000000;0.443109
8950.000000;0.443326
8949.000000;0.443588
8948.000000;0.443663
8947.000000;0.443500
8946.000000;0.443241
8945.000000;0.443053
8944.000000;0.443025
8943.000000;0.443168
8942.000000;0.443409
8941.000000;0.443612
8940.000000;0.443667
8939.000000;0.443585
8938.000000;0.443473
8937.000000;0.443411
8936.000000;0.443377
8935.000000;0.443311
8934.000000;0.443205
8933.000000;0.443127
8932.000000;0.443155
8931.000000;0.443305
8930.000000;0.443510
8929.000000;0.443668
8928.000000;0.443731
8927.000000;0.443751
8926.000000;0.443823
8925.000000;0.443950
8924.000000;0.444006
8923.000000;0.443844
8922.000000;0.443478
8921.000000;0.443128
8920.000000;0.443053
8919.000000;0.443334
8918.000000;0.443796
8917.000000;0.444156
8916.000000;0.444276
8915.000000;0.444292
8914.000000;0.444453
8913.000000;0.444824
8912.000000;0.445153
8911.000000;0.445111
8910.000000;0.444663
8909.000000;0.444140
8908.000000;0.443900
8907.000000;0.443986
8906.000000;0.444167
8905.000000;0.444262
8904.000000;0.444294
8903.000000;0.444339
8902.000000;0.444361
8901.000000;0.444288
8900.000000;0.444156
8899.000000;0.444053
8898.000000;0.443956
8897.000000;0.443756
8896.000000;0.443438
8895.000000;0.443138
8894.000000;0.442982
8893.000000;0.442950
8892.000000;0.442932
8891.000000;0.442864
8890.000000;0.442763
8889.000000;0.442692
8888.000000;0.442730
8887.000000;0.442940
8886.000000;0.443286
8885.000000;0.443627
8884.000000;0.443852
8883.000000;0.444000
8882.000000;0.444165
8881.000000;0.444306
8880.000000;0.444256
8879.000000;0.443925
8878.000000;0.443419
8877.000000;0.442936
8876.000000;0.442599
8875.000000;0.442451
8874.000000;0.442501
8873.000000;0.442710
8872.000000;0.442923
8871.000000;0.442952
8870.000000;0.442779
8869.000000;0.442641
8868.000000;0.442836
8867.000000;0.443397
8866.000000;0.444000
8865.000000;0.444226
8864.000000;0.443946
8863.000000;0.443402
8862.000000;0.442919
8861.000000;0.442626
8860.000000;0.442466
8859.000000;0.442381
8858.000000;0.442354
8857.000000;0.442320
8856.000000;0.442186
8855.000000;0.441977
8854.000000;0.441859
8853.000000;0.441959
8852.000000;0.442230
8851.000000;0.442530
8850.000000;0.442745
8849.000000;0.442790
8848.000000;0.442598
8847.000000;0.442201
8846.000000;0.441782
8845.000000;0.441530
8844.000000;0.441478
8843.000000;0.441526
8842.000000;0.441582
8841.000000;0.441610
8840.000000;0.441598
8839.000000;0.441568
8838.000000;0.441591
8837.000000;0.441687
8836.000000;0.441762
8835.000000;0.441743
8834.000000;0.441760
8833.000000;0.441996
8832.000000;0.442364
8831.000000;0.442503
8830.000000;0.442207
8829.000000;0.441702
8828.000000;0.441380
8827.000000;0.441360
8826.000000;0.441451
8825.000000;0.441493
8824.000000;0.441550
8823.000000;0.441729
8822.000000;0.441958
8821.000000;0.442044
8820.000000;0.441916
8819.000000;0.441729
8818.000000;0.441680
8817.000000;0.441791
8816.000000;0.441899
8815.000000;0.441896
8814.000000;0.441896
8813.000000;0.442099
8812.000000;0.442491
8811.000000;0.442776
8810.000000;0.442655
8809.000000;0.442127
8808.000000;0.441480
8807.000000;0.441023
8806.000000;0.440911
8805.000000;0.441136
8804.000000;0.441561
8803.000000;0.441938
8802.000000;0.442000
8801.000000;0.441652
8800.000000;0.441077
8799.000000;0.440619
8798.000000;0.440514
8797.000000;0.440736
8796.000000;0.441072
8795.000000;0.441336
8794.000000;0.441506
8793.000000;0.441649
8792.000000;0.441757
8791.000000;0.441741
8790.000000;0.441573
8789.000000;0.441369
8788.000000;0.441258
8787.000000;0.441231
8786.000000;0.441185
8785.000000;0.441115
8784.000000;0.441158
8783.000000;0.441428
8782.000000;0.441845
8781.000000;0.442175
8780.000000;0.442226
8779.000000;0.441986
8778.000000;0.441622
8777.000000;0.441352
8776.000000;0.441304
8775.000000;0.441436
8774.000000;0.441580
8773.000000;0.441618
8772.000000;0.441609
8771.000000;0.441736
8770.000000;0.442084
8769.000000;0.442494
8768.000000;0.442680
8767.000000;0.442511
8766.000000;0.442153
8765.000000;0.441895
8764.000000;0.441875
8763.000000;0.442004
8762.000000;0.442130
8761.000000;0.442183
8760.000000;0.442159
8759.000000;0.442051
8758.000000;0.441858
8757.000000;0.441629
8756.000000;0.441424
8755.000000;0.441264
8754.000000;0.441158
8753.000000;0.441163
8752.000000;0.441343
8751.000000;0.441680
8750.000000;0.442065
8749.000000;0.442375
8748.000000;0.442533
8747.000000;0.442509
8746.000000;0.442341
8745.000000;0.442151
8744.000000;0.442075
8743.000000;0.442160
8742.000000;0.442354
8741.000000;0.442586
8740.000000;0.442790
8739.000000;0.442861
8738.000000;0.442701
8737.000000;0.442364
8736.000000;0.442088
8735.000000;0.442074
8734.000000;0.442273
8733.000000;0.442457
8732.000000;0.442472
8731.000000;0.442357
8730.000000;0.442230
8729.000000;0.442143
8728.000000;0.442079
8727.000000;0.442023
8726.000000;0.441971
8725.000000;0.441904
8724.000000;0.441804
8723.000000;0.441687
8722.000000;0.441580
8721.000000;0.441486
8720.000000;0.441401
8719.000000;0.441349
8718.000000;0.441351
8717.000000;0.441371
8716.000000;0.441359
8715.000000;0.441349
8714.000000;0.441430
8713.000000;0.441594
8712.000000;0.441682
8711.000000;0.441560
8710.000000;0.441304
8709.000000;0.441123
8708.000000;0.441123
8707.000000;0.441245
8706.000000;0.441404
8705.000000;0.441564
8704.000000;0.441648
8703.000000;0.441506
8702.000000;0.441110
8701.000000;0.440673
8700.000000;0.440467
8699.000000;0.440533
8698.000000;0.440678
8697.000000;0.440718
8696.000000;0.440645
8695.000000;0.440551
8694.000000;0.440502
8693.000000;0.440506
8692.000000;0.440495
8691.000000;0.440333
8690.000000;0.439948
8689.000000;0.439492
8688.000000;0.439255
8687.000000;0.439348
8686.000000;0.439553
8685.000000;0.439575
8684.000000;0.439351
8683.000000;0.439034
8682.000000;0.438755
8681.000000;0.438538
8680.000000;0.438407
8679.000000;0.438412
8678.000000;0.438507
8677.000000;0.438526
8676.000000;0.438349
8675.000000;0.438019
8674.000000;0.437670
8673.000000;0.437370
8672.000000;0.437101
8671.000000;0.436811
8670.000000;0.436470
8669.000000;0.436089
8668.000000;0.435747
8667.000000;0.435537
8666.000000;0.435484
8665.000000;0.435509
8664.000000;0.435513
8663.000000;0.435441
8662.000000;0.435280
8661.000000;0.435034
8660.000000;0.434749
8659.000000;0.434489
8658.000000;0.434267
8657.000000;0.434038
8656.000000;0.433800
8655.000000;0.433631
8654.000000;0.433573
8653.000000;0.433521
8652.000000;0.433324
8651.000000;0.432957
8650.000000;0.432530
8649.000000;0.432132
8648.000000;0.431763
8647.000000;0.431400
8646.000000;0.431067
8645.000000;0.430804
8644.000000;0.430627
8643.000000;0.430534
8642.000000;0.430477
8641.000000;0.430342
8640.000000;0.430011
8639.000000;0.429500
8638.000000;0.428992
8637.000000;0.428676
8636.000000;0.428565
8635.000000;0.428500
8634.000000;0.428289
8633.000000;0.427884
8632.000000;0.427427
8631.000000;0.427144
8630.000000;0.427115
8629.000000;0.427159
8628.000000;0.426994
8627.000000;0.426538
8626.000000;0.425987
8625.000000;0.425588
8624.000000;0.425399
8623.000000;0.425314
8622.000000;0.425205
8621.000000;0.424982
8620.000000;0.424584
8619.000000;0.424046
8618.000000;0.423539
8617.000000;0.423240
8616.000000;0.423139
8615.000000;0.423038
8614.000000;0.422753
8613.000000;0.422247
8612.000000;0.421602
8611.000000;0.420949
8610.000000;0.420441
8609.000000;0.420198
8608.000000;0.420186
8607.000000;0.420216
8606.000000;0.420106
8605.000000;0.419817
8604.000000;0.419414
8603.000000;0.418962
8602.000000;0.418515
8601.000000;0.418136
8600.000000;0.417854
8599.000000;0.417605
8598.000000;0.417288
8597.000000;0.416891
8596.000000;0.416497
8595.000000;0.416162
8594.000000;0.415818
8593.000000;0.415351
8592.000000;0.414724
8591.000000;0.414039
8590.000000;0.413466
8589.000000;0.413127
8588.000000;0.413020
8587.000000;0.413015
8586.000000;0.412938
8585.000000;0.412696
8584.000000;0.412331
8583.000000;0.411947
8582.000000;0.411589
8581.000000;0.411224
8580.000000;0.410821
8579.000000;0.410413
8578.000000;0.410038
8577.000000;0.409662
8576.000000;0.409220
8575.000000;0.408722
8574.000000;0.408272
8573.000000;0.407944
8572.000000;0.407696
8571.000000;0.407442
8570.000000;0.407176
8569.000000;0.406944
8568.000000;0.406730
8567.000000;0.406420
8566.000000;0.405934
8565.000000;0.405350
8564.000000;0.404849
8563.000000;0.404532
8562.000000;0.404320
8561.000000;0.404044
8560.000000;0.403643
8559.000000;0.403232
8558.000000;0.402962
8557.000000;0.402843
8556.000000;0.402753
8555.000000;0.402606
8554.000000;0.402404
8553.000000;0.402121
8552.000000;0.401668
8551.000000;0.401055
8550.000000;0.400472
8549.000000;0.400082
8548.000000;0.399792
8547.000000;0.399387
8546.000000;0.398866
8545.000000;0.398463
8544.000000;0.398299
8543.000000;0.398205
8542.000000;0.397983
8541.000000;0.397680
8540.000000;0.397448
8539.000000;0.397234
8538.000000;0.396802
8537.000000;0.396051
8536.000000;0.395168
8535.000000;0.394425
8534.000000;0.393946
8533.000000;0.393697
8532.000000;0.393588
8531.000000;0.393505
8530.000000;0.393323
8529.000000;0.392974
8528.000000;0.392505
8527.000000;0.392026
8526.000000;0.391619
8525.000000;0.391290
8524.000000;0.391000
8523.000000;0.390695
8522.000000;0.390316
8521.000000;0.389834
8520.000000;0.389299
8519.000000;0.388834
8518.000000;0.388554
8517.000000;0.388453
8516.000000;0.388389
8515.000000;0.388193
8514.000000;0.387822
8513.000000;0.387366
8512.000000;0.386920
8511.000000;0.386508
8510.000000;0.386136
8509.000000;0.385833
8508.000000;0.385579
8507.000000;0.385254
8506.000000;0.384774
8505.000000;0.384238
8504.000000;0.383835
8503.000000;0.383597
8502.000000;0.383364
8501.000000;0.383028
8500.000000;0.382678
8499.000000;0.382436
8498.000000;0.382252
8497.000000;0.381970
8496.000000;0.381559
8495.000000;0.381157
8494.000000;0.380871
8493.000000;0.380629
8492.000000;0.380265
8491.000000;0.379705
8490.000000;0.379034
8489.000000;0.378429
8488.000000;0.378021
8487.000000;0.377808
8486.000000;0.377669
8485.000000;0.377484
8484.000000;0.377234
8483.000000;0.376977
8482.000000;0.376732
8481.000000;0.376451
8480.000000;0.376113
8479.000000;0.375779
8478.000000;0.375491
8477.000000;0.375180
8476.000000;0.374751
8475.000000;0.374244
8474.000000;0.373822
8473.000000;0.373550
8472.000000;0.373306
8471.000000;0.372947
8470.000000;0.372516
8469.000000;0.372163
8468.000000;0.371906
8467.000000;0.371607
8466.000000;0.371190
8465.000000;0.370766
8464.000000;0.370454
8463.000000;0.370174
8462.000000;0.369753
8461.000000;0.369191
8460.000000;0.368688
8459.000000;0.368392
8458.000000;0.368245
8457.000000;0.368108
8456.000000;0.367944
8455.000000;0.367804
8454.000000;0.367682
8453.000000;0.367472
8452.000000;0.367071
8451.000000;0.366472
8450.000000;0.365781
8449.000000;0.365171
8448.000000;0.364799
8447.000000;0.364682
8446.000000;0.364663
8445.000000;0.364541
8444.000000;0.364254
8443.000000;0.363902
8442.000000;0.363590
8441.000000;0.363305
8440.000000;0.362963
8439.000000;0.362543
8438.000000;0.362124
8437.000000;0.361789
8436.000000;0.361513
8435.000000;0.361193
8434.000000;0.360782
8433.000000;0.360358
8432.000000;0.360029
8431.000000;0.359775
8430.000000;0.359462
8429.000000;0.359021
8428.000000;0.358552
8427.000000;0.358212
8426.000000;0.358034
8425.000000;0.357922
8424.000000;0.357787
8423.000000;0.357616
8422.000000;0.357397
8421.000000;0.357069
8420.000000;0.356597
8419.000000;0.356039
8418.000000;0.355517
8417.000000;0.355123
8416.000000;0.354896
8415.000000;0.354822
8414.000000;0.354827
8413.000000;0.354781
8412.000000;0.354594
8411.000000;0.354287
8410.000000;0.353954
8409.000000;0.353641
8408.000000;0.353298
8407.000000;0.352859
8406.000000;0.352335
8405.000000;0.351824
8404.000000;0.351455
8403.000000;0.351309
8402.000000;0.351345
8401.000000;0.351395
8400.000000;0.351257
8399.000000;0.350856
8398.000000;0.350318
8397.000000;0.349862
8396.000000;0.349620
8395.000000;0.349544
8394.000000;0.349465
8393.000000;0.349209
8392.000000;0.348699
8391.000000;0.348010
8390.000000;0.347353
8389.000000;0.346949
8388.000000;0.346856
8387.000000;0.346924
8386.000000;0.346941
8385.000000;0.346818
8384.000000;0.346613
8383.000000;0.346407
8382.000000;0.346196
8381.000000;0.345930
8380.000000;0.345595
8379.000000;0.345221
8378.000000;0.344819
8377.000000;0.344375
8376.000000;0.343913
8375.000000;0.343547
8374.000000;0.343416
8373.000000;0.343528
8372.000000;0.343680
8371.000000;0.343589
8370.000000;0.343147
8369.000000;0.342517
8368.000000;0.341949
8367.000000;0.341543
8366.000000;0.341234
8365.000000;0.340955
8364.000000;0.340721
8363.000000;0.340519
8362.000000;0.340236
8361.000000;0.339779
8360.000000;0.339231
8359.000000;0.338796
8358.000000;0.338591
8357.000000;0.338537
8356.000000;0.338460
8355.000000;0.338246
8354.000000;0.337906
8353.000000;0.337522
8352.000000;0.337156
8351.000000;0.336799
8350.000000;0.336432
8349.000000;0.336104
8348.000000;0.335917
8347.000000;0.335886
8346.000000;0.335881
8345.000000;0.335747
8344.000000;0.335451
8343.000000;0.335063
8342.000000;0.334628
8341.000000;0.334144
8340.000000;0.333659
8339.000000;0.333281
8338.000000;0.333064
8337.000000;0.332958
8336.000000;0.332881
8335.000000;0.332798
8334.000000;0.332692
8333.000000;0.332533
8332.000000;0.332301
8331.000000;0.332012
8330.000000;0.331697
8329.000000;0.331386
8328.000000;0.331124
8327.000000;0.330928
8326.000000;0.330731
8325.000000;0.330417
8324.000000;0.329971
8323.000000;0.329529
8322.000000;0.329232
8321.000000;0.329069
8320.000000;0.328910
8319.000000;0.328651
8318.000000;0.328290
8317.000000;0.327875
8316.000000;0.327471
8315.000000;0.327133
8314.000000;0.326893
8313.000000;0.326739
8312.000000;0.326636
8311.000000;0.326538
8310.000000;0.326374
8309.000000;0.326083
8308.000000;0.325699
8307.000000;0.325356
8306.000000;0.325149
8305.000000;0.325018
8304.000000;0.324822
8303.000000;0.324497
8302.000000;0.324093
8301.000000;0.323703
8300.000000;0.323400
8299.000000;0.323218
8298.000000;0.323127
8297.000000;0.323023
8296.000000;0.322816
8295.000000;0.322518
8294.000000;0.322213
8293.000000;0.321949
8292.000000;0.321723
8291.000000;0.321541
8290.000000;0.321419
8289.000000;0.321310
8288.000000;0.321100
8287.000000;0.320727
8286.000000;0.320258
8285.000000;0.319841
8284.000000;0.319591
8283.000000;0.319521
8282.000000;0.319527
8281.000000;0.319466
8280.000000;0.319273
8279.000000;0.319032
8278.000000;0.318880
8277.000000;0.318851
8276.000000;0.318832
8275.000000;0.318687
8274.000000;0.318370
8273.000000;0.317936
8272.000000;0.317482
8271.000000;0.317087
8270.000000;0.316778
8269.000000;0.316528
8268.000000;0.316307
8267.000000;0.316125
8266.000000;0.315986
8265.000000;0.315833
8264.000000;0.315605
8263.000000;0.315343
8262.000000;0.315161
8261.000000;0.315098
8260.000000;0.315077
8259.000000;0.315018
8258.000000;0.314919
8257.000000;0.314793
8256.000000;0.314599
8255.000000;0.314312
8254.000000;0.313987
8253.000000;0.313705
8252.000000;0.313487
8251.000000;0.313315
8250.000000;0.313202
8249.000000;0.313172
8248.000000;0.313179
8247.000000;0.313121
8246.000000;0.312936
8245.000000;0.312646
8244.000000;0.312306
8243.000000;0.311951
8242.000000;0.311593
8241.000000;0.311250
8240.000000;0.310952
8239.000000;0.310726
8238.000000;0.310571
8237.000000;0.310439
8236.000000;0.310271
8235.000000;0.310054
8234.000000;0.309845
8233.000000;0.309705
8232.000000;0.309632
8231.000000;0.309556
8230.000000;0.309401
8229.000000;0.309128
8228.000000;0.308764
8227.000000;0.308394
8226.000000;0.308123
8225.000000;0.308003
8224.000000;0.308008
8223.000000;0.308072
8222.000000;0.308129
8221.000000;0.308117
8220.000000;0.307982
8219.000000;0.307733
8218.000000;0.307477
8217.000000;0.307349
8216.000000;0.307380
8215.000000;0.307450
8214.000000;0.307391
8213.000000;0.307139
8212.000000;0.306788
8211.000000;0.306485
8210.000000;0.306281
8209.000000;0.306105
8208.000000;0.305890
8207.000000;0.305661
8206.000000;0.305460
8205.000000;0.305254
8204.000000;0.304998
8203.000000;0.304765
8202.000000;0.304694
8201.000000;0.304790
8200.000000;0.304872
8199.000000;0.304773
8198.000000;0.304520
8197.000000;0.304260
8196.000000;0.304072
8195.000000;0.303935
8194.000000;0.303823
8193.000000;0.303722
8192.000000;0.303575
8191.000000;0.303298
8190.000000;0.302891
8189.000000;0.302478
8188.000000;0.302210
8187.000000;0.302141
8186.000000;0.302196
8185.000000;0.302236
8184.000000;0.302164
8183.000000;0.302013
8182.000000;0.301912
8181.000000;0.301934
8180.000000;0.302005
8179.000000;0.301987
8178.000000;0.301835
8177.000000;0.301613
8176.000000;0.301392
8175.000000;0.301183
8174.000000;0.300973
8173.000000;0.300768
8172.000000;0.300576
8171.000000;0.300411
8170.000000;0.300307
8169.000000;0.300292
8168.000000;0.300322
8167.000000;0.300295
8166.000000;0.300147
8165.000000;0.299916
8164.000000;0.299678
8163.000000;0.299468
8162.000000;0.299277
8161.000000;0.299095
8160.000000;0.298932
8159.000000;0.298805
8158.000000;0.298726
8157.000000;0.298687
8156.000000;0.298653
8155.000000;0.298587
8154.000000;0.298492
8153.000000;0.298401
8152.000000;0.298325
8151.000000;0.298231
8150.000000;0.298093
8149.000000;0.297940
8148.000000;0.297832
8147.000000;0.297799
8146.000000;0.297813
8145.000000;0.297810
8144.000000;0.297749
8143.000000;0.297641
8142.000000;0.297525
8141.000000;0.297405
8140.000000;0.297236
8139.000000;0.296996
8138.000000;0.296754
8137.000000;0.296606
8136.000000;0.296564
8135.000000;0.296541
8134.000000;0.296478
8133.000000;0.296400
8132.000000;0.296336
8131.000000;0.296226
8130.000000;0.295989
8129.000000;0.295660
8128.000000;0.295385
8127.000000;0.295267
8126.000000;0.295262
8125.000000;0.295245
8124.000000;0.295162
8123.000000;0.295086
8122.000000;0.295117
8121.000000;0.295240
8120.000000;0.295310
8119.000000;0.295183
8118.000000;0.294875
8117.000000;0.294572
8116.000000;0.294467
8115.000000;0.294589
8114.000000;0.294780
8113.000000;0.294842
8112.000000;0.294680
8111.000000;0.294356
8110.000000;0.294024
8109.000000;0.293824
8108.000000;0.293779
8107.000000;0.293791
8106.000000;0.293741
8105.000000;0.293606
8104.000000;0.293466
8103.000000;0.293401
8102.000000;0.293422
8101.000000;0.293487
8100.000000;0.293554
8099.000000;0.293580
8098.000000;0.293515
8097.000000;0.293339
8096.000000;0.293110
8095.000000;0.292934
8094.000000;0.292871
8093.000000;0.292895
8092.000000;0.292957
8091.000000;0.293033
8090.000000;0.293117
8089.000000;0.293185
8088.000000;0.293204
8087.000000;0.293167
8086.000000;0.293079
8085.000000;0.292930
8084.000000;0.292710
8083.000000;0.292453
8082.000000;0.292241
8081.000000;0.292138
8080.000000;0.292123
8079.000000;0.292101
8078.000000;0.291983
8077.000000;0.291780
8076.000000;0.291605
8075.000000;0.291583
8074.000000;0.291734
8073.000000;0.291965
8072.000000;0.292146
8071.000000;0.292201
8070.000000;0.292104
8069.000000;0.291848
8068.000000;0.291466
8067.000000;0.291056
8066.000000;0.290738
8065.000000;0.290578
8064.000000;0.290545
8063.000000;0.290563
8062.000000;0.290567
8061.000000;0.290525
8060.000000;0.290455
8059.000000;0.290412
8058.000000;0.290444
8057.000000;0.290535
8056.000000;0.290615
8055.000000;0.290633
8054.000000;0.290605
8053.000000;0.290584
8052.000000;0.290603
8051.000000;0.290653
8050.000000;0.290704
8049.000000;0.290729
8048.000000;0.290723
8047.000000;0.290693
8046.000000;0.290633
8045.000000;0.290524
8044.000000;0.290381
8043.000000;0.290267
8042.000000;0.290226
8041.000000;0.290201
8040.000000;0.290086
8039.000000;0.289855
8038.000000;0.289597
8037.000000;0.289416
8036.000000;0.289348
8035.000000;0.289384
8034.000000;0.289506
8033.000000;0.289649
8032.000000;0.289699
8031.000000;0.289603
8030.000000;0.289442
8029.000000;0.289345
8028.000000;0.289340
8027.000000;0.289346
8026.000000;0.289292
8025.000000;0.289189
8024.000000;0.289078
8023.000000;0.288972
8022.000000;0.288873
8021.000000;0.288809
8020.000000;0.288806
8019.000000;0.288849
8018.000000;0.288877
8017.000000;0.288836
8016.000000;0.288717
8015.000000;0.288580
8014.000000;0.288510
8013.000000;0.288548
8012.000000;0.288656
8011.000000;0.288764
8010.000000;0.288845
8009.000000;0.288911
8008.000000;0.288958
8007.000000;0.288950
8006.000000;0.288875
8005.000000;0.288770
8004.000000;0.288661
8003.000000;0.288518
8002.000000;0.288323
8001.000000;0.288147
8000.000000;0.288102
7999.000000;0.288210
7998.000000;0.288354
7997.000000;0.288412
7996.000000;0.288392
7995.000000;0.288401
7994.000000;0.288478
7993.000000;0.288536
7992.000000;0.288491
7991.000000;0.288384
7990.000000;0.288326
7989.000000;0.288344
7988.000000;0.288344
7987.000000;0.288240
7986.000000;0.288048
7985.000000;0.287857
7984.000000;0.287733
7983.000000;0.287682
7982.000000;0.287661
7981.000000;0.287620
7980.000000;0.287550
7979.000000;0.287506
7978.000000;0.287539
7977.000000;0.287607
7976.000000;0.287594
7975.000000;0.287457
7974.000000;0.287301
7973.000000;0.287256
7972.000000;0.287323
7971.000000;0.287389
7970.000000;0.287369
7969.000000;0.287283
7968.000000;0.287198
7967.000000;0.287154
7966.000000;0.287155
7965.000000;0.287175
7964.000000;0.287175
7963.000000;0.287129
7962.000000;0.287059
7961.000000;0.287024
7960.000000;0.287055
7959.000000;0.287129
7958.000000;0.287203
7957.000000;0.287254
7956.000000;0.287291
7955.000000;0.287328
7954.000000;0.287370
7953.000000;0.287400
7952.000000;0.287393
7951.000000;0.287341
7950.000000;0.287265
7949.000000;0.287198
7948.000000;0.287143
7947.000000;0.287095
7946.000000;0.287068
7945.000000;0.287097
7944.000000;0.287186
7943.000000;0.287281
7942.000000;0.287309
7941.000000;0.287240
7940.000000;0.287117
7939.000000;0.287022
7938.000000;0.287010
7937.000000;0.287073
7936.000000;0.287150
7935.000000;0.287174
7934.000000;0.287121
7933.000000;0.287017
7932.000000;0.286916
7931.000000;0.286861
7930.000000;0.286844
7929.000000;0.286824
7928.000000;0.286788
7927.000000;0.286783
7926.000000;0.286836
7925.000000;0.286890
7924.000000;0.286856
7923.000000;0.286744
7922.000000;0.286654
7921.000000;0.286631
7920.000000;0.286597
7919.000000;0.286481
7918.000000;0.286343
7917.000000;0.286293
7916.000000;0.286350
7915.000000;0.286445
7914.000000;0.286532
7913.000000;0.286612
7912.000000;0.286657
7911.000000;0.286621
7910.000000;0.286522
7909.000000;0.286449
7908.000000;0.286454
7907.000000;0.286506
7906.000000;0.286566
7905.000000;0.286651
7904.000000;0.286777
7903.000000;0.286909
7902.000000;0.286998
7901.000000;0.287038
7900.000000;0.287053
7899.000000;0.287054
7898.000000;0.287048
7897.000000;0.287062
7896.000000;0.287112
7895.000000;0.287171
7894.000000;0.287201
7893.000000;0.287195
7892.000000;0.287181
7891.000000;0.287176
7890.000000;0.287170
7889.000000;0.287142
7888.000000;0.287079
7887.000000;0.286999
7886.000000;0.286951
7885.000000;0.286977
7884.000000;0.287053
7883.000000;0.287102
7882.000000;0.287089
7881.000000;0.287062
7880.000000;0.287082
7879.000000;0.287140
7878.000000;0.287171
7877.000000;0.287144
7876.000000;0.287086
7875.000000;0.287036
7874.000000;0.287018
7873.000000;0.287061
7872.000000;0.287196
7871.000000;0.287408
7870.000000;0.287616
7869.000000;0.287728
7868.000000;0.287703
7867.000000;0.287585
7866.000000;0.287461
7865.000000;0.287404
7864.000000;0.287424
7863.000000;0.287477
7862.000000;0.287530
7861.000000;0.287600
7860.000000;0.287718
7859.000000;0.287864
7858.000000;0.287962
7857.000000;0.287960
7856.000000;0.287892
7855.000000;0.287846
7854.000000;0.287868
7853.000000;0.287913
7852.000000;0.287901
7851.000000;0.287815
7850.000000;0.287720
7849.000000;0.287697
7848.000000;0.287752
7847.000000;0.287827
7846.000000;0.287893
7845.000000;0.287983
7844.000000;0.288129
7843.000000;0.288297
7842.000000;0.288421
7841.000000;0.288473
7840.000000;0.288476
7839.000000;0.288457
7838.000000;0.288433
7837.000000;0.288427
7836.000000;0.288450
7835.000000;0.288460
7834.000000;0.288396
7833.000000;0.288269
7832.000000;0.288181
7831.000000;0.288221
7830.000000;0.288359
7829.000000;0.288488
7828.000000;0.288545
7827.000000;0.288550
7826.000000;0.288554
7825.000000;0.288580
7824.000000;0.288633
7823.000000;0.288716
7822.000000;0.288820
7821.000000;0.288921
7820.000000;0.289000
7819.000000;0.289049
7818.000000;0.289077
7817.000000;0.289103
7816.000000;0.289151
7815.000000;0.289242
7814.000000;0.289369
7813.000000;0.289484
7812.000000;0.289529
7811.000000;0.289469
7810.000000;0.289328
7809.000000;0.289184
7808.000000;0.289122
7807.000000;0.289165
7806.000000;0.289255
7805.000000;0.289318
7804.000000;0.289335
7803.000000;0.289344
7802.000000;0.289373
7801.000000;0.289413
7800.000000;0.289450
7799.000000;0.289499
7798.000000;0.289595
7797.000000;0.289760
7796.000000;0.289994
7795.000000;0.290259
7794.000000;0.290493
7793.000000;0.290630
7792.000000;0.290645
7791.000000;0.290557
7790.000000;0.290406
7789.000000;0.290253
7788.000000;0.290171
7787.000000;0.290211
7786.000000;0.290341
7785.000000;0.290462
7784.000000;0.290506
7783.000000;0.290499
7782.000000;0.290525
7781.000000;0.290635
7780.000000;0.290806
7779.000000;0.290970
7778.000000;0.291074
7777.000000;0.291127
7776.000000;0.291180
7775.000000;0.291251
7774.000000;0.291277
7773.000000;0.291197
7772.000000;0.291070
7771.000000;0.291045
7770.000000;0.291200
7769.000000;0.291456
7768.000000;0.291682
7767.000000;0.291833
7766.000000;0.291936
7765.000000;0.292001
7764.000000;0.292017
7763.000000;0.292006
7762.000000;0.292020
7761.000000;0.292073
7760.000000;0.292137
7759.000000;0.292202
7758.000000;0.292312
7757.000000;0.292501
7756.000000;0.292739
7755.000000;0.292939
7754.000000;0.293012
7753.000000;0.292937
7752.000000;0.292789
7751.000000;0.292706
7750.000000;0.292783
7749.000000;0.293006
7748.000000;0.293301
7747.000000;0.293605
7746.000000;0.293873
7745.000000;0.294043
7744.000000;0.294067
7743.000000;0.293981
7742.000000;0.293895
7741.000000;0.293909
7740.000000;0.294046
7739.000000;0.294262
7738.000000;0.294476
7737.000000;0.294609
7736.000000;0.294625
7735.000000;0.294561
7734.000000;0.294488
7733.000000;0.294457
7732.000000;0.294492
7731.000000;0.294601
7730.000000;0.294765
7729.000000;0.294929
7728.000000;0.295050
7727.000000;0.295159
7726.000000;0.295317
7725.000000;0.295526
7724.000000;0.295724
7723.000000;0.295862
7722.000000;0.295959
7721.000000;0.296054
7720.000000;0.296158
7719.000000;0.296258
7718.000000;0.296338
7717.000000;0.296383
7716.000000;0.296395
7715.000000;0.296408
7714.000000;0.296457
7713.000000;0.296550
7712.000000;0.296661
7711.000000;0.296767
7710.000000;0.296857
7709.000000;0.296942
7708.000000;0.297066
7707.000000;0.297280
7706.000000;0.297568
7705.000000;0.297826
7704.000000;0.297976
7703.000000;0.298073
7702.000000;0.298224
7701.000000;0.298432
7700.000000;0.298582
7699.000000;0.298607
7698.000000;0.298582
7697.000000;0.298624
7696.000000;0.298766
7695.000000;0.298950
7694.000000;0.299093
7693.000000;0.299135
7692.000000;0.299080
7691.000000;0.299026
7690.000000;0.299097
7689.000000;0.299318
7688.000000;0.299592
7687.000000;0.299818
7686.000000;0.299977
7685.000000;0.300092
7684.000000;0.300162
7683.000000;0.300204
7682.000000;0.300289
7681.000000;0.300479
7680.000000;0.300729
7679.000000;0.300928
7678.000000;0.301014
7677.000000;0.301036
7676.000000;0.301094
7675.000000;0.301253
7674.000000;0.301484
7673.000000;0.301703
7672.000000;0.301854
7671.000000;0.301964
7670.000000;0.302100
7669.000000;0.302287
7668.000000;0.302498
7667.000000;0.302711
7666.000000;0.302922
7665.000000;0.303116
7664.000000;0.303273
7663.000000;0.303408
7662.000000;0.303559
7661.000000;0.303718
7660.000000;0.303843
7659.000000;0.303947
7658.000000;0.304096
7657.000000;0.304307
7656.000000;0.304503
7655.000000;0.304620
7654.000000;0.304696
7653.000000;0.304806
7652.000000;0.304959
7651.000000;0.305122
7650.000000;0.305283
7649.000000;0.305451
7648.000000;0.305630
7647.000000;0.305834
7646.000000;0.306084
7645.000000;0.306351
7644.000000;0.306546
7643.000000;0.306629
7642.000000;0.306684
7641.000000;0.306841
7640.000000;0.307136
7639.000000;0.307491
7638.000000;0.307804
7637.000000;0.308017
7636.000000;0.308133
7635.000000;0.308216
7634.000000;0.308357
7633.000000;0.308586
7632.000000;0.308839
7631.000000;0.309047
7630.000000;0.309230
7629.000000;0.309446
7628.000000;0.309699
7627.000000;0.309950
7626.000000;0.310194
7625.000000;0.310455
7624.000000;0.310709
7623.000000;0.310894
7622.000000;0.310997
7621.000000;0.311085
7620.000000;0.311231
7619.000000;0.311461
7618.000000;0.311759
7617.000000;0.312081
7616.000000;0.312365
7615.000000;0.312565
7614.000000;0.312702
7613.000000;0.312846
7612.000000;0.313046
7611.000000;0.313303
7610.000000;0.313596
7609.000000;0.313910
7608.000000;0.314217
7607.000000;0.314482
7606.000000;0.314686
7605.000000;0.314841
7604.000000;0.314980
7603.000000;0.315138
7602.000000;0.315346
7601.000000;0.315619
7600.000000;0.315937
7599.000000;0.316263
7598.000000;0.316556
7597.000000;0.316785
7596.000000;0.316940
7595.000000;0.317054
7594.000000;0.317179
7593.000000;0.317346
7592.000000;0.317555
7591.000000;0.317807
7590.000000;0.318124
7589.000000;0.318492
7588.000000;0.318838
7587.000000;0.319100
7586.000000;0.319300
7585.000000;0.319504
7584.000000;0.319750
7583.000000;0.320026
7582.000000;0.320330
7581.000000;0.320680
7580.000000;0.321076
7579.000000;0.321486
7578.000000;0.321879
7577.000000;0.322242
7576.000000;0.322572
7575.000000;0.322879
7574.000000;0.323182
7573.000000;0.323482
7572.000000;0.323750
7571.000000;0.323967
7570.000000;0.324161
7569.000000;0.324388
7568.000000;0.324679
7567.000000;0.325032
7566.000000;0.325427
7565.000000;0.325839
7564.000000;0.326234
7563.000000;0.326577
7562.000000;0.326853
7561.000000;0.327075
7560.000000;0.327277
7559.000000;0.327488
7558.000000;0.327721
7557.000000;0.327960
7556.000000;0.328198
7555.000000;0.328464
7554.000000;0.328797
7553.000000;0.329183
7552.000000;0.329573
7551.000000;0.329961
7550.000000;0.330393
7549.000000;0.330885
7548.000000;0.331370
7547.000000;0.331773
7546.000000;0.332087
7545.000000;0.332354
7544.000000;0.332589
7543.000000;0.332795
7542.000000;0.333007
7541.000000;0.333272
7540.000000;0.333599
7539.000000;0.333967
7538.000000;0.334349
7537.000000;0.334729
7536.000000;0.335088
7535.000000;0.335429
7534.000000;0.335780
7533.000000;0.336153
7532.000000;0.336513
7531.000000;0.336838
7530.000000;0.337165
7529.000000;0.337549
7528.000000;0.337983
7527.000000;0.338414
7526.000000;0.338813
7525.000000;0.339198
7524.000000;0.339575
7523.000000;0.339910
7522.000000;0.340177
7521.000000;0.340404
7520.000000;0.340670
7519.000000;0.341039
7518.000000;0.341506
7517.000000;0.341991
7516.000000;0.342425
7515.000000;0.342827
7514.000000;0.343278
7513.000000;0.343802
7512.000000;0.344315
7511.000000;0.344711
7510.000000;0.344977
7509.000000;0.345194
7508.000000;0.345438
7507.000000;0.345731
7506.000000;0.346048
7505.000000;0.346355
7504.000000;0.346649
7503.000000;0.346962
7502.000000;0.347330
7501.000000;0.347748
7500.000000;0.348179
7499.000000;0.348609
7498.000000;0.349044
7497.000000;0.349411
7496.000000;0.349776
7495.000000;0.350120
7494.000000;0.350520
7493.000000;0.351005
7492.000000;0.351511
7491.000000;0.351966
7490.000000;0.352377
7489.000000;0.352785
7488.000000;0.353190
7487.000000;0.353579
7486.000000;0.353976
7485.000000;0.354422
7484.000000;0.354899
7483.000000;0.355344
7482.000000;0.355725
7481.000000;0.356064
7480.000000;0.356414
7479.000000;0.356815
7478.000000;0.357269
7477.000000;0.357723
7476.000000;0.358122
7475.000000;0.358485
7474.000000;0.358899
7473.000000;0.359415
7472.000000;0.359978
7471.000000;0.360479
7470.000000;0.360850
7469.000000;0.361109
7468.000000;0.361347
7467.000000;0.361679
7466.000000;0.362159
7465.000000;0.362710
7464.000000;0.363195
7463.000000;0.363561
7462.000000;0.363875
7461.000000;0.364209
7460.000000;0.364560
7459.000000;0.364898
7458.000000;0.365239
7457.000000;0.365607
7456.000000;0.365990
7455.000000;0.366381
7454.000000;0.366815
7453.000000;0.367307
7452.000000;0.367800
7451.000000;0.368219
7450.000000;0.368548
7449.000000;0.368823
7448.000000;0.369090
7447.000000;0.369397
7446.000000;0.369784
7445.000000;0.370239
7444.000000;0.370705
7443.000000;0.371160
7442.000000;0.371636
7441.000000;0.372136
7440.000000;0.372593
7439.000000;0.372952
7438.000000;0.373249
7437.000000;0.373555
7436.000000;0.373899
7435.000000;0.374281
7434.000000;0.374723
7433.000000;0.375234
7432.000000;0.375774
7431.000000;0.376278
7430.000000;0.376705
7429.000000;0.377046
7428.000000;0.377328
7427.000000;0.377631
7426.000000;0.378033
7425.000000;0.378503
7424.000000;0.378941
7423.000000;0.379345
7422.000000;0.379831
7421.000000;0.380429
7420.000000;0.380968
7419.000000;0.381279
7418.000000;0.381423
7417.000000;0.381616
7416.000000;0.381972
7415.000000;0.382419
7414.000000;0.382824
7413.000000;0.383140
7412.000000;0.383438
7411.000000;0.383812
7410.000000;0.384259
7409.000000;0.384658
7408.000000;0.384932
7407.000000;0.385184
7406.000000;0.385578
7405.000000;0.386112
7404.000000;0.386633
7403.000000;0.387068
7402.000000;0.387492
7401.000000;0.387981
7400.000000;0.388508
7399.000000;0.388976
7398.000000;0.389288
7397.000000;0.389449
7396.000000;0.389623
7395.000000;0.389987
7394.000000;0.390445
7393.000000;0.390669
7392.000000;0.390539
7391.000000;0.390372
7390.000000;0.390551
7389.000000;0.391072
7388.000000;0.391691
7387.000000;0.392349
7386.000000;0.393129
7385.000000;0.393888
7384.000000;0.394369
7383.000000;0.394704
7382.000000;0.395307
7381.000000;0.396113
7380.000000;0.396469
7379.000000;0.396118
7378.000000;0.395788
7377.000000;0.396294
7376.000000;0.397453
7375.000000;0.398384
7374.000000;0.398655
7373.000000;0.398612
7372.000000;0.398727
7371.000000;0.399132
7370.000000;0.399717
7369.000000;0.400262
7368.000000;0.400528
7367.000000;0.400537
7366.000000;0.400660
7365.000000;0.401133
7364.000000;0.401695
7363.000000;0.402047
7362.000000;0.402383
7361.000000;0.402983
7360.000000;0.403555
7359.000000;0.403684
7358.000000;0.403684
7357.000000;0.404217
7356.000000;0.405222
7355.000000;0.405992
7354.000000;0.406271
7353.000000;0.406483
7352.000000;0.406911
7351.000000;0.407427
7350.000000;0.408003
7349.000000;0.408706
7348.000000;0.409209
7347.000000;0.409178
7346.000000;0.409045
7345.000000;0.409528
7344.000000;0.410441
7343.000000;0.411013
7342.000000;0.411347
7341.000000;0.412354
7340.000000;0.414014
7339.000000;0.414997
7338.000000;0.414665
7337.000000;0.414106
7336.000000;0.414487
7335.000000;0.415567
7334.000000;0.416514
7333.000000;0.417103
7332.000000;0.417415
7331.000000;0.417384
7330.000000;0.417352
7329.000000;0.418064
7328.000000;0.419414
7327.000000;0.420209
7326.000000;0.419926
7325.000000;0.419681
7324.000000;0.420539
7323.000000;0.421951
7322.000000;0.422752
7321.000000;0.422947
7320.000000;0.423469
7319.000000;0.424637
7318.000000;0.425946
7317.000000;0.427053
7316.000000;0.427925
7315.000000;0.428388
7314.000000;0.428490
7313.000000;0.428985
7312.000000;0.430379
7311.000000;0.431856
7310.000000;0.432327
7309.000000;0.432156
7308.000000;0.432602
7307.000000;0.433855
7306.000000;0.434855
7305.000000;0.435092
7304.000000;0.435308
7303.000000;0.436105
7302.000000;0.437148
7301.000000;0.438076
7300.000000;0.439101
7299.000000;0.440225
7298.000000;0.440896
7297.000000;0.441117
7296.000000;0.441863
7295.000000;0.443676
7294.000000;0.445683
7293.000000;0.446775
7292.000000;0.447214
7291.000000;0.448123
7290.000000;0.449877
7289.000000;0.451853
7288.000000;0.453391
7287.000000;0.454408
7286.000000;0.455145
7285.000000;0.455854
7284.000000;0.456768
7283.000000;0.457964
7282.000000;0.459229
7281.000000;0.460308
7280.000000;0.461272
7279.000000;0.462393
7278.000000;0.463745
7277.000000;0.465194
7276.000000;0.466696
7275.000000;0.468324
7274.000000;0.470060
7273.000000;0.471737
7272.000000;0.473211
7271.000000;0.474518
7270.000000;0.475862
7269.000000;0.477462
7268.000000;0.479352
7267.000000;0.481278
7266.000000;0.482958
7265.000000;0.484485
7264.000000;0.486265
7263.000000;0.488452
7262.000000;0.490660
7261.000000;0.492442
7260.000000;0.493880
7259.000000;0.495417
7258.000000;0.497245
7257.000000;0.499202
7256.000000;0.501223
7255.000000;0.503495
7254.000000;0.506046
7253.000000;0.508538
7252.000000;0.510582
7251.000000;0.512176
7250.000000;0.513771
7249.000000;0.515850
7248.000000;0.518389
7247.000000;0.520826
7246.000000;0.522830
7245.000000;0.524898
7244.000000;0.527753
7243.000000;0.531243
7242.000000;0.534341
7241.000000;0.536447
7240.000000;0.538223
7239.000000;0.540686
7238.000000;0.543904
7237.000000;0.547026
7236.000000;0.549472
7235.000000;0.551660
7234.000000;0.554414
7233.000000;0.557951
7232.000000;0.561548
7231.000000;0.564306
7230.000000;0.566253
7229.000000;0.568430
7228.000000;0.571707
7227.000000;0.575780
7226.000000;0.579579
7225.000000;0.582458
7224.000000;0.584741
7223.000000;0.587251
7222.000000;0.590516
7221.000000;0.594415
7220.000000;0.598371
7219.000000;0.601878
7218.000000;0.604958
7217.000000;0.608086
7216.000000;0.611662
7215.000000;0.615603
7214.000000;0.619498
7213.000000;0.623156
7212.000000;0.626821
7211.000000;0.630798
7210.000000;0.635041
7209.000000;0.639290
7208.000000;0.643474
7207.000000;0.647785
7206.000000;0.652412
7205.000000;0.657282
7204.000000;0.662067
7203.000000;0.666485
7202.000000;0.670597
7201.000000;0.674732
7200.000000;0.679091
7199.000000;0.683518
7198.000000;0.687806
7197.000000;0.692107
7196.000000;0.696819
7195.000000;0.701999
7194.000000;0.707207
7193.000000;0.712114
7192.000000;0.716955
7191.000000;0.722101
7190.000000;0.727463
7189.000000;0.732738
7188.000000;0.737992
7187.000000;0.743448
7186.000000;0.748862
7185.000000;0.753737
7184.000000;0.758228
7183.000000;0.763144
7182.000000;0.768876
7181.000000;0.774885
7180.000000;0.780569
7179.000000;0.786139
7178.000000;0.792142
7177.000000;0.798539
7176.000000;0.804809
7175.000000;0.810667
7174.000000;0.816246
7173.000000;0.821747
7172.000000;0.827346
7171.000000;0.833340
7170.000000;0.839847
7169.000000;0.846505
7168.000000;0.852855
7167.000000;0.858857
7166.000000;0.864669
7165.000000;0.870199
7164.000000;0.875413
7163.000000;0.880771
7162.000000;0.886809
7161.000000;0.893398
7160.000000;0.899938
7159.000000;0.906261
7158.000000;0.912778
7157.000000;0.919647
7156.000000;0.926441
7155.000000;0.932817
7154.000000;0.938982
7153.000000;0.945292
7152.000000;0.951760
7151.000000;0.958200
7150.000000;0.964533
7149.000000;0.970789
7148.000000;0.977003
7147.000000;0.983252
7146.000000;0.989699
7145.000000;0.996394
7144.000000;1.003082
7143.000000;1.009432
7142.000000;1.015522
7141.000000;1.021780
7140.000000;1.028363
7139.000000;1.034886
7138.000000;1.041016
7137.000000;1.047035
7136.000000;1.053423
7135.000000;1.060125
7134.000000;1.066656
7133.000000;1.072855
7132.000000;1.079069
7131.000000;1.085525
7130.000000;1.091993
7129.000000;1.098274
7128.000000;1.104579
7127.000000;1.111064
7126.000000;1.117416
7125.000000;1.123357
7124.000000;1.129184
7123.000000;1.135287
7122.000000;1.141396
7121.000000;1.146925
7120.000000;1.151950
7119.000000;1.157194
7118.000000;1.163019
7117.000000;1.169018
7116.000000;1.174856
7115.000000;1.180877
7114.000000;1.187448
7113.000000;1.194175
7112.000000;1.200270
7111.000000;1.205493
7110.000000;1.210327
7109.000000;1.215329
7108.000000;1.220647
7107.000000;1.226091
7106.000000;1.231323
7105.000000;1.236095
7104.000000;1.240540
7103.000000;1.245145
7102.000000;1.250259
7101.000000;1.255683
7100.000000;1.260862
7099.000000;1.265450
7098.000000;1.269690
7097.000000;1.274224
7096.000000;1.279470
7095.000000;1.285211
7094.000000;1.290820
7093.000000;1.295858
7092.000000;1.300335
7091.000000;1.304450
7090.000000;1.308318
7089.000000;1.312085
7088.000000;1.316086
7087.000000;1.320615
7086.000000;1.325511
7085.000000;1.330178
7084.000000;1.334098
7083.000000;1.337308
7082.000000;1.340425
7081.000000;1.344220
7080.000000;1.348956
7079.000000;1.354075
7078.000000;1.358668
7077.000000;1.362347
7076.000000;1.365509
7075.000000;1.368782
7074.000000;1.372412
7073.000000;1.376231
7072.000000;1.379952
7071.000000;1.383377
7070.000000;1.386450
7069.000000;1.389290
7068.000000;1.392048
7067.000000;1.394649
7066.000000;1.396860
7065.000000;1.398733
7064.000000;1.400803
7063.000000;1.403578
7062.000000;1.407010
7061.000000;1.410699
7060.000000;1.414415
7059.000000;1.418165
7058.000000;1.421881
7057.000000;1.425356
7056.000000;1.428437
7055.000000;1.431080
7054.000000;1.433280
7053.000000;1.435115
7052.000000;1.436827
7051.000000;1.438617
7050.000000;1.440408
7049.000000;1.442020
7048.000000;1.443522
7047.000000;1.445186
7046.000000;1.447179
7045.000000;1.449532
7044.000000;1.452273
7043.000000;1.455247
7042.000000;1.457928
7041.000000;1.459869
7040.000000;1.461375
7039.000000;1.463282
7038.000000;1.465960
7037.000000;1.468913
7036.000000;1.471532
7035.000000;1.473797
7034.000000;1.475919
7033.000000;1.477633
7032.000000;1.478430
7031.000000;1.478451
7030.000000;1.478652
7029.000000;1.479893
7028.000000;1.482103
7027.000000;1.484456
7026.000000;1.486221
7025.000000;1.487319
7024.000000;1.488165
7023.000000;1.489126
7022.000000;1.490206
7021.000000;1.491183
7020.000000;1.491985
7019.000000;1.492874
7018.000000;1.494177
7017.000000;1.495941
7016.000000;1.497963
7015.000000;1.500063
7014.000000;1.502155
7013.000000;1.504012
7012.000000;1.505212
7011.000000;1.505524
7010.000000;1.505301
7009.000000;1.505294
7008.000000;1.506034
7007.000000;1.507471
7006.000000;1.509156
7005.000000;1.510677
7004.000000;1.511905
7003.000000;1.512938
7002.000000;1.513863
7001.000000;1.514564
7000.000000;1.514814
6999.000000;1.514683
6998.000000;1.514747
6997.000000;1.515651
6996.000000;1.517371
6995.000000;1.519078
6994.000000;1.519859
6993.000000;1.519490
6992.000000;1.518479
6991.000000;1.517515
6990.000000;1.517007
6989.000000;1.516980
6988.000000;1.517274
6987.000000;1.517907
6986.000000;1.519201
6985.000000;1.521347
6984.000000;1.523825
6983.000000;1.525562
6982.000000;1.525888
6981.000000;1.525128
6980.000000;1.524144
6979.000000;1.523616
6978.000000;1.523940
6977.000000;1.525306
6976.000000;1.527384
6975.000000;1.529192
6974.000000;1.529828
6973.000000;1.529330
6972.000000;1.528465
6971.000000;1.527826
6970.000000;1.527512
6969.000000;1.527472
6968.000000;1.527672
6967.000000;1.527893
6966.000000;1.527816
6965.000000;1.527398
6964.000000;1.526835
6963.000000;1.526179
6962.000000;1.525382
6961.000000;1.524639
6960.000000;1.524265
6959.000000;1.524249
6958.000000;1.524357
6957.000000;1.524640
6956.000000;1.525326
6955.000000;1.526205
6954.000000;1.526670
6953.000000;1.526494
6952.000000;1.526063
6951.000000;1.525640
6950.000000;1.524906
6949.000000;1.523515
6948.000000;1.521726
6947.000000;1.520168
6946.000000;1.519254
6945.000000;1.519052
6944.000000;1.519412
6943.000000;1.519983
6942.000000;1.520410
6941.000000;1.520714
6940.000000;1.521209
6939.000000;1.521896
6938.000000;1.522373
6937.000000;1.522566
6936.000000;1.523025
6935.000000;1.524077
6934.000000;1.525095
6933.000000;1.525128
6932.000000;1.524004
6931.000000;1.522289
6930.000000;1.520448
6929.000000;1.518622
6928.000000;1.517042
6927.000000;1.515987
6926.000000;1.515294
6925.000000;1.514473
6924.000000;1.513481
6923.000000;1.512877
6922.000000;1.512988
6921.000000;1.513359
6920.000000;1.513314
6919.000000;1.512768
6918.000000;1.512150
6917.000000;1.511727
6916.000000;1.511340
6915.000000;1.510779
6914.000000;1.510139
6913.000000;1.509688
6912.000000;1.509462
6911.000000;1.509106
6910.000000;1.508204
6909.000000;1.506789
6908.000000;1.505411
6907.000000;1.504586
6906.000000;1.504272
6905.000000;1.504039
6904.000000;1.503674
6903.000000;1.503366
6902.000000;1.503239
6901.000000;1.502971
6900.000000;1.502110
6899.000000;1.500669
6898.000000;1.499176
6897.000000;1.498142
6896.000000;1.497600
6895.000000;1.497220
6894.000000;1.496782
6893.000000;1.496430
6892.000000;1.496414
6891.000000;1.496665
6890.000000;1.496736
6889.000000;1.496253
6888.000000;1.495294
6887.000000;1.494216
6886.000000;1.493165
6885.000000;1.491971
6884.000000;1.490548
6883.000000;1.489229
6882.000000;1.488512
6881.000000;1.488490
6880.000000;1.488652
6879.000000;1.488328
6878.000000;1.487296
6877.000000;1.485896
6876.000000;1.484599
6875.000000;1.483607
6874.000000;1.482880
6873.000000;1.482328
6872.000000;1.481785
6871.000000;1.480963
6870.000000;1.479725
6869.000000;1.478429
6868.000000;1.477717
6867.000000;1.477830
6866.000000;1.478293
6865.000000;1.478399
6864.000000;1.477907
6863.000000;1.477128
6862.000000;1.476394
6861.000000;1.475640
6860.000000;1.474511
6859.000000;1.472800
6858.000000;1.470739
6857.000000;1.468873
6856.000000;1.467591
6855.000000;1.466757
6854.000000;1.465898
6853.000000;1.464766
6852.000000;1.463567
6851.000000;1.462561
6850.000000;1.461624
6849.000000;1.460397
6848.000000;1.458814
6847.000000;1.457223
6846.000000;1.455980
6845.000000;1.455121
6844.000000;1.454438
6843.000000;1.453624
6842.000000;1.452264
6841.000000;1.450075
6840.000000;1.447378
6839.000000;1.445056
6838.000000;1.443729
6837.000000;1.443042
6836.000000;1.441992
6835.000000;1.439998
6834.000000;1.437423
6833.000000;1.435046
6832.000000;1.433324
6831.000000;1.432237
6830.000000;1.431481
6829.000000;1.430575
6828.000000;1.429050
6827.000000;1.426824
6826.000000;1.424303
6825.000000;1.421897
6824.000000;1.419615
6823.000000;1.417314
6822.000000;1.415158
6821.000000;1.413449
6820.000000;1.412111
6819.000000;1.410745
6818.000000;1.409197
6817.000000;1.407691
6816.000000;1.406272
6815.000000;1.404544
6814.000000;1.402163
6813.000000;1.399301
6812.000000;1.396340
6811.000000;1.393346
6810.000000;1.390135
6809.000000;1.386715
6808.000000;1.383408
6807.000000;1.380556
6806.000000;1.378277
6805.000000;1.376422
6804.000000;1.374615
6803.000000;1.372426
6802.000000;1.369714
6801.000000;1.366766
6800.000000;1.363982
6799.000000;1.361493
6798.000000;1.359177
6797.000000;1.356903
6796.000000;1.354554
6795.000000;1.351925
6794.000000;1.348858
6793.000000;1.345490
6792.000000;1.342171
6791.000000;1.339120
6790.000000;1.336316
6789.000000;1.333748
6788.000000;1.331563
6787.000000;1.329841
6786.000000;1.328340
6785.000000;1.326586
6784.000000;1.324234
6783.000000;1.321321
6782.000000;1.318181
6781.000000;1.315139
6780.000000;1.312293
6779.000000;1.309567
6778.000000;1.306887
6777.000000;1.304199
6776.000000;1.301390
6775.000000;1.298381
6774.000000;1.295337
6773.000000;1.292575
6772.000000;1.290140
6771.000000;1.287659
6770.000000;1.284794
6769.000000;1.281710
6768.000000;1.278868
6767.000000;1.276421
6766.000000;1.274072
6765.000000;1.271465
6764.000000;1.268506
6763.000000;1.265286
6762.000000;1.261971
6761.000000;1.258803
6760.000000;1.256020
6759.000000;1.253604
6758.000000;1.251236
6757.000000;1.248591
6756.000000;1.245645
6755.000000;1.242654
6754.000000;1.239887
6753.000000;1.237418
6752.000000;1.235102
6751.000000;1.232723
6750.000000;1.230175
6749.000000;1.227487
6748.000000;1.224670
6747.000000;1.221673
6746.000000;1.218569
6745.000000;1.215614
6744.000000;1.212951
6743.000000;1.210332
6742.000000;1.207380
6741.000000;1.204104
6740.000000;1.200896
6739.000000;1.198047
6738.000000;1.195491
6737.000000;1.193074
6736.000000;1.190798
6735.000000;1.188653
6734.000000;1.186429
6733.000000;1.183894
6732.000000;1.181078
6731.000000;1.178190
6730.000000;1.175337
6729.000000;1.172489
6728.000000;1.169642
6727.000000;1.166855
6726.000000;1.164125
6725.000000;1.161356
6724.000000;1.158468
6723.000000;1.155481
6722.000000;1.152453
6721.000000;1.149430
6720.000000;1.146456
6719.000000;1.143583
6718.000000;1.140809
6717.000000;1.138056
6716.000000;1.135234
6715.000000;1.132365
6714.000000;1.129622
6713.000000;1.127192
6712.000000;1.125029
6711.000000;1.122866
6710.000000;1.120467
6709.000000;1.117833
6708.000000;1.115138
6707.000000;1.112457
6706.000000;1.109691
6705.000000;1.106785
6704.000000;1.103895
6703.000000;1.101258
6702.000000;1.098574
6701.000000;1.095777
6700.000000;1.092869
6699.000000;1.090033
6698.000000;1.087425
6697.000000;1.085026
6696.000000;1.082700
6695.000000;1.080329
6694.000000;1.077885
6693.000000;1.075409
6692.000000;1.072932
6691.000000;1.070435
6690.000000;1.067895
6689.000000;1.065360
6688.000000;1.062913
6687.000000;1.060519
6686.000000;1.058007
6685.000000;1.055267
6684.000000;1.052413
6683.000000;1.049667
6682.000000;1.047112
6681.000000;1.044627
6680.000000;1.042087
6679.000000;1.039535
6678.000000;1.037139
6677.000000;1.034997
6676.000000;1.033027
6675.000000;1.031006
6674.000000;1.028737
6673.000000;1.026204
6672.000000;1.023556
6671.000000;1.020927
6670.000000;1.018285
6669.000000;1.015504
6668.000000;1.012582
6667.000000;1.009723
6666.000000;1.007167
6665.000000;1.004968
6664.000000;1.002982
6663.000000;1.001017
6662.000000;0.998969
6661.000000;0.996800
6660.000000;0.994480
6659.000000;0.991990
6658.000000;0.989365
6657.000000;0.986706
6656.000000;0.984109
6655.000000;0.981618
6654.000000;0.979216
6653.000000;0.976856
6652.000000;0.974510
6651.000000;0.972191
6650.000000;0.969947
6649.000000;0.967800
6648.000000;0.965701
6647.000000;0.963559
6646.000000;0.961332
6645.000000;0.959049
6644.000000;0.956751
6643.000000;0.954441
6642.000000;0.952115
6641.000000;0.949805
6640.000000;0.947549
6639.000000;0.945323
6638.000000;0.943060
6637.000000;0.940730
6636.000000;0.938385
6635.000000;0.936112
6634.000000;0.933959
6633.000000;0.931897
6632.000000;0.929859
6631.000000;0.927796
6630.000000;0.925695
6629.000000;0.923541
6628.000000;0.921288
6627.000000;0.918915
6626.000000;0.916518
6625.000000;0.914271
6624.000000;0.912262
6623.000000;0.910394
6622.000000;0.908487
6621.000000;0.906454
6620.000000;0.904345
6619.000000;0.902235
6618.000000;0.900130
6617.000000;0.897997
6616.000000;0.895828
6615.000000;0.893661
6614.000000;0.891547
6613.000000;0.889514
6612.000000;0.887540
6611.000000;0.885562
6610.000000;0.883514
6609.000000;0.881375
6608.000000;0.879180
6607.000000;0.877003
6606.000000;0.874916
6605.000000;0.872942
6604.000000;0.871034
6603.000000;0.869137
6602.000000;0.867251
6601.000000;0.865406
6600.000000;0.863558
6599.000000;0.861590
6598.000000;0.859466
6597.000000;0.857305
6596.000000;0.855266
6595.000000;0.853372
6594.000000;0.851521
6593.000000;0.849635
6592.000000;0.847726
6591.000000;0.845830
6590.000000;0.843954
6589.000000;0.842082
6588.000000;0.840212
6587.000000;0.838359
6586.000000;0.836553
6585.000000;0.834810
6584.000000;0.833065
6583.000000;0.831194
6582.000000;0.829146
6581.000000;0.827031
6580.000000;0.824992
6579.000000;0.823048
6578.000000;0.821130
6577.000000;0.819255
6576.000000;0.817523
6575.000000;0.815947
6574.000000;0.814388
6573.000000;0.812712
6572.000000;0.810934
6571.000000;0.809147
6570.000000;0.807394
6569.000000;0.805666
6568.000000;0.803957
6567.000000;0.802258
6566.000000;0.800537
6565.000000;0.798767
6564.000000;0.796964
6563.000000;0.795144
6562.000000;0.793298
6561.000000;0.791448
6560.000000;0.789688
6559.000000;0.788093
6558.000000;0.786609
6557.000000;0.785103
6556.000000;0.783500
6555.000000;0.781833
6554.000000;0.780159
6553.000000;0.778498
6552.000000;0.776850
6551.000000;0.775218
6550.000000;0.773582
6549.000000;0.771876
6548.000000;0.770046
6547.000000;0.768121
6546.000000;0.766211
6545.000000;0.764420
6544.000000;0.762773
6543.000000;0.761217
6542.000000;0.759705
6541.000000;0.758241
6540.000000;0.756836
6539.000000;0.755434
6538.000000;0.753925
6537.000000;0.752253
6536.000000;0.750476
6535.000000;0.748723
6534.000000;0.747087
6533.000000;0.745572
6532.000000;0.744114
6531.000000;0.742620
6530.000000;0.741028
6529.000000;0.739361
6528.000000;0.737722
6527.000000;0.736218
6526.000000;0.734877
6525.000000;0.733622
6524.000000;0.732326
6523.000000;0.730898
6522.000000;0.729340
6521.000000;0.727734
6520.000000;0.726163
6519.000000;0.724652
6518.000000;0.723192
6517.000000;0.721783
6516.000000;0.720406
6515.000000;0.718978
6514.000000;0.717408
6513.000000;0.715735
6512.000000;0.714131
6511.000000;0.712729
6510.000000;0.711482
6509.000000;0.710240
6508.000000;0.708927
6507.000000;0.707561
6506.000000;0.706156
6505.000000;0.704692
6504.000000;0.703192
6503.000000;0.701743
6502.000000;0.700391
6501.000000;0.699074
6500.000000;0.697698
6499.000000;0.696260
6498.000000;0.694832
6497.000000;0.693463
6496.000000;0.692137
6495.000000;0.690821
6494.000000;0.689516
6493.000000;0.688243
6492.000000;0.687016
6491.000000;0.685824
6490.000000;0.684633
6489.000000;0.683394
6488.000000;0.682086
6487.000000;0.680742
6486.000000;0.679421
6485.000000;0.678139
6484.000000;0.676856
6483.000000;0.675531
6482.000000;0.674177
6481.000000;0.672846
6480.000000;0.671572
6479.000000;0.670355
6478.000000;0.669175
6477.000000;0.668002
6476.000000;0.666795
6475.000000;0.665531
6474.000000;0.664225
6473.000000;0.662913
6472.000000;0.661623
6471.000000;0.660371
6470.000000;0.659171
6469.000000;0.658016
6468.000000;0.656861
6467.000000;0.655659
6466.000000;0.654422
6465.000000;0.653204
6464.000000;0.652022
6463.000000;0.650839
6462.000000;0.649639
6461.000000;0.648459
6460.000000;0.647323
6459.000000;0.646192
6458.000000;0.645025
6457.000000;0.643846
6456.000000;0.642714
6455.000000;0.641631
6454.000000;0.640545
6453.000000;0.639424
6452.000000;0.638279
6451.000000;0.637130
6450.000000;0.635978
6449.000000;0.634827
6448.000000;0.633688
6447.000000;0.632567
6446.000000;0.631461
6445.000000;0.630372
6444.000000;0.629289
6443.000000;0.628182
6442.000000;0.627037
6441.000000;0.625896
6440.000000;0.624810
6439.000000;0.623775
6438.000000;0.622747
6437.000000;0.621717
6436.000000;0.620720
6435.000000;0.619752
6434.000000;0.618752
6433.000000;0.617680
6432.000000;0.616569
6431.000000;0.615476
6430.000000;0.614407
6429.000000;0.613334
6428.000000;0.612245
6427.000000;0.611152
6426.000000;0.610064
6425.000000;0.608988
6424.000000;0.607949
6423.000000;0.606975
6422.000000;0.606058
6421.000000;0.605151
6420.000000;0.604209
6419.000000;0.603223
6418.000000;0.602219
6417.000000;0.601236
6416.000000;0.600287
6415.000000;0.599358
6414.000000;0.598429
6413.000000;0.597500
6412.000000;0.596568
6411.000000;0.595613
6410.000000;0.594619
6409.000000;0.593610
6408.000000;0.592639
6407.000000;0.591725
6406.000000;0.590837
6405.000000;0.589942
6404.000000;0.589036
6403.000000;0.588129
6402.000000;0.587225
6401.000000;0.586328
6400.000000;0.585446
6399.000000;0.584567
6398.000000;0.583655
6397.000000;0.582699
6396.000000;0.581735
6395.000000;0.580805
6394.000000;0.579914
6393.000000;0.579042
6392.000000;0.578184
6391.000000;0.577338
6390.000000;0.576489
6389.000000;0.575619
6388.000000;0.574736
6387.000000;0.573862
6386.000000;0.572994
6385.000000;0.572107
6384.000000;0.571193
6383.000000;0.570278
6382.000000;0.569410
6381.000000;0.568622
6380.000000;0.567909
6379.000000;0.567218
6378.000000;0.566473
6377.000000;0.565640
6376.000000;0.564750
6375.000000;0.563863
6374.000000;0.563012
6373.000000;0.562187
6372.000000;0.561358
6371.000000;0.560510
6370.000000;0.559650
6369.000000;0.558815
6368.000000;0.558036
6367.000000;0.557299
6366.000000;0.556546
6365.000000;0.555741
6364.000000;0.554914
6363.000000;0.554115
6362.000000;0.553350
6361.000000;0.552586
6360.000000;0.551815
6359.000000;0.551065
6358.000000;0.550345
6357.000000;0.549618
6356.000000;0.548850
6355.000000;0.548062
6354.000000;0.547306
6353.000000;0.546591
6352.000000;0.545866
6351.000000;0.545081
6350.000000;0.544253
6349.000000;0.543461
6348.000000;0.542763
6347.000000;0.542143
6346.000000;0.541522
6345.000000;0.540839
6344.000000;0.540106
6343.000000;0.539385
6342.000000;0.538715
6341.000000;0.538072
6340.000000;0.537404
6339.000000;0.536681
6338.000000;0.535924
6337.000000;0.535176
6336.000000;0.534465
6335.000000;0.533792
6334.000000;0.533141
6333.000000;0.532486
6332.000000;0.531802
6331.000000;0.531079
6330.000000;0.530338
6329.000000;0.529623
6328.000000;0.528962
6327.000000;0.528345
6326.000000;0.527741
6325.000000;0.527129
6324.000000;0.526503
6323.000000;0.525863
6322.000000;0.525218
6321.000000;0.524581
6320.000000;0.523957
6319.000000;0.523335
6318.000000;0.522704
6317.000000;0.522060
6316.000000;0.521407
6315.000000;0.520744
6314.000000;0.520081
6313.000000;0.519442
6312.000000;0.518835
6311.000000;0.518233
6310.000000;0.517613
6309.000000;0.516993
6308.000000;0.516415
6307.000000;0.515871
6306.000000;0.515304
6305.000000;0.514674
6304.000000;0.514001
6303.000000;0.513342
6302.000000;0.512735
6301.000000;0.512187
6300.000000;0.511686
6299.000000;0.511204
6298.000000;0.510710
6297.000000;0.510188
6296.000000;0.509647
6295.000000;0.509093
6294.000000;0.508507
6293.000000;0.507872
6292.000000;0.507192
6291.000000;0.506503
6290.000000;0.505853
6289.000000;0.505286
6288.000000;0.504816
6287.000000;0.504398
6286.000000;0.503950
6285.000000;0.503422
6284.000000;0.502829
6283.000000;0.502213
6282.000000;0.501597
6281.000000;0.500997
6280.000000;0.500448
6279.000000;0.499982
6278.000000;0.499573
6277.000000;0.499144
6276.000000;0.498634
6275.000000;0.498053
6274.000000;0.497462
6273.000000;0.496909
6272.000000;0.496390
6271.000000;0.495862
6270.000000;0.495303
6269.000000;0.494740
6268.000000;0.494219
6267.000000;0.493750
6266.000000;0.493288
6265.000000;0.492785
6264.000000;0.492244
6263.000000;0.491707
6262.000000;0.491201
6261.000000;0.490707
6260.000000;0.490194
6259.000000;0.489653
6258.000000;0.489112
6257.000000;0.488607
6256.000000;0.488150
6255.000000;0.487724
6254.000000;0.487307
6253.000000;0.486892
6252.000000;0.486480
6251.000000;0.486065
6250.000000;0.485641
6249.000000;0.485214
6248.000000;0.484791
6247.000000;0.484355
6246.000000;0.483878
6245.000000;0.483367
6244.000000;0.482858
6243.000000;0.482366
6242.000000;0.481866
6241.000000;0.481337
6240.000000;0.480808
6239.000000;0.480329
6238.000000;0.479910
6237.000000;0.479518
6236.000000;0.479117
6235.000000;0.478699
6234.000000;0.478273
6233.000000;0.477844
6232.000000;0.477409
6231.000000;0.476966
6230.000000;0.476523
6229.000000;0.476096
6228.000000;0.475691
6227.000000;0.475286
6226.000000;0.474847
6225.000000;0.474371
6224.000000;0.473902
6223.000000;0.473478
6222.000000;0.473085
6221.000000;0.472689
6220.000000;0.472285
6219.000000;0.471899
6218.000000;0.471535
6217.000000;0.471155
6216.000000;0.470725
6215.000000;0.470258
6214.000000;0.469798
6213.000000;0.469370
6212.000000;0.468969
6211.000000;0.468580
6210.000000;0.468193
6209.000000;0.467806
6208.000000;0.467408
6207.000000;0.466994
6206.000000;0.466573
6205.000000;0.466171
6204.000000;0.465805
6203.000000;0.465464
6202.000000;0.465120
6201.000000;0.464762
6200.000000;0.464393
6199.000000;0.464022
6198.000000;0.463651
6197.000000;0.463291
6196.000000;0.462949
6195.000000;0.462613
6194.000000;0.462255
6193.000000;0.461866
6192.000000;0.461472
6191.000000;0.461098
6190.000000;0.460735
6189.000000;0.460360
6188.000000;0.459974
6187.000000;0.459599
6186.000000;0.459243
6185.000000;0.458876
6184.000000;0.458468
6183.000000;0.458038
6182.000000;0.457641
6181.000000;0.457321
6180.000000;0.457059
6179.000000;0.456794
6178.000000;0.456480
6177.000000;0.456132
6176.000000;0.455790
6175.000000;0.455466
6174.000000;0.455131
6173.000000;0.454762
6172.000000;0.454373
6171.000000;0.453998
6170.000000;0.453652
6169.000000;0.453324
6168.000000;0.452998
6167.000000;0.452663
6166.000000;0.452316
6165.000000;0.451967
6164.000000;0.451630
6163.000000;0.451311
6162.000000;0.451000
6161.000000;0.450687
6160.000000;0.450374
6159.000000;0.450072
6158.000000;0.449779
6157.000000;0.449478
6156.000000;0.449150
6155.000000;0.448791
6154.000000;0.448419
6153.000000;0.448057
6152.000000;0.447726
6151.000000;0.447433
6150.000000;0.447175
6149.000000;0.446936
6148.000000;0.446688
6147.000000;0.446405
6146.000000;0.446081
6145.000000;0.445749
6144.000000;0.445444
6143.000000;0.445168
6142.000000;0.444889
6141.000000;0.444584
6140.000000;0.444261
6139.000000;0.443945
6138.000000;0.443649
6137.000000;0.443374
6136.000000;0.443114
6135.000000;0.442848
6134.000000;0.442552
6133.000000;0.442223
6132.000000;0.441884
6131.000000;0.441570
6130.000000;0.441296
6129.000000;0.441051
6128.000000;0.440812
6127.000000;0.440547
6126.000000;0.440235
6125.000000;0.439887
6124.000000;0.439545
6123.000000;0.439253
6122.000000;0.439019
6121.000000;0.438825
6120.000000;0.438645
6119.000000;0.438455
6118.000000;0.438243
6117.000000;0.438006
6116.000000;0.437757
6115.000000;0.437512
6114.000000;0.437274
6113.000000;0.437037
6112.000000;0.436783
6111.000000;0.436496
6110.000000;0.436174
6109.000000;0.435841
6108.000000;0.435529
6107.000000;0.435246
6106.000000;0.434985
6105.000000;0.434742
6104.000000;0.434519
6103.000000;0.434305
6102.000000;0.434077
6101.000000;0.433825
6100.000000;0.433562
6099.000000;0.433292
6098.000000;0.433009
6097.000000;0.432716
6096.000000;0.432438
6095.000000;0.432193
6094.000000;0.431972
6093.000000;0.431767
6092.000000;0.431578
6091.000000;0.431398
6090.000000;0.431201
6089.000000;0.430969
6088.000000;0.430720
6087.000000;0.430483
6086.000000;0.430260
6085.000000;0.430033
6084.000000;0.429797
6083.000000;0.429568
6082.000000;0.429353
6081.000000;0.429140
6080.000000;0.428921
6079.000000;0.428706
6078.000000;0.428514
6077.000000;0.428348
6076.000000;0.428187
6075.000000;0.428006
6074.000000;0.427798
6073.000000;0.427583
6072.000000;0.427380
6071.000000;0.427179
6070.000000;0.426963
6069.000000;0.426736
6068.000000;0.426520
6067.000000;0.426319
6066.000000;0.426109
6065.000000;0.425883
6064.000000;0.425656
6063.000000;0.425446
6062.000000;0.425245
6061.000000;0.425052
6060.000000;0.424885
6059.000000;0.424755
6058.000000;0.424635
6057.000000;0.424486
6056.000000;0.424295
6055.000000;0.424081
6054.000000;0.423865
6053.000000;0.423655
6052.000000;0.423444
6051.000000;0.423216
6050.000000;0.422964
6049.000000;0.422715
6048.000000;0.422514
6047.000000;0.422371
6046.000000;0.422248
6045.000000;0.422105
6044.000000;0.421948
6043.000000;0.421792
6042.000000;0.421625
6041.000000;0.421431
6040.000000;0.421225
6039.000000;0.421050
6038.000000;0.420913
6037.000000;0.420792
6036.000000;0.420665
6035.000000;0.420535
6034.000000;0.420401
6033.000000;0.420258
6032.000000;0.420122
6031.000000;0.420022
6030.000000;0.419957
6029.000000;0.419882
6028.000000;0.419753
6027.000000;0.419570
6026.000000;0.419369
6025.000000;0.419186
6024.000000;0.419031
6023.000000;0.418884
6022.000000;0.418709
6021.000000;0.418491
6020.000000;0.418248
6019.000000;0.418025
6018.000000;0.417860
6017.000000;0.417759
6016.000000;0.417705
6015.000000;0.417659
6014.000000;0.417588
6013.000000;0.417483
6012.000000;0.417362
6011.000000;0.417241
6010.000000;0.417119
6009.000000;0.416994
6008.000000;0.416869
6007.000000;0.416744
6006.000000;0.416608
6005.000000;0.416458
6004.000000;0.416318
6003.000000;0.416209
6002.000000;0.416122
6001.000000;0.416029
6000.000000;0.415929
5999.000000;0.415843
5998.000000;0.415774
5997.000000;0.415706
5996.000000;0.415627
5995.000000;0.415548
5994.000000;0.415477
5993.000000;0.415406
5992.000000;0.415326
5991.000000;0.415239
5990.000000;0.415141
5989.000000;0.415015
5988.000000;0.414856
5987.000000;0.414690
5986.000000;0.414557
5985.000000;0.414477
5984.000000;0.414430
5983.000000;0.414383
5982.000000;0.414310
5981.000000;0.414213
5980.000000;0.414106
5979.000000;0.414005
5978.000000;0.413922
5977.000000;0.413867
5976.000000;0.413845
5975.000000;0.413845
5974.000000;0.413847
5973.000000;0.413833
5972.000000;0.413799
5971.000000;0.413751
5970.000000;0.413695
5969.000000;0.413641
5968.000000;0.413595
5967.000000;0.413554
5966.000000;0.413504
5965.000000;0.413435
5964.000000;0.413350
5963.000000;0.413262
5962.000000;0.413190
5961.000000;0.413156
5960.000000;0.413165
5959.000000;0.413192
5958.000000;0.413199
5957.000000;0.413181
5956.000000;0.413166
5955.000000;0.413165
5954.000000;0.413145
5953.000000;0.413070
5952.000000;0.412950
5951.000000;0.412835
5950.000000;0.412763
5949.000000;0.412743
5948.000000;0.412766
5947.000000;0.412814
5946.000000;0.412856
5945.000000;0.412869
5944.000000;0.412851
5943.000000;0.412817
5942.000000;0.412778
5941.000000;0.412743
5940.000000;0.412733
5939.000000;0.412763
5938.000000;0.412816
5937.000000;0.412858
5936.000000;0.412874
5935.000000;0.412882
5934.000000;0.412899
5933.000000;0.412912
5932.000000;0.412903
5931.000000;0.412874
5930.000000;0.412857
5929.000000;0.412882
5928.000000;0.412944
5927.000000;0.413005
5926.000000;0.413033
5925.000000;0.413030
5924.000000;0.413018
5923.000000;0.413011
5922.000000;0.413007
5921.000000;0.413012
5920.000000;0.413040
5919.000000;0.413089
5918.000000;0.413142
5917.000000;0.413187
5916.000000;0.413229
5915.000000;0.413269
5914.000000;0.413299
5913.000000;0.413323
5912.000000;0.413357
5911.000000;0.413403
5910.000000;0.413433
5909.000000;0.413438
5908.000000;0.413442
5907.000000;0.413468
5906.000000;0.413504
5905.000000;0.413528
5904.000000;0.413542
5903.000000;0.413561
5902.000000;0.413583
5901.000000;0.413600
5900.000000;0.413626
5899.000000;0.413670
5898.000000;0.413710
5897.000000;0.413722
5896.000000;0.413729
5895.000000;0.413775
5894.000000;0.413863
5893.000000;0.413949
5892.000000;0.413994
5891.000000;0.414006
5890.000000;0.414018
5889.000000;0.414057
5888.000000;0.414135
5887.000000;0.414236
5886.000000;0.414337
5885.000000;0.414428
5884.000000;0.414530
5883.000000;0.414657
5882.000000;0.414784
5881.000000;0.414874
5880.000000;0.414925
5879.000000;0.414964
5878.000000;0.415003
5877.000000;0.415042
5876.000000;0.415092
5875.000000;0.415173
5874.000000;0.415287
5873.000000;0.415408
5872.000000;0.415532
5871.000000;0.415672
5870.000000;0.415837
5869.000000;0.416008
5868.000000;0.416161
5867.000000;0.416290
5866.000000;0.416396
5865.000000;0.416486
5864.000000;0.416577
5863.000000;0.416694
5862.000000;0.416849
5861.000000;0.417030
5860.000000;0.417217
5859.000000;0.417391
5858.000000;0.417537
5857.000000;0.417662
5856.000000;0.417793
5855.000000;0.417952
5854.000000;0.418130
5853.000000;0.418307
5852.000000;0.418484
5851.000000;0.418677
5850.000000;0.418880
5849.000000;0.419065
5848.000000;0.419218
5847.000000;0.419347
5846.000000;0.419470
5845.000000;0.419595
5844.000000;0.419741
5843.000000;0.419924
5842.000000;0.420138
5841.000000;0.420357
5840.000000;0.420566
5839.000000;0.420769
5838.000000;0.420975
5837.000000;0.421186
5836.000000;0.421409
5835.000000;0.421653
5834.000000;0.421911
5833.000000;0.422158
5832.000000;0.422388
5831.000000;0.422614
5830.000000;0.422851
5829.000000;0.423094
5828.000000;0.423336
5827.000000;0.423577
5826.000000;0.423815
5825.000000;0.424042
5824.000000;0.424262
5823.000000;0.424495
5822.000000;0.424758
5821.000000;0.425047
5820.000000;0.425342
5819.000000;0.425623
5818.000000;0.425880
5817.000000;0.426110
5816.000000;0.426328
5815.000000;0.426552
5814.000000;0.426794
5813.000000;0.427057
5812.000000;0.427350
5811.000000;0.427672
5810.000000;0.428005
5809.000000;0.428329
5808.000000;0.428641
5807.000000;0.428956
5806.000000;0.429272
5805.000000;0.429565
5804.000000;0.429823
5803.000000;0.430067
5802.000000;0.430331
5801.000000;0.430644
5800.000000;0.431004
5799.000000;0.431380
5798.000000;0.431725
5797.000000;0.432016
5796.000000;0.432279
5795.000000;0.432565
5794.000000;0.432898
5793.000000;0.433262
5792.000000;0.433634
5791.000000;0.434008
5790.000000;0.434386
5789.000000;0.434769
5788.000000;0.435154
5787.000000;0.435530
5786.000000;0.435884
5785.000000;0.436212
5784.000000;0.436537
5783.000000;0.436879
5782.000000;0.437239
5781.000000;0.437607
5780.000000;0.437990
5779.000000;0.438408
5778.000000;0.438861
5777.000000;0.439323
5776.000000;0.439771
5775.000000;0.440206
5774.000000;0.440636
5773.000000;0.441065
5772.000000;0.441490
5771.000000;0.441911
5770.000000;0.442331
5769.000000;0.442749
5768.000000;0.443164
5767.000000;0.443567
5766.000000;0.443955
5765.000000;0.444351
5764.000000;0.444793
5763.000000;0.445299
5762.000000;0.445849
5761.000000;0.446404
5760.000000;0.446931
5759.000000;0.447407
5758.000000;0.447824
5757.000000;0.448205
5756.000000;0.448607
5755.000000;0.449073
5754.000000;0.449594
5753.000000;0.450134
5752.000000;0.450675
5751.000000;0.451217
5750.000000;0.451746
5749.000000;0.452246
5748.000000;0.452722
5747.000000;0.453196
5746.000000;0.453686
5745.000000;0.454198
5744.000000;0.454741
5743.000000;0.455308
5742.000000;0.455870
5741.000000;0.456403
5740.000000;0.456923
5739.000000;0.457462
5738.000000;0.458026
5737.000000;0.458595
5736.000000;0.459164
5735.000000;0.459742
5734.000000;0.460325
5733.000000;0.460893
5732.000000;0.461448
5731.000000;0.462015
5730.000000;0.462613
5729.000000;0.463240
5728.000000;0.463889
5727.000000;0.464553
5726.000000;0.465214
5725.000000;0.465851
5724.000000;0.466466
5723.000000;0.467075
5722.000000;0.467680
5721.000000;0.468270
5720.000000;0.468847
5719.000000;0.469432
5718.000000;0.470047
5717.000000;0.470700
5716.000000;0.471390
5715.000000;0.472096
5714.000000;0.472772
5713.000000;0.473395
5712.000000;0.474005
5711.000000;0.474655
5710.000000;0.475342
5709.000000;0.476014
5708.000000;0.476652
5707.000000;0.477299
5706.000000;0.477998
5705.000000;0.478745
5704.000000;0.479502
5703.000000;0.480242
5702.000000;0.480962
5701.000000;0.481668
5700.000000;0.482373
5699.000000;0.483078
5698.000000;0.483735
5697.000000;0.484387
5696.000000;0.485040
5695.000000;0.485736
5694.000000;0.486486
5693.000000;0.487265
5692.000000;0.488044
5691.000000;0.488805
5690.000000;0.489534
5689.000000;0.490235
5688.000000;0.490940
5687.000000;0.491682
5686.000000;0.492457
5685.000000;0.493229
5684.000000;0.493983
5683.000000;0.494725
5682.000000;0.495448
5681.000000;0.496125
5680.000000;0.496756
5679.000000;0.497383
5678.000000;0.498041
5677.000000;0.498731
5676.000000;0.499441
5675.000000;0.500173
5674.000000;0.500928
5673.000000;0.501682
5672.000000;0.502421
5671.000000;0.503159
5670.000000;0.503916
5669.000000;0.504681
5668.000000;0.505412
5667.000000;0.506078
5666.000000;0.506688
5665.000000;0.507295
5664.000000;0.507957
5663.000000;0.508682
5662.000000;0.509420
5661.000000;0.510117
5660.000000;0.510771
5659.000000;0.511414
5658.000000;0.512066
5657.000000;0.512717
5656.000000;0.513369
5655.000000;0.514040
5654.000000;0.514740
5653.000000;0.515448
5652.000000;0.516130
5651.000000;0.516768
5650.000000;0.517364
5649.000000;0.517947
5648.000000;0.518558
5647.000000;0.519212
5646.000000;0.519882
5645.000000;0.520522
5644.000000;0.521115
5643.000000;0.521678
5642.000000;0.522243
5641.000000;0.522834
5640.000000;0.523452
5639.000000;0.524071
5638.000000;0.524648
5637.000000;0.525175
5636.000000;0.525694
5635.000000;0.526248
5634.000000;0.526822
5633.000000;0.527372
5632.000000;0.527888
5631.000000;0.528390
5630.000000;0.528886
5629.000000;0.529372
5628.000000;0.529852
5627.000000;0.530339
5626.000000;0.530821
5625.000000;0.531284
5624.000000;0.531735
5623.000000;0.532186
5622.000000;0.532634
5621.000000;0.533075
5620.000000;0.533536
5619.000000;0.534031
5618.000000;0.534513
5617.000000;0.534913
5616.000000;0.535237
5615.000000;0.535554
5614.000000;0.535912
5613.000000;0.536295
5612.000000;0.536676
5611.000000;0.537049
5610.000000;0.537407
5609.000000;0.537726
5608.000000;0.537994
5607.000000;0.538218
5606.000000;0.538418
5605.000000;0.538624
5604.000000;0.538873
5603.000000;0.539167
5602.000000;0.539457
5601.000000;0.539700
5600.000000;0.539923
5599.000000;0.540179
5598.000000;0.540464
5597.000000;0.540732
5596.000000;0.540966
5595.000000;0.541184
5594.000000;0.541374
5593.000000;0.541499
5592.000000;0.541560
5591.000000;0.541611
5590.000000;0.541685
5589.000000;0.541788
5588.000000;0.541938
5587.000000;0.542158
5586.000000;0.542410
5585.000000;0.542607
5584.000000;0.542709
5583.000000;0.542757
5582.000000;0.542810
5581.000000;0.542882
5580.000000;0.542968
5579.000000;0.543066
5578.000000;0.543160
5577.000000;0.543222
5576.000000;0.543263
5575.000000;0.543324
5574.000000;0.543412
5573.000000;0.543491
5572.000000;0.543540
5571.000000;0.543573
5570.000000;0.543601
5569.000000;0.543608
5568.000000;0.543596
5567.000000;0.543593
5566.000000;0.543590
5565.000000;0.543557
5564.000000;0.543502
5563.000000;0.543478
5562.000000;0.543494
5561.000000;0.543496
5560.000000;0.543451
5559.000000;0.543397
5558.000000;0.543367
5557.000000;0.543325
5556.000000;0.543226
5555.000000;0.543102
5554.000000;0.543028
5553.000000;0.543027
5552.000000;0.543047
5551.000000;0.543028
5550.000000;0.542951
5549.000000;0.542834
5548.000000;0.542723
5547.000000;0.542650
5546.000000;0.542602
5545.000000;0.542543
5544.000000;0.542464
5543.000000;0.542388
5542.000000;0.542314
5541.000000;0.542202
5540.000000;0.542041
5539.000000;0.541885
5538.000000;0.541792
5537.000000;0.541746
5536.000000;0.541692
5535.000000;0.541613
5534.000000;0.541530
5533.000000;0.541440
5532.000000;0.541310
5531.000000;0.541129
5530.000000;0.540933
5529.000000;0.540775
5528.000000;0.540682
5527.000000;0.540630
5526.000000;0.540561
5525.000000;0.540459
5524.000000;0.540381
5523.000000;0.540379
5522.000000;0.540416
5521.000000;0.540388
5520.000000;0.540280
5519.000000;0.540200
5518.000000;0.540220
5517.000000;0.540270
5516.000000;0.540220
5515.000000;0.540057
5514.000000;0.539906
5513.000000;0.539868
5512.000000;0.539907
5511.000000;0.539936
5510.000000;0.539938
5509.000000;0.539942
5508.000000;0.539933
5507.000000;0.539847
5506.000000;0.539697
5505.000000;0.539626
5504.000000;0.539722
5503.000000;0.539871
5502.000000;0.539909
5501.000000;0.539823
5500.000000;0.539790
5499.000000;0.539931
5498.000000;0.540102
5497.000000;0.540114
5496.000000;0.540043
5495.000000;0.540138
5494.000000;0.540455
5493.000000;0.540732
5492.000000;0.540746
5491.000000;0.540640
5490.000000;0.540702
5489.000000;0.540944
5488.000000;0.541124
5487.000000;0.541115
5486.000000;0.541043
5485.000000;0.541068
5484.000000;0.541144
5483.000000;0.541140
5482.000000;0.541170
5481.000000;0.541424
5480.000000;0.541801
5479.000000;0.542036
5478.000000;0.542102
5477.000000;0.542275
5476.000000;0.542710
5475.000000;0.543124
5474.000000;0.543220
5473.000000;0.543199
5472.000000;0.543445
5471.000000;0.543934
5470.000000;0.544332
5469.000000;0.544507
5468.000000;0.544704
5467.000000;0.545148
5466.000000;0.545685
5465.000000;0.546079
5464.000000;0.546372
5463.000000;0.546721
5462.000000;0.547165
5461.000000;0.547636
5460.000000;0.548060
5459.000000;0.548439
5458.000000;0.548840
5457.000000;0.549335
5456.000000;0.549949
5455.000000;0.550565
5454.000000;0.551001
5453.000000;0.551348
5452.000000;0.551933
5451.000000;0.552837
5450.000000;0.553725
5449.000000;0.554297
5448.000000;0.554779
5447.000000;0.555642
5446.000000;0.556798
5445.000000;0.557685
5444.000000;0.558137
5443.000000;0.558594
5442.000000;0.559462
5441.000000;0.560618
5440.000000;0.561584
5439.000000;0.562175
5438.000000;0.562738
5437.000000;0.563628
5436.000000;0.564854
5435.000000;0.566163
5434.000000;0.567278
5433.000000;0.568213
5432.000000;0.569253
5431.000000;0.570565
5430.000000;0.572018
5429.000000;0.573343
5428.000000;0.574432
5427.000000;0.575458
5426.000000;0.576647
5425.000000;0.578027
5424.000000;0.579458
5423.000000;0.580778
5422.000000;0.581968
5421.000000;0.583301
5420.000000;0.585067
5419.000000;0.587120
5418.000000;0.589054
5417.000000;0.590807
5416.000000;0.592751
5415.000000;0.595094
5414.000000;0.597459
5413.000000;0.599418
5412.000000;0.601175
5411.000000;0.603222
5410.000000;0.605552
5409.000000;0.607722
5408.000000;0.609599
5407.000000;0.611527
5406.000000;0.613779
5405.000000;0.616202
5404.000000;0.618579
5403.000000;0.621057
5402.000000;0.623754
5401.000000;0.626523
5400.000000;0.629372
5399.000000;0.632455
5398.000000;0.635733
5397.000000;0.638980
5396.000000;0.642173
5395.000000;0.645623
5394.000000;0.649410
5393.000000;0.653171
5392.000000;0.656715
5391.000000;0.660342
5390.000000;0.664310
5389.000000;0.668419
5388.000000;0.672407
5387.000000;0.676440
5386.000000;0.680823
5385.000000;0.685398
5384.000000;0.689889
5383.000000;0.694563
5382.000000;0.699729
5381.000000;0.705099
5380.000000;0.710291
5379.000000;0.715498
5378.000000;0.721185
5377.000000;0.727257
5376.000000;0.733165
5375.000000;0.738877
5374.000000;0.744909
5373.000000;0.751421
5372.000000;0.758025
5371.000000;0.764539
5370.000000;0.771308
5369.000000;0.778581
5368.000000;0.786077
5367.000000;0.793568
5366.000000;0.801334
5365.000000;0.809615
5364.000000;0.818195
5363.000000;0.826846
5362.000000;0.835661
5361.000000;0.844837
5360.000000;0.854385
5359.000000;0.864209
5358.000000;0.874253
5357.000000;0.884436
5356.000000;0.894746
5355.000000;0.905511
5354.000000;0.917130
5353.000000;0.929355
5352.000000;0.941521
5351.000000;0.953677
5350.000000;0.966492
5349.000000;0.979991
5348.000000;0.993427
5347.000000;1.006573
5346.000000;1.020332
5345.000000;1.035473
5344.000000;1.051366
5343.000000;1.066913
5342.000000;1.082222
5341.000000;1.098151
5340.000000;1.114941
5339.000000;1.132281
5338.000000;1.150094
5337.000000;1.168482
5336.000000;1.187160
5335.000000;1.205870
5334.000000;1.225151
5333.000000;1.245673
5332.000000;1.267099
5331.000000;1.288656
5330.000000;1.310457
5329.000000;1.333280
5328.000000;1.357279
5327.000000;1.381765
5326.000000;1.406335
5325.000000;1.431251
5324.000000;1.456557
5323.000000;1.481971
5322.000000;1.507761
5321.000000;1.534589
5320.000000;1.562486
5319.000000;1.590918
5318.000000;1.619746
5317.000000;1.649205
5316.000000;1.679090
5315.000000;1.709104
5314.000000;1.739862
5313.000000;1.772122
5312.000000;1.805229
5311.000000;1.837918
5310.000000;1.870248
5309.000000;1.903028
5308.000000;1.935775
5307.000000;1.967354
5306.000000;1.998257
5305.000000;2.029672
5304.000000;2.060896
5303.000000;2.090644
5302.000000;2.120268
5301.000000;2.152156
5300.000000;2.185166
5299.000000;2.215338
5298.000000;2.241556
5297.000000;2.266705
5296.000000;2.292764
5295.000000;2.318884
5294.000000;2.344288
5293.000000;2.369128
5292.000000;2.392712
5291.000000;2.414236
5290.000000;2.434671
5289.000000;2.454564
5288.000000;2.471639
5287.000000;2.484790
5286.000000;2.497427
5285.000000;2.511920
5284.000000;2.523464
5283.000000;2.525688
5282.000000;2.520377
5281.000000;2.515326
5280.000000;2.516206
5279.000000;2.524623
5278.000000;2.539356
5277.000000;2.554894
5276.000000;2.562941
5275.000000;2.561162
5274.000000;2.556145
5273.000000;2.553638
5272.000000;2.552224
5271.000000;2.549916
5270.000000;2.550154
5269.000000;2.555628
5268.000000;2.561908
5267.000000;2.563676
5266.000000;2.562649
5265.000000;2.562469
5264.000000;2.561379
5263.000000;2.557099
5262.000000;2.553674
5261.000000;2.555485
5260.000000;2.559318
5259.000000;2.559526
5258.000000;2.557110
5257.000000;2.556178
5256.000000;2.555641
5255.000000;2.552101
5254.000000;2.547891
5253.000000;2.548328
5252.000000;2.553063
5251.000000;2.557780
5250.000000;2.562202
5249.000000;2.568916
5248.000000;2.575608
5247.000000;2.575919
5246.000000;2.569126
5245.000000;2.561654
5244.000000;2.558461
5243.000000;2.559296
5242.000000;2.562553
5241.000000;2.567734
5240.000000;2.573581
5239.000000;2.577502
5238.000000;2.577728
5237.000000;2.574124
5236.000000;2.567574
5235.000000;2.560276
5234.000000;2.554911
5233.000000;2.551790
5232.000000;2.548833
5231.000000;2.545878
5230.000000;2.545952
5229.000000;2.550014
5228.000000;2.553774
5227.000000;2.552536
5226.000000;2.546910
5225.000000;2.540583
5224.000000;2.535441
5223.000000;2.532254
5222.000000;2.531977
5221.000000;2.533477
5220.000000;2.533748
5219.000000;2.532039
5218.000000;2.530482
5217.000000;2.529280
5216.000000;2.525716
5215.000000;2.520250
5214.000000;2.518439
5213.000000;2.523653
5212.000000;2.531981
5211.000000;2.537408
5210.000000;2.539491
5209.000000;2.541918
5208.000000;2.545988
5207.000000;2.549895
5206.000000;2.552394
5205.000000;2.553597
5204.000000;2.554117
5203.000000;2.556047
5202.000000;2.561652
5201.000000;2.568676
5200.000000;2.570663
5199.000000;2.565279
5198.000000;2.558051
5197.000000;2.554499
5196.000000;2.553475
5195.000000;2.551316
5194.000000;2.548574
5193.000000;2.547890
5192.000000;2.548346
5191.000000;2.546869
5190.000000;2.543161
5189.000000;2.539035
5188.000000;2.535007
5187.000000;2.531592
5186.000000;2.531200
5185.000000;2.534750
5184.000000;2.538834
5183.000000;2.539993
5182.000000;2.539668
5181.000000;2.541169
5180.000000;2.544555
5179.000000;2.547812
5178.000000;2.550393
5177.000000;2.552506
5176.000000;2.552901
5175.000000;2.550430
5174.000000;2.546329
5173.000000;2.542494
5172.000000;2.539589
5171.000000;2.538677
5170.000000;2.541836
5169.000000;2.548935
5168.000000;2.556398
5167.000000;2.561619
5166.000000;2.565838
5165.000000;2.570181
5164.000000;2.572572
5163.000000;2.571426
5162.000000;2.568824
5161.000000;2.567084
5160.000000;2.566010
5159.000000;2.566073
5158.000000;2.570218
5157.000000;2.578874
5156.000000;2.586224
5155.000000;2.586420
5154.000000;2.580785
5153.000000;2.573646
5152.000000;2.566196
5151.000000;2.558875
5150.000000;2.554871
5149.000000;2.556690
5148.000000;2.561747
5147.000000;2.564819
5146.000000;2.563563
5145.000000;2.559191
5144.000000;2.554123
5143.000000;2.551276
5142.000000;2.552825
5141.000000;2.556941
5140.000000;2.558351
5139.000000;2.554748
5138.000000;2.549376
5137.000000;2.545516
5136.000000;2.542801
5135.000000;2.540507
5134.000000;2.540154
5133.000000;2.541823
5132.000000;2.541587
5131.000000;2.536482
5130.000000;2.529231
5129.000000;2.524400
5128.000000;2.523027
5127.000000;2.523699
5126.000000;2.525594
5125.000000;2.527741
5124.000000;2.528243
5123.000000;2.527301
5122.000000;2.528031
5121.000000;2.531561
5120.000000;2.534665
5119.000000;2.534894
5118.000000;2.534625
5117.000000;2.536942
5116.000000;2.540896
5115.000000;2.544489
5114.000000;2.548382
5113.000000;2.552506
5112.000000;2.553410
5111.000000;2.549650
5110.000000;2.546446
5109.000000;2.549381
5108.000000;2.556300
5107.000000;2.560365
5106.000000;2.559527
5105.000000;2.557523
5104.000000;2.556652
5103.000000;2.555510
5102.000000;2.553365
5101.000000;2.552080
5100.000000;2.553257
5099.000000;2.556449
5098.000000;2.559601
5097.000000;2.559433
5096.000000;2.553549
5095.000000;2.544234
5094.000000;2.537392
5093.000000;2.535645
5092.000000;2.535357
5091.000000;2.532876
5090.000000;2.530677
5089.000000;2.533290
5088.000000;2.540016
5087.000000;2.545812
5086.000000;2.548211
5085.000000;2.549230
5084.000000;2.550653
5083.000000;2.551961
5082.000000;2.552992
5081.000000;2.554612
5080.000000;2.556395
5079.000000;2.556802
5078.000000;2.555590
5077.000000;2.553515
5076.000000;2.550352
5075.000000;2.546023
5074.000000;2.542372
5073.000000;2.540912
5072.000000;2.540475
5071.000000;2.539022
5070.000000;2.536422
5069.000000;2.533614
5068.000000;2.530270
5067.000000;2.525773
5066.000000;2.521301
5065.000000;2.518595
5064.000000;2.517682
5063.000000;2.517569
5062.000000;2.518230
5061.000000;2.520370
5060.000000;2.524049
5059.000000;2.528690
5058.000000;2.533248
5057.000000;2.535289
5056.000000;2.532249
5055.000000;2.525613
5054.000000;2.520914
5053.000000;2.521964
5052.000000;2.527917
5051.000000;2.535320
5050.000000;2.540436
5049.000000;2.540329
5048.000000;2.534117
5047.000000;2.524559
5046.000000;2.516752
5045.000000;2.513258
5044.000000;2.511774
5043.000000;2.509186
5042.000000;2.506185
5041.000000;2.505251
5040.000000;2.506401
5039.000000;2.507737
5038.000000;2.507948
5037.000000;2.506217
5036.000000;2.501985
5035.000000;2.496738
5034.000000;2.493899
5033.000000;2.494867
5032.000000;2.496646
5031.000000;2.495203
5030.000000;2.490005
5029.000000;2.483503
5028.000000;2.477794
5027.000000;2.473741
5026.000000;2.471795
5025.000000;2.471317
5024.000000;2.470275
5023.000000;2.467548
5022.000000;2.463951
5021.000000;2.460080
5020.000000;2.455855
5019.000000;2.452917
5018.000000;2.454105
5017.000000;2.459095
5016.000000;2.462795
5015.000000;2.460284
5014.000000;2.452720
5013.000000;2.445308
5012.000000;2.440661
5011.000000;2.437188
5010.000000;2.432377
5009.000000;2.425154
5008.000000;2.416097
5007.000000;2.407576
5006.000000;2.402484
5005.000000;2.401334
5004.000000;2.401393
5003.000000;2.399310
5002.000000;2.394159
5001.000000;2.387302
5000.000000;2.381030
4999.000000;2.377807
4998.000000;2.379002
4997.000000;2.382883
4996.000000;2.385413
4995.000000;2.384130
4994.000000;2.379937
4993.000000;2.374585
4992.000000;2.368635
4991.000000;2.362580
4990.000000;2.357238
4989.000000;2.351829
4988.000000;2.344719
4987.000000;2.337283
4986.000000;2.333462
4985.000000;2.333991
4984.000000;2.334154
4983.000000;2.329608
4982.000000;2.321919
4981.000000;2.315356
4980.000000;2.311297
4979.000000;2.307988
4978.000000;2.303314
4977.000000;2.295798
4976.000000;2.284808
4975.000000;2.272338
4974.000000;2.263088
4973.000000;2.260372
4972.000000;2.262522
4971.000000;2.264459
4970.000000;2.262308
4969.000000;2.255659
4968.000000;2.246454
4967.000000;2.237631
4966.000000;2.231883
4965.000000;2.229544
4964.000000;2.227903
4963.000000;2.223888
4962.000000;2.216955
4961.000000;2.208322
4960.000000;2.198812
4959.000000;2.189157
4958.000000;2.181111
4957.000000;2.176088
4956.000000;2.173092
4955.000000;2.169533
4954.000000;2.164124
4953.000000;2.158009
4952.000000;2.153182
4951.000000;2.150655
4950.000000;2.149557
4949.000000;2.147189
4948.000000;2.140813
4947.000000;2.130521
4946.000000;2.119631
4945.000000;2.111424
4944.000000;2.106269
4943.000000;2.102216
4942.000000;2.097435
4941.000000;2.091448
4940.000000;2.084841
4939.000000;2.078798
4938.000000;2.074446
4937.000000;2.071852
4936.000000;2.069907
4935.000000;2.067503
4934.000000;2.064184
4933.000000;2.059441
4932.000000;2.052669
4931.000000;2.044471
4930.000000;2.036746
4929.000000;2.030588
4928.000000;2.025049
4927.000000;2.018698
4926.000000;2.011478
4925.000000;2.004096
4924.000000;1.996691
4923.000000;1.989281
4922.000000;1.982515
4921.000000;1.976815
4920.000000;1.971393
4919.000000;1.965170
4918.000000;1.958238
4917.000000;1.951526
4916.000000;1.945441
4915.000000;1.939732
4914.000000;1.934342
4913.000000;1.929353
4912.000000;1.924283
4911.000000;1.918355
4910.000000;1.911439
4909.000000;1.904216
4908.000000;1.897570
4907.000000;1.892124
4906.000000;1.888016
4905.000000;1.884667
4904.000000;1.881078
4903.000000;1.876730
4902.000000;1.871911
4901.000000;1.866921
4900.000000;1.861464
4899.000000;1.855200
4898.000000;1.848375
4897.000000;1.841483
4896.000000;1.834783
4895.000000;1.828478
4894.000000;1.822822
4893.000000;1.817601
4892.000000;1.812010
4891.000000;1.805549
4890.000000;1.798647
4889.000000;1.791975
4888.000000;1.785636
4887.000000;1.779462
4886.000000;1.773602
4885.000000;1.768280
4884.000000;1.763327
4883.000000;1.758432
4882.000000;1.753499
4881.000000;1.748398
4880.000000;1.742829
4879.000000;1.736928
4878.000000;1.731575
4877.000000;1.727462
4876.000000;1.724127
4875.000000;1.720409
4874.000000;1.715689
4873.000000;1.710220
4872.000000;1.704474
4871.000000;1.698698
4870.000000;1.693042
4869.000000;1.687687
4868.000000;1.682775
4867.000000;1.678391
4866.000000;1.674457
4865.000000;1.670473
4864.000000;1.665697
4863.000000;1.659860
4862.000000;1.653515
4861.000000;1.647425
4860.000000;1.641835
4859.000000;1.636519
4858.000000;1.631251
4857.000000;1.625933
4856.000000;1.620514
4855.000000;1.615084
4854.000000;1.609884
4853.000000;1.605012
4852.000000;1.600288
4851.000000;1.595556
4850.000000;1.590891
4849.000000;1.586389
4848.000000;1.581986
4847.000000;1.577622
4846.000000;1.573327
4845.000000;1.568978
4844.000000;1.564288
4843.000000;1.559205
4842.000000;1.554030
4841.000000;1.548990
4840.000000;1.544007
4839.000000;1.539039
4838.000000;1.534248
4837.000000;1.529606
4836.000000;1.524737
4835.000000;1.519439
4834.000000;1.514044
4833.000000;1.508930
4832.000000;1.504036
4831.000000;1.499147
4830.000000;1.494372
4829.000000;1.489955
4828.000000;1.485863
4827.000000;1.481871
4826.000000;1.477892
4825.000000;1.473908
4824.000000;1.469784
4823.000000;1.465439
4822.000000;1.461053
4821.000000;1.456842
4820.000000;1.452800
4819.000000;1.448836
4818.000000;1.444956
4817.000000;1.441074
4816.000000;1.436904
4815.000000;1.432342
4814.000000;1.427724
4813.000000;1.423417
4812.000000;1.419343
4811.000000;1.415223
4810.000000;1.411034
4809.000000;1.406923
4808.000000;1.402843
4807.000000;1.398650
4806.000000;1.394461
4805.000000;1.390503
4804.000000;1.386678
4803.000000;1.382625
4802.000000;1.378230
4801.000000;1.373787
4800.000000;1.369610
4799.000000;1.365720
4798.000000;1.361897
4797.000000;1.357878
4796.000000;1.353519
4795.000000;1.348923
4794.000000;1.344424
4793.000000;1.340312
4792.000000;1.336580
4791.000000;1.333016
4790.000000;1.329419
4789.000000;1.325642
4788.000000;1.321559
4787.000000;1.317208
4786.000000;1.312875
4785.000000;1.308852
4784.000000;1.305147
4783.000000;1.301562
4782.000000;1.297946
4781.000000;1.294243
4780.000000;1.290393
4779.000000;1.286408
4778.000000;1.282487
4777.000000;1.278842
4776.000000;1.275418
4775.000000;1.271953
4774.000000;1.268304
4773.000000;1.264587
4772.000000;1.260979
4771.000000;1.257510
4770.000000;1.254063
4769.000000;1.250494
4768.000000;1.246733
4767.000000;1.242843
4766.000000;1.238985
4765.000000;1.235291
4764.000000;1.231782
4763.000000;1.228414
4762.000000;1.225139
4761.000000;1.221898
4760.000000;1.218609
4759.000000;1.215226
4758.000000;1.211763
4757.000000;1.208266
4756.000000;1.204811
4755.000000;1.201516
4754.000000;1.198451
4753.000000;1.195541
4752.000000;1.192640
4751.000000;1.189686
4750.000000;1.186669
4749.000000;1.183487
4748.000000;1.180021
4747.000000;1.176354
4746.000000;1.172735
4745.000000;1.169270
4744.000000;1.165849
4743.000000;1.162422
4742.000000;1.159144
4741.000000;1.156174
4740.000000;1.153499
4739.000000;1.151016
4738.000000;1.148605
4737.000000;1.146044
4736.000000;1.143093
4735.000000;1.139775
4734.000000;1.136407
4733.000000;1.133215
4732.000000;1.130104
4731.000000;1.126915
4730.000000;1.123724
4729.000000;1.120700
4728.000000;1.117851
4727.000000;1.115101
4726.000000;1.112489
4725.000000;1.110113
4724.000000;1.107939
4723.000000;1.105815
4722.000000;1.103589
4721.000000;1.101133
4720.000000;1.098363
4719.000000;1.095370
4718.000000;1.092402
4717.000000;1.089584
4716.000000;1.086760
4715.000000;1.083753
4714.000000;1.080660
4713.000000;1.077755
4712.000000;1.075200
4711.000000;1.072989
4710.000000;1.071028
4709.000000;1.069131
4708.000000;1.067032
4707.000000;1.064597
4706.000000;1.061964
4705.000000;1.059369
4704.000000;1.056913
4703.000000;1.054590
4702.000000;1.052396
4701.000000;1.050275
4700.000000;1.048072
4699.000000;1.045722
4698.000000;1.043399
4697.000000;1.041312
4696.000000;1.039451
4695.000000;1.037657
4694.000000;1.035835
4693.000000;1.033949
4692.000000;1.031929
4691.000000;1.029762
4690.000000;1.027604
4689.000000;1.025611
4688.000000;1.023708
4687.000000;1.021716
4686.000000;1.019618
4685.000000;1.017529
4684.000000;1.015486
4683.000000;1.013436
4682.000000;1.011404
4681.000000;1.009441
4680.000000;1.007466
4679.000000;1.005348
4678.000000;1.003126
4677.000000;1.000969
4676.000000;0.998920
4675.000000;0.996867
4674.000000;0.994774
4673.000000;0.992748
4672.000000;0.990860
4671.000000;0.989060
4670.000000;0.987300
4669.000000;0.985582
4668.000000;0.983870
4667.000000;0.982064
4666.000000;0.980145
4665.000000;0.978217
4664.000000;0.976382
4663.000000;0.974655
4662.000000;0.973014
4661.000000;0.971429
4660.000000;0.969837
4659.000000;0.968171
4658.000000;0.966440
4657.000000;0.964705
4656.000000;0.963006
4655.000000;0.961363
4654.000000;0.959832
4653.000000;0.958437
4652.000000;0.957098
4651.000000;0.955721
4650.000000;0.954335
4649.000000;0.953023
4648.000000;0.951750
4647.000000;0.950410
4646.000000;0.949014
4645.000000;0.947689
4644.000000;0.946455
4643.000000;0.945171
4642.000000;0.943748
4641.000000;0.942277
4640.000000;0.940861
4639.000000;0.939441
4638.000000;0.937880
4637.000000;0.936167
4636.000000;0.934460
4635.000000;0.932946
4634.000000;0.931705
4633.000000;0.930678
4632.000000;0.929734
4631.000000;0.928775
4630.000000;0.927789
4629.000000;0.926812
4628.000000;0.925842
4627.000000;0.924842
4626.000000;0.923788
4625.000000;0.922672
4624.000000;0.921481
4623.000000;0.920228
4622.000000;0.918979
4621.000000;0.917807
4620.000000;0.916724
4619.000000;0.915703
4618.000000;0.914728
4617.000000;0.913775
4616.000000;0.912800
4615.000000;0.911799
4614.000000;0.910830
4613.000000;0.909921
4612.000000;0.908991
4611.000000;0.907960
4610.000000;0.906892
4609.000000;0.905922
4608.000000;0.905084
4607.000000;0.904296
4606.000000;0.903495
4605.000000;0.902688
4604.000000;0.901876
4603.000000;0.901054
4602.000000;0.900260
4601.000000;0.899549
4600.000000;0.898874
4599.000000;0.898102
4598.000000;0.897163
4597.000000;0.896116
4596.000000;0.895071
4595.000000;0.894118
4594.000000;0.893329
4593.000000;0.892743
4592.000000;0.892293
4591.000000;0.891829
4590.000000;0.891236
4589.000000;0.890526
4588.000000;0.889811
4587.000000;0.889206
4586.000000;0.888754
4585.000000;0.888389
4584.000000;0.887995
4583.000000;0.887550
4582.000000;0.887184
4581.000000;0.887029
4580.000000;0.887047
4579.000000;0.887061
4578.000000;0.886935
4577.000000;0.886637
4576.000000;0.886172
4575.000000;0.885564
4574.000000;0.884913
4573.000000;0.884358
4572.000000;0.883961
4571.000000;0.883673
4570.000000;0.883422
4569.000000;0.883174
4568.000000;0.882909
4567.000000;0.882614
4566.000000;0.882334
4565.000000;0.882168
4564.000000;0.882164
4563.000000;0.882283
4562.000000;0.882440
4561.000000;0.882564
4560.000000;0.882608
4559.000000;0.882578
4558.000000;0.882561
4557.000000;0.882674
4556.000000;0.882943
4555.000000;0.883276
4554.000000;0.883541
4553.000000;0.883658
4552.000000;0.883637
4551.000000;0.883588
4550.000000;0.883672
4549.000000;0.883979
4548.000000;0.884424
4547.000000;0.884814
4546.000000;0.885033
4545.000000;0.885140
4544.000000;0.885281
4543.000000;0.885552
4542.000000;0.885926
4541.000000;0.886293
4540.000000;0.886544
4539.000000;0.886678
4538.000000;0.886812
4537.000000;0.887080
4536.000000;0.887519
4535.000000;0.888063
4534.000000;0.888618
4533.000000;0.889103
4532.000000;0.889462
4531.000000;0.889698
4530.000000;0.889891
4529.000000;0.890128
4528.000000;0.890446
4527.000000;0.890862
4526.000000;0.891416
4525.000000;0.892121
4524.000000;0.892882
4523.000000;0.893540
4522.000000;0.894000
4521.000000;0.894291
4520.000000;0.894522
4519.000000;0.894802
4518.000000;0.895165
4517.000000;0.895528
4516.000000;0.895771
4515.000000;0.895901
4514.000000;0.896095
4513.000000;0.896517
4512.000000;0.897153
4511.000000;0.897876
4510.000000;0.898617
4509.000000;0.899371
4508.000000;0.900077
4507.000000;0.900620
4506.000000;0.900986
4505.000000;0.901299
4504.000000;0.901686
4503.000000;0.902166
4502.000000;0.902678
4501.000000;0.903159
4500.000000;0.903562
4499.000000;0.903875
4498.000000;0.904161
4497.000000;0.904540
4496.000000;0.905111
4495.000000;0.905868
4494.000000;0.906680
4493.000000;0.907360
4492.000000;0.907783
4491.000000;0.908016
4490.000000;0.908304
4489.000000;0.908869
4488.000000;0.909726
4487.000000;0.910732
4486.000000;0.911765
4485.000000;0.912802
4484.000000;0.913846
4483.000000;0.914869
4482.000000;0.915868
4481.000000;0.916907
4480.000000;0.918069
4479.000000;0.919366
4478.000000;0.920699
4477.000000;0.921933
4476.000000;0.923022
4475.000000;0.924065
4474.000000;0.925203
4473.000000;0.926452
4472.000000;0.927706
4471.000000;0.928907
4470.000000;0.930125
4469.000000;0.931416
4468.000000;0.932693
4467.000000;0.933858
4466.000000;0.934996
4465.000000;0.936305
4464.000000;0.937853
4463.000000;0.939481
4462.000000;0.940982
4461.000000;0.942276
4460.000000;0.943414
4459.000000;0.944500
4458.000000;0.945683
4457.000000;0.947142
4456.000000;0.948997
4455.000000;0.951185
4454.000000;0.953445
4453.000000;0.955481
4452.000000;0.957184
4451.000000;0.958689
4450.000000;0.960197
4449.000000;0.961759
4448.000000;0.963287
4447.000000;0.964742
4446.000000;0.966237
4445.000000;0.967920
4444.000000;0.969832
4443.000000;0.971897
4442.000000;0.973977
4441.000000;0.975949
4440.000000;0.977801
4439.000000;0.979676
4438.000000;0.981715
4437.000000;0.983846
4436.000000;0.985846
4435.000000;0.987653
4434.000000;0.989472
4433.000000;0.991506
4432.000000;0.993739
4431.000000;0.996077
4430.000000;0.998545
4429.000000;1.001173
4428.000000;1.003826
4427.000000;1.006333
4426.000000;1.008740
4425.000000;1.011243
4424.000000;1.013900
4423.000000;1.016553
4422.000000;1.019016
4421.000000;1.021214
4420.000000;1.023167
4419.000000;1.024996
4418.000000;1.026939
4417.000000;1.029195
4416.000000;1.031699
4415.000000;1.034155
4414.000000;1.036335
4413.000000;1.038316
4412.000000;1.040413
4411.000000;1.042902
4410.000000;1.045794
4409.000000;1.048827
4408.000000;1.051709
4407.000000;1.054403
4406.000000;1.057090
4405.000000;1.059832
4404.000000;1.062423
4403.000000;1.064710
4402.000000;1.066919
4401.000000;1.069443
4400.000000;1.072354
4399.000000;1.075323
4398.000000;1.078054
4397.000000;1.080635
4396.000000;1.083397
4395.000000;1.086549
4394.000000;1.089983
4393.000000;1.093368
4392.000000;1.096404
4391.000000;1.099092
4390.000000;1.101759
4389.000000;1.104758
4388.000000;1.108127
4387.000000;1.111580
4386.000000;1.114841
4385.000000;1.117889
4384.000000;1.120890
4383.000000;1.123960
4382.000000;1.127043
4381.000000;1.129982
4380.000000;1.132717
4379.000000;1.135387
4378.000000;1.138214
4377.000000;1.141266
4376.000000;1.144394
4375.000000;1.147446
4374.000000;1.150455
4373.000000;1.153571
4372.000000;1.156870
4371.000000;1.160310
4370.000000;1.163840
4369.000000;1.167447
4368.000000;1.171110
4367.000000;1.174780
4366.000000;1.178426
4365.000000;1.182068
4364.000000;1.185764
4363.000000;1.189561
4362.000000;1.193453
4361.000000;1.197427
4360.000000;1.201539
4359.000000;1.205843
4358.000000;1.210161
4357.000000;1.214081
4356.000000;1.217410
4355.000000;1.220537
4354.000000;1.224070
4353.000000;1.228132
4352.000000;1.232325
4351.000000;1.236376
4350.000000;1.240448
4349.000000;1.244694
4348.000000;1.248867
4347.000000;1.252652
4346.000000;1.256146
4345.000000;1.259745
4344.000000;1.263699
4343.000000;1.267995
4342.000000;1.272513
4341.000000;1.277092
4340.000000;1.281547
4339.000000;1.285803
4338.000000;1.289965
4337.000000;1.294175
4336.000000;1.298543
4335.000000;1.303241
4334.000000;1.308406
4333.000000;1.313844
4332.000000;1.319138
4331.000000;1.324205
4330.000000;1.329449
4329.000000;1.335143
4328.000000;1.340975
4327.000000;1.346497
4326.000000;1.351729
4325.000000;1.356944
4324.000000;1.362099
4323.000000;1.366895
4322.000000;1.371299
4321.000000;1.375616
4320.000000;1.380094
4319.000000;1.384734
4318.000000;1.389437
4317.000000;1.394030
4316.000000;1.398216
4315.000000;1.401749
4314.000000;1.404771
4313.000000;1.407885
4312.000000;1.411876
4311.000000;1.417256
4310.000000;1.423815
4309.000000;1.430612
4308.000000;1.436692
4307.000000;1.441913
4306.000000;1.446765
4305.000000;1.451483
4304.000000;1.455893
4303.000000;1.460207
4302.000000;1.465254
4301.000000;1.471525
4300.000000;1.478549
4299.000000;1.485611
4298.000000;1.492555
4297.000000;1.499359
4296.000000;1.505468
4295.000000;1.510332
4294.000000;1.514322
4293.000000;1.518447
4292.000000;1.523347
4291.000000;1.529057
4290.000000;1.535406
4289.000000;1.542061
4288.000000;1.548489
4287.000000;1.554536
4286.000000;1.560808
4285.000000;1.567776
4284.000000;1.574758
4283.000000;1.580607
4282.000000;1.585330
4281.000000;1.590128
4280.000000;1.595670
4279.000000;1.601190
4278.000000;1.605738
4277.000000;1.609854
4276.000000;1.615441
4275.000000;1.623888
4274.000000;1.634407
4273.000000;1.644342
4272.000000;1.651475
4271.000000;1.656018
4270.000000;1.659938
4269.000000;1.664683
4268.000000;1.670365
4267.000000;1.676861
4266.000000;1.684468
4265.000000;1.692886
4264.000000;1.700546
4263.000000;1.706041
4262.000000;1.709869
4261.000000;1.713971
4260.000000;1.719904
4259.000000;1.727837
4258.000000;1.736538
4257.000000;1.743885
4256.000000;1.748429
4255.000000;1.751219
4254.000000;1.755068
4253.000000;1.761300
4252.000000;1.768339
4251.000000;1.774489
4250.000000;1.781019
4249.000000;1.790863
4248.000000;1.804740
4247.000000;1.820072
4246.000000;1.833635
4245.000000;1.843826
4244.000000;1.850600
4243.000000;1.854933
4242.000000;1.858629
4241.000000;1.863308
4240.000000;1.869160
4239.000000;1.875170
4238.000000;1.880403
4237.000000;1.884570
4236.000000;1.887883
4235.000000;1.891384
4234.000000;1.896906
4233.000000;1.905474
4232.000000;1.915925
4231.000000;1.925973
4230.000000;1.934438
4229.000000;1.941620
4228.000000;1.948181
4227.000000;1.954849
4226.000000;1.962180
4225.000000;1.969133
4224.000000;1.973195
4223.000000;1.973762
4222.000000;1.974262
4221.000000;1.979059
4220.000000;1.988924
4219.000000;2.001079
4218.000000;2.013222
4217.000000;2.025485
4216.000000;2.038041
4215.000000;2.049045
4214.000000;2.056465
4213.000000;2.060479
4212.000000;2.063179
4211.000000;2.066927
4210.000000;2.073212
4209.000000;2.082208
4208.000000;2.093044
4207.000000;2.105143
4206.000000;2.119158
4205.000000;2.135230
4204.000000;2.151162
4203.000000;2.163787
4202.000000;2.171440
4201.000000;2.174748
4200.000000;2.176704
4199.000000;2.182162
4198.000000;2.194246
4197.000000;2.209818
4196.000000;2.221112
4195.000000;2.224114
4194.000000;2.223330
4193.000000;2.225678
4192.000000;2.232164
4191.000000;2.239318
4190.000000;2.246539
4189.000000;2.256204
4188.000000;2.267995
4187.000000;2.279043
4186.000000;2.289011
4185.000000;2.301103
4184.000000;2.317346
4183.000000;2.335046
4182.000000;2.349335
4181.000000;2.357313
4180.000000;2.358783
4179.000000;2.355916
4178.000000;2.352137
4177.000000;2.348807
4176.000000;2.344317
4175.000000;2.337210
4174.000000;2.328462
4173.000000;2.319873
4172.000000;2.312131
4171.000000;2.305524
4170.000000;2.300255
4169.000000;2.295101
4168.000000;2.288894
4167.000000;2.284552
4166.000000;2.288286
4165.000000;2.303113
4164.000000;2.325421
4163.000000;2.349054
4162.000000;2.371446
4161.000000;2.393951
4160.000000;2.417374
4159.000000;2.440404
4158.000000;2.461287
4157.000000;2.476194
4156.000000;2.479388
4155.000000;2.472154
4154.000000;2.466262
4153.000000;2.474697
4152.000000;2.502385
4151.000000;2.542892
4150.000000;2.580766
4149.000000;2.602096
4148.000000;2.607856
4147.000000;2.612215
4146.000000;2.625507
4145.000000;2.643919
4144.000000;2.657011
4143.000000;2.660965
4142.000000;2.657668
4141.000000;2.646663
4140.000000;2.629627
4139.000000;2.617754
4138.000000;2.623671
4137.000000;2.643578
4136.000000;2.657374
4135.000000;2.655662
4134.000000;2.649456
4133.000000;2.648042
4132.000000;2.648862
4131.000000;2.651725
4130.000000;2.665041
4129.000000;2.688925
4128.000000;2.707992
4127.000000;2.710851
4126.000000;2.703620
4125.000000;2.692312
4124.000000;2.674081
4123.000000;2.649562
4122.000000;2.626322
4121.000000;2.610269
4120.000000;2.597195
4119.000000;2.581575
4118.000000;2.571682
4117.000000;2.583045
4116.000000;2.624957
4115.000000;2.696535
4114.000000;2.787811
4113.000000;2.876015
4112.000000;2.925209
4111.000000;2.926502
4110.000000;2.919198
4109.000000;2.929381
4108.000000;2.936945
4107.000000;2.913233
4106.000000;2.874921
4105.000000;2.853959
4104.000000;2.845651
4103.000000;2.830608
4102.000000;2.812333
4101.000000;2.809047
4100.000000;2.825590
4099.000000;2.852062
4098.000000;2.885722
4097.000000;2.935918
4096.000000;3.003250
4095.000000;3.066159
4094.000000;3.111274
4093.000000;3.140285
4092.000000;3.129669
4091.000000;3.062505
4090.000000;2.974960
4089.000000;2.910838
4088.000000;2.885762
4087.000000;2.900309
4086.000000;2.958906
4085.000000;3.055487
4084.000000;3.113534
4083.000000;3.091379
4082.000000;3.104063
4081.000000;3.234506
4080.000000;3.531598
4079.000000;4.001887
4078.000000;3.864377
4077.000000;3.439037
4076.000000;3.177046
4075.000000;2.985787
4074.000000;2.868248
4073.000000;2.826817
4072.000000;2.840677
4071.000000;2.875338
4070.000000;2.911575
4069.000000;2.948046
4068.000000;2.968674
4067.000000;2.947782
4066.000000;2.902140
4065.000000;2.875531
4064.000000;2.883231
4063.000000;2.904417
4062.000000;2.912954
4061.000000;2.907105
4060.000000;2.900165
4059.000000;2.899014
4058.000000;2.906417
4057.000000;2.929546
4056.000000;2.970813
4055.000000;3.018442
4054.000000;3.049222
4053.000000;3.045764
4052.000000;3.016819
4051.000000;2.979762
4050.000000;2.925928
4049.000000;2.848705
4048.000000;2.784613
4047.000000;2.762866
4046.000000;2.774389
4045.000000;2.792063
4044.000000;2.799018
4043.000000;2.803336
4042.000000;2.828752
4041.000000;2.892751
4040.000000;2.982894
4039.000000;3.048024
4038.000000;3.050949
4037.000000;3.021199
4036.000000;3.001086
4035.000000;3.000546
4034.000000;3.015052
4033.000000;3.063034
4032.000000;3.140897
4031.000000;3.200380
4030.000000;3.241280
4029.000000;3.252127
4028.000000;3.164715
4027.000000;3.007970
4026.000000;2.870417
4025.000000;2.793996
4024.000000;2.779700
4023.000000;2.800883
4022.000000;2.812191
4021.000000;2.798380
4020.000000;2.792350
4019.000000;2.813808
4018.000000;2.834292
4017.000000;2.824560
4016.000000;2.805576
4015.000000;2.810777
4014.000000;2.862142
4013.000000;2.959389
4012.000000;3.055352
4011.000000;3.074154
4010.000000;3.022457
4009.000000;2.969290
4008.000000;2.935325
4007.000000;2.903595
4006.000000;2.863204
4005.000000;2.826728
4004.000000;2.803758
4003.000000;2.783371
4002.000000;2.760976
4001.000000;2.755432
4000.000000;2.784905
3999.000000;2.847172
3998.000000;2.917673
3997.000000;2.962307
3996.000000;2.986965
3995.000000;3.037541
3994.000000;3.160905
3993.000000;3.276523
3992.000000;3.187588
3991.000000;3.039935
3990.000000;2.926408
3989.000000;2.869536
3988.000000;2.875081
3987.000000;2.911295
3986.000000;2.954098
3985.000000;2.982546
3984.000000;2.960509
3983.000000;2.893352
3982.000000;2.843904
3981.000000;2.852397
3980.000000;2.914788
3979.000000;2.987580
3978.000000;3.021653
3977.000000;3.038492
3976.000000;3.111777
3975.000000;3.244593
3974.000000;3.205253
3973.000000;3.021696
3972.000000;2.886095
3971.000000;2.813302
3970.000000;2.794346
3969.000000;2.791511
3968.000000;2.783003
3967.000000;2.765070
3966.000000;2.738380
3965.000000;2.713824
3964.000000;2.703496
3963.000000;2.705956
3962.000000;2.714576
3961.000000;2.732362
3960.000000;2.754862
3959.000000;2.762229
3958.000000;2.768492
3957.000000;2.821350
3956.000000;2.936025
3955.000000;3.028554
3954.000000;2.955581
3953.000000;2.794802
3952.000000;2.665545
3951.000000;2.584332
3950.000000;2.543031
3949.000000;2.539063
3948.000000;2.565171
3947.000000;2.607228
3946.000000;2.657757
3945.000000;2.723117
3944.000000;2.811662
3943.000000;2.916736
3942.000000;3.000210
3941.000000;3.012686
3940.000000;3.003309
3939.000000;3.039927
3938.000000;3.107567
3937.000000;3.159874
3936.000000;3.136014
3935.000000;3.052554
3934.000000;2.998382
3933.000000;3.039230
3932.000000;3.179214
3931.000000;3.112159
3930.000000;3.018257
3929.000000;3.086058
3928.000000;3.374335
3927.000000;3.884363
3926.000000;3.160966
3925.000000;2.966039
3924.000000;2.878546
3923.000000;2.826229
3922.000000;2.777238
3921.000000;2.760714
3920.000000;2.779335
3919.000000;2.831322
3918.000000;2.902791
3917.000000;2.957083
3916.000000;3.001218
3915.000000;3.067114
3914.000000;3.118321
3913.000000;3.132722
3912.000000;3.092747
3911.000000;2.997113
3910.000000;2.899860
3909.000000;2.809444
3908.000000;2.717464
3907.000000;2.644470
3906.000000;2.614699
3905.000000;2.643669
3904.000000;2.743139
3903.000000;2.901774
3902.000000;2.779977
3901.000000;2.574165
3900.000000;2.500181
3899.000000;2.538000
3898.000000;2.649454
3897.000000;2.755459
3896.000000;2.758322
3895.000000;2.716659
3894.000000;2.718832
3893.000000;2.779743
3892.000000;2.881668
3891.000000;2.979469
3890.000000;3.000481
3889.000000;2.959279
3888.000000;2.880791
3887.000000;2.736089
3886.000000;2.596145
3885.000000;2.492468
3884.000000;2.423627
3883.000000;2.394135
3882.000000;2.393759
3881.000000;2.395886
3880.000000;2.375885
3879.000000;2.338477
3878.000000;2.319252
3877.000000;2.346780
3876.000000;2.415373
3875.000000;2.490105
3874.000000;2.541063
3873.000000;2.574175
3872.000000;2.606805
3871.000000;2.626819
3870.000000;2.616807
3869.000000;2.592165
3868.000000;2.598519
3867.000000;2.668279
3866.000000;2.776863
3865.000000;2.859722
3864.000000;2.813029
3863.000000;2.679737
3862.000000;2.604940
3861.000000;2.611072
3860.000000;2.659101
3859.000000;2.682764
3858.000000;2.647220
3857.000000;2.590702
3856.000000;2.559145
3855.000000;2.559478
3854.000000;2.568153
3853.000000;2.547080
3852.000000;2.484872
3851.000000;2.407757
3850.000000;2.338931
3849.000000;2.292624
3848.000000;2.273541
3847.000000;2.276066
3846.000000;2.293339
3845.000000;2.325469
3844.000000;2.375509
3843.000000;2.434848
3842.000000;2.486067
3841.000000;2.523145
3840.000000;2.563435
3839.000000;2.606153
3838.000000;2.614291
3837.000000;2.577028
3836.000000;2.532553
3835.000000;2.507583
3834.000000;2.489911
3833.000000;2.476763
3832.000000;2.477557
3831.000000;2.484060
3830.000000;2.482469
3829.000000;2.483587
3828.000000;2.513276
3827.000000;2.565317
3826.000000;2.611887
3825.000000;2.647108
3824.000000;2.681911
3823.000000;2.695026
3822.000000;2.656848
3821.000000;2.575827
3820.000000;2.495774
3819.000000;2.478732
3818.000000;2.549315
3817.000000;2.656825
3816.000000;2.722921
3815.000000;2.737114
3814.000000;2.767216
3813.000000;2.834116
3812.000000;2.761116
3811.000000;2.581923
3810.000000;2.456990
3809.000000;2.403212
3808.000000;2.397613
3807.000000;2.378295
3806.000000;2.319450
3805.000000;2.268926
3804.000000;2.284317
3803.000000;2.366424
3802.000000;2.441004
3801.000000;2.417146
3800.000000;2.305803
3799.000000;2.200033
3798.000000;2.160450
3797.000000;2.186752
3796.000000;2.248592
3795.000000;2.317530
3794.000000;2.368370
3793.000000;2.387754
3792.000000;2.400283
3791.000000;2.441511
3790.000000;2.521933
3789.000000;2.599797
3788.000000;2.596941
3787.000000;2.525029
3786.000000;2.462605
3785.000000;2.448269
3784.000000;2.481623
3783.000000;2.548188
3782.000000;2.585912
3781.000000;2.512864
3780.000000;2.418967
3779.000000;2.388012
3778.000000;2.426061
3777.000000;2.529720
3776.000000;2.617865
3775.000000;2.578317
3774.000000;2.520396
3773.000000;2.519448
3772.000000;2.526956
3771.000000;2.473723
3770.000000;2.401938
3769.000000;2.355536
3768.000000;2.341754
3767.000000;2.356773
3766.000000;2.377232
3765.000000;2.374295
3764.000000;2.348669
3763.000000;2.312085
3762.000000;2.271200
3761.000000;2.239710
3760.000000;2.226951
3759.000000;2.235887
3758.000000;2.267452
3757.000000;2.308140
3756.000000;2.335033
3755.000000;2.356437
3754.000000;2.399495
3753.000000;2.446410
3752.000000;2.445989
3751.000000;2.405274
3750.000000;2.368401
3749.000000;2.346905
3748.000000;2.328694
3747.000000;2.310898
3746.000000;2.310009
3745.000000;2.333516
3744.000000;2.360615
3743.000000;2.371330
3742.000000;2.365626
3741.000000;2.360567
3740.000000;2.358119
3739.000000;2.350824
3738.000000;2.337468
3737.000000;2.311865
3736.000000;2.303885
3735.000000;2.372540
3734.000000;2.543754
3733.000000;2.653164
3732.000000;2.472823
3731.000000;2.271072
3730.000000;2.149176
3729.000000;2.094477
3728.000000;2.067002
3727.000000;2.028318
3726.000000;1.983703
3725.000000;1.962590
3724.000000;1.984003
3723.000000;2.047056
3722.000000;2.137624
3721.000000;2.227687
3720.000000;2.284458
3719.000000;2.322871
3718.000000;2.380563
3717.000000;2.420667
3716.000000;2.363720
3715.000000;2.269582
3714.000000;2.215602
3713.000000;2.208311
3712.000000;2.216355
3711.000000;2.219328
3710.000000;2.237515
3709.000000;2.283296
3708.000000;2.287118
3707.000000;2.221359
3706.000000;2.157692
3705.000000;2.104572
3704.000000;2.051910
3703.000000;2.004043
3702.000000;1.969696
3701.000000;1.951397
3700.000000;1.946501
3699.000000;1.950325
3698.000000;1.965262
3697.000000;1.997443
3696.000000;2.034955
3695.000000;2.065715
3694.000000;2.107183
3693.000000;2.178260
3692.000000;2.271834
3691.000000;2.307779
3690.000000;2.257836
3689.000000;2.200366
3688.000000;2.135485
3687.000000;2.045087
3686.000000;1.950726
3685.000000;1.886321
3684.000000;1.862136
3683.000000;1.860272
3682.000000;1.861073
3681.000000;1.864959
3680.000000;1.869012
3679.000000;1.859546
3678.000000;1.839828
3677.000000;1.831802
3676.000000;1.835420
3675.000000;1.823166
3674.000000;1.805183
3673.000000;1.832502
3672.000000;1.913368
3671.000000;2.000905
3670.000000;2.059712
3669.000000;2.106134
3668.000000;2.179412
3667.000000;2.276753
3666.000000;2.349312
3665.000000;2.356637
3664.000000;2.303248
3663.000000;2.234456
3662.000000;2.174343
3661.000000;2.112664
3660.000000;2.043047
3659.000000;1.975604
3658.000000;1.926404
3657.000000;1.911079
3656.000000;1.922728
3655.000000;1.962078
3654.000000;2.068155
3653.000000;2.339556
3652.000000;2.929558
3651.000000;2.606720
3650.000000;2.275743
3649.000000;2.116237
3648.000000;2.000697
3647.000000;1.911068
3646.000000;1.859743
3645.000000;1.877621
3644.000000;1.971631
3643.000000;2.112152
3642.000000;2.205673
3641.000000;2.177800
3640.000000;2.112978
3639.000000;2.104455
3638.000000;2.211287
3637.000000;2.482776
3636.000000;3.389369
3635.000000;2.774493
3634.000000;2.560106
3633.000000;2.428317
3632.000000;2.241352
3631.000000;2.067475
3630.000000;1.964694
3629.000000;1.941168
3628.000000;1.977408
3627.000000;2.054438
3626.000000;2.128378
3625.000000;2.143573
3624.000000;2.091905
3623.000000;1.956228
3622.000000;1.793460
3621.000000;1.691217
3620.000000;1.664915
3619.000000;1.687086
3618.000000;1.722835
3617.000000;1.754648
3616.000000;1.788052
3615.000000;1.824524
3614.000000;1.839831
3613.000000;1.817156
3612.000000;1.762981
3611.000000;1.671013
3610.000000;1.566595
3609.000000;1.496558
3608.000000;1.464865
3607.000000;1.456495
3606.000000;1.470038
3605.000000;1.511821
3604.000000;1.575412
3603.000000;1.642220
3602.000000;1.704834
3601.000000;1.771328
3600.000000;1.838120
3599.000000;1.918305
3598.000000;2.021038
3597.000000;2.361291
3596.000000;2.872044
3595.000000;2.118692
3594.000000;1.896523
3593.000000;1.771036
3592.000000;1.714642
3591.000000;1.692038
3590.000000;1.699539
3589.000000;1.726250
3588.000000;1.777003
3587.000000;1.873422
3586.000000;2.030331
3585.000000;2.109892
3584.000000;2.028026
3583.000000;1.971262
3582.000000;2.013710
3581.000000;2.180225
3580.000000;2.581217
3579.000000;2.971919
3578.000000;2.414871
3577.000000;2.224018
3576.000000;2.114728
3575.000000;2.035686
3574.000000;1.936906
3573.000000;1.810804
3572.000000;1.686552
3571.000000;1.573666
3570.000000;1.465488
3569.000000;1.369593
3568.000000;1.305258
3567.000000;1.283552
3566.000000;1.297878
3565.000000;1.329646
3564.000000;1.362444
3563.000000;1.393494
3562.000000;1.430071
3561.000000;1.479899
3560.000000;1.549508
3559.000000;1.647761
3558.000000;1.780096
3557.000000;1.941193
3556.000000;2.126550
3555.000000;2.380150
3554.000000;2.507703
3553.000000;2.311764
3552.000000;2.155014
3551.000000;2.007361
3550.000000;1.867452
3549.000000;1.783860
3548.000000;1.786979
3547.000000;1.883598
3546.000000;2.043809
3545.000000;2.139364
3544.000000;2.049792
3543.000000;1.901008
3542.000000;1.787977
3541.000000;1.713040
3540.000000;1.655752
3539.000000;1.601320
3538.000000;1.554823
3537.000000;1.529848
3536.000000;1.531777
3535.000000;1.548737
3534.000000;1.567481
3533.000000;1.597636
3532.000000;1.652216
3531.000000;1.727803
3530.000000;1.812050
3529.000000;1.889977
3528.000000;1.945430
3527.000000;1.962603
3526.000000;1.937675
3525.000000;1.898499
3524.000000;1.877479
3523.000000;1.888853
3522.000000;1.932090
3521.000000;1.979954
3520.000000;1.975273
3519.000000;1.901801
3518.000000;1.822019
3517.000000;1.792559
3516.000000;1.826080
3515.000000;1.899677
3514.000000;1.965513
3513.000000;1.963600
3512.000000;1.905661
3511.000000;1.869598
3510.000000;1.888468
3509.000000;1.943887
3508.000000;1.993993
3507.000000;2.002477
3506.000000;1.958615
3505.000000;1.917100
3504.000000;1.940783
3503.000000;2.044733
3502.000000;2.179022
3501.000000;2.084706
3500.000000;1.888626
3499.000000;1.772112
3498.000000;1.732271
3497.000000;1.749228
3496.000000;1.813406
3495.000000;1.916364
3494.000000;2.012684
3493.000000;2.000271
3492.000000;1.886600
3491.000000;1.777756
3490.000000;1.703159
3489.000000;1.646878
3488.000000;1.596965
3487.000000;1.562895
3486.000000;1.557278
3485.000000;1.580300
3484.000000;1.619557
3483.000000;1.654880
3482.000000;1.670000
3481.000000;1.666465
3480.000000;1.661532
3479.000000;1.670229
3478.000000;1.688477
3477.000000;1.702545
3476.000000;1.718981
3475.000000;1.763882
3474.000000;1.844315
3473.000000;1.906816
3472.000000;1.897308
3471.000000;1.854926
3470.000000;1.813102
3469.000000;1.776529
3468.000000;1.751883
3467.000000;1.743586
3466.000000;1.749672
3465.000000;1.770721
3464.000000;1.805963
3463.000000;1.852228
3462.000000;1.899628
3461.000000;1.927167
3460.000000;1.937037
3459.000000;1.962002
3458.000000;2.031190
3457.000000;2.147825
3456.000000;2.250798
3455.000000;2.259832
3454.000000;2.221296
3453.000000;2.160376
3452.000000;2.060075
3451.000000;1.962259
3450.000000;1.889016
3449.000000;1.836576
3448.000000;1.810442
3447.000000;1.817946
3446.000000;1.849272
3445.000000;1.883714
3444.000000;1.924949
3443.000000;2.006888
3442.000000;2.164040
3441.000000;2.396460
3440.000000;2.507411
3439.000000;2.407147
3438.000000;2.351117
3437.000000;2.376849
3436.000000;2.472873
3435.000000;2.758766
3434.000000;3.279763
3433.000000;2.819986
3432.000000;2.564478
3431.000000;2.344555
3430.000000;2.142749
3429.000000;1.999757
3428.000000;1.906588
3427.000000;1.855214
3426.000000;1.843417
3425.000000;1.868068
3424.000000;1.915626
3423.000000;1.973833
3422.000000;2.050490
3421.000000;2.139129
3420.000000;2.149890
3419.000000;2.056155
3418.000000;1.956942
3417.000000;1.895628
3416.000000;1.874195
3415.000000;1.884045
3414.000000;1.918113
3413.000000;1.972932
3412.000000;2.029353
3411.000000;2.037576
3410.000000;1.981007
3409.000000;1.921740
3408.000000;1.912286
3407.000000;1.966601
3406.000000;2.076584
3405.000000;2.206260
3404.000000;2.287747
3403.000000;2.288210
3402.000000;2.260791
3401.000000;2.267975
3400.000000;2.312092
3399.000000;2.317120
3398.000000;2.236464
3397.000000;2.125567
3396.000000;2.037967
3395.000000;1.977187
3394.000000;1.921888
3393.000000;1.868557
3392.000000;1.837310
3391.000000;1.844720
3390.000000;1.893057
3389.000000;1.975952
3388.000000;2.078186
3387.000000;2.171543
3386.000000;2.240853
3385.000000;2.309455
3384.000000;2.457643
3383.000000;2.883867
3382.000000;2.819519
3381.000000;2.381554
3380.000000;2.227000
3379.000000;2.117246
3378.000000;2.047807
3377.000000;1.990889
3376.000000;1.946461
3375.000000;1.923334
3374.000000;1.937245
3373.000000;1.992760
3372.000000;2.079121
3371.000000;2.173597
3370.000000;2.251923
3369.000000;2.267682
3368.000000;2.191159
3367.000000;2.077291
3366.000000;1.979032
3365.000000;1.912726
3364.000000;1.884430
3363.000000;1.890162
3362.000000;1.919006
3361.000000;1.964232
3360.000000;2.021291
3359.000000;2.079112
3358.000000;2.113240
3357.000000;2.108464
3356.000000;2.094957
3355.000000;2.107933
3354.000000;2.137596
3353.000000;2.128736
3352.000000;2.077798
3351.000000;2.037889
3350.000000;2.019935
3349.000000;2.015435
3348.000000;2.027630
3347.000000;2.056329
3346.000000;2.075836
3345.000000;2.061448
3344.000000;2.031351
3343.000000;2.021510
3342.000000;2.043804
3341.000000;2.083056
3340.000000;2.116601
3339.000000;2.131148
3338.000000;2.127065
3337.000000;2.126536
3336.000000;2.168728
3335.000000;2.289064
3334.000000;2.472024
3333.000000;2.525234
3332.000000;2.472277
3331.000000;2.445129
3330.000000;2.375208
3329.000000;2.237577
3328.000000;2.093918
3327.000000;1.988413
3326.000000;1.931962
3325.000000;1.924733
3324.000000;1.967891
3323.000000;2.072500
3322.000000;2.257287
3321.000000;2.522047
3320.000000;2.686588
3319.000000;2.653890
3318.000000;2.478859
3317.000000;2.287416
3316.000000;2.174683
3315.000000;2.112201
3314.000000;2.061372
3313.000000;2.013516
3312.000000;1.988124
3311.000000;1.996283
3310.000000;2.024596
3309.000000;2.046481
3308.000000;2.040409
3307.000000;2.012273
3306.000000;1.993466
3305.000000;2.007954
3304.000000;2.060881
3303.000000;2.144578
3302.000000;2.246618
3301.000000;2.360828
3300.000000;2.387621
3299.000000;2.234910
3298.000000;2.084145
3297.000000;2.002548
3296.000000;1.965905
3295.000000;1.938413
3294.000000;1.899042
3293.000000;1.854555
3292.000000;1.822233
3291.000000;1.811822
3290.000000;1.823147
3289.000000;1.853337
3288.000000;1.903878
3287.000000;1.978193
3286.000000;2.066445
3285.000000;2.143030
3284.000000;2.197427
3283.000000;2.245278
3282.000000;2.303736
3281.000000;2.378324
3280.000000;2.463390
3279.000000;2.553376
3278.000000;2.650743
3277.000000;2.742536
3276.000000;2.783583
3275.000000;2.721500
3274.000000;2.607594
3273.000000;2.528325
3272.000000;2.475009
3271.000000;2.411674
3270.000000;2.324546
3269.000000;2.220620
3268.000000;2.127229
3267.000000;2.071254
3266.000000;2.061695
3265.000000;2.081184
3264.000000;2.087583
3263.000000;2.059728
3262.000000;2.012429
3261.000000;1.956519
3260.000000;1.901411
3259.000000;1.861808
3258.000000;1.843651
3257.000000;1.838387
3256.000000;1.834877
3255.000000;1.833680
3254.000000;1.844501
3253.000000;1.874375
3252.000000;1.923716
3251.000000;1.993710
3250.000000;2.096836
3249.000000;2.245769
3248.000000;2.475684
3247.000000;2.865233
3246.000000;2.735756
3245.000000;2.436955
3244.000000;2.331407
3243.000000;2.248229
3242.000000;2.180109
3241.000000;2.129357
3240.000000;2.097745
3239.000000;2.068940
3238.000000;2.042502
3237.000000;2.033094
3236.000000;2.051546
3235.000000;2.092406
3234.000000;2.133700
3233.000000;2.151392
3232.000000;2.140125
3231.000000;2.115745
3230.000000;2.100841
3229.000000;2.101889
3228.000000;2.114868
3227.000000;2.130833
3226.000000;2.130061
3225.000000;2.107136
3224.000000;2.085871
3223.000000;2.086395
3222.000000;2.102546
3221.000000;2.121732
3220.000000;2.158907
3219.000000;2.239685
3218.000000;2.377397
3217.000000;2.512242
3216.000000;2.461722
3215.000000;2.328078
3214.000000;2.252787
3213.000000;2.243458
3212.000000;2.282707
3211.000000;2.322938
3210.000000;2.325339
3209.000000;2.304306
3208.000000;2.305432
3207.000000;2.349372
3206.000000;2.427242
3205.000000;2.524169
3204.000000;2.623265
3203.000000;2.691248
3202.000000;2.625039
3201.000000;2.485247
3200.000000;2.427564
3199.000000;2.480003
3198.000000;2.597322
3197.000000;2.641836
3196.000000;2.527162
3195.000000;2.355238
3194.000000;2.201807
3193.000000;2.090330
3192.000000;2.025818
3191.000000;2.005245
3190.000000;2.018142
3189.000000;2.046297
3188.000000;2.073593
3187.000000;2.101351
3186.000000;2.146877
3185.000000;2.228202
3184.000000;2.349953
3183.000000;2.475299
3182.000000;2.510605
3181.000000;2.445896
3180.000000;2.363994
3179.000000;2.308428
3178.000000;2.292113
3177.000000;2.316346
3176.000000;2.370259
3175.000000;2.439216
3174.000000;2.497861
3173.000000;2.488909
3172.000000;2.396085
3171.000000;2.284187
3170.000000;2.205571
3169.000000;2.171596
3168.000000;2.164544
3167.000000;2.158110
3166.000000;2.148011
3165.000000;2.149028
3164.000000;2.174270
3163.000000;2.229703
3162.000000;2.314684
3161.000000;2.425659
3160.000000;2.574879
3159.000000;2.775225
3158.000000;3.106202
3157.000000;3.128625
3156.000000;2.799435
3155.000000;2.590811
3154.000000;2.475399
3153.000000;2.433042
3152.000000;2.453224
3151.000000;2.540413
3150.000000;2.680684
3149.000000;2.826214
3148.000000;2.902032
3147.000000;2.826657
3146.000000;2.700423
3145.000000;2.560994
3144.000000;2.363529
3143.000000;2.165171
3142.000000;2.012381
3141.000000;1.905984
3140.000000;1.839081
3139.000000;1.804302
3138.000000;1.792954
3137.000000;1.797705
3136.000000;1.816207
3135.000000;1.846543
3134.000000;1.878580
3133.000000;1.895359
3132.000000;1.892109
3131.000000;1.886594
3130.000000;1.895003
3129.000000;1.914097
3128.000000;1.935140
3127.000000;1.960927
3126.000000;2.001939
3125.000000;2.060251
3124.000000;2.135041
3123.000000;2.234326
3122.000000;2.349885
3121.000000;2.458032
3120.000000;2.561409
3119.000000;2.688795
3118.000000;2.846764
3117.000000;3.000148
3116.000000;3.305657
3115.000000;3.184774
3114.000000;2.708377
3113.000000;2.484828
3112.000000;2.354991
3111.000000;2.303395
3110.000000;2.294457
3109.000000;2.283635
3108.000000;2.231852
3107.000000;2.157658
3106.000000;2.109964
3105.000000;2.109728
3104.000000;2.138118
3103.000000;2.156215
3102.000000;2.147695
3101.000000;2.127545
3100.000000;2.105171
3099.000000;2.079108
3098.000000;2.051633
3097.000000;2.035166
3096.000000;2.048316
3095.000000;2.096450
3094.000000;2.148620
3093.000000;2.153047
3092.000000;2.109500
3091.000000;2.046152
3090.000000;1.978394
3089.000000;1.921201
3088.000000;1.883441
3087.000000;1.861389
3086.000000;1.846583
3085.000000;1.837109
3084.000000;1.839463
3083.000000;1.860666
3082.000000;1.901726
3081.000000;1.959792
3080.000000;2.033896
3079.000000;2.120798
3078.000000;2.196219
3077.000000;2.220629
3076.000000;2.198733
3075.000000;2.170994
3074.000000;2.159615
3073.000000;2.165660
3072.000000;2.185871
3071.000000;2.217781
3070.000000;2.246753
3069.000000;2.248343
3068.000000;2.222343
3067.000000;2.196957
3066.000000;2.197103
3065.000000;2.224664
3064.000000;2.262369
3063.000000;2.292146
3062.000000;2.306329
3061.000000;2.317106
3060.000000;2.355242
3059.000000;2.444540
3058.000000;2.515827
3057.000000;2.433782
3056.000000;2.291235
3055.000000;2.191727
3054.000000;2.162089
3053.000000;2.198474
3052.000000;2.249676
3051.000000;2.234958
3050.000000;2.147314
3049.000000;2.049865
3048.000000;1.981209
3047.000000;1.956647
3046.000000;1.989191
3045.000000;2.097038
3044.000000;2.298547
3043.000000;2.627253
3042.000000;2.752796
3041.000000;2.460453
3040.000000;2.298402
3039.000000;2.254675
3038.000000;2.285965
3037.000000;2.348532
3036.000000;2.420118
3035.000000;2.466857
3034.000000;2.433441
3033.000000;2.392893
3032.000000;2.443248
3031.000000;2.643174
3030.000000;2.949623
3029.000000;2.699657
3028.000000;2.383060
3027.000000;2.216155
3026.000000;2.129074
3025.000000;2.099097
3024.000000;2.102231
3023.000000;2.138020
3022.000000;2.217004
3021.000000;2.340138
3020.000000;2.401074
3019.000000;2.312227
3018.000000;2.204024
3017.000000;2.116807
3016.000000;2.037168
3015.000000;1.976860
3014.000000;1.956130
3013.000000;1.980421
3012.000000;2.040810
3011.000000;2.129658
3010.000000;2.238079
3009.000000;2.286750
3008.000000;2.206102
3007.000000;2.101251
3006.000000;2.016874
3005.000000;1.952119
3004.000000;1.913821
3003.000000;1.913212
3002.000000;1.952455
3001.000000;2.019430
3000.000000;2.085962
2999.000000;2.125138
2998.000000;2.147235
2997.000000;2.180431
2996.000000;2.230080
2995.000000;2.287746
2994.000000;2.365349
2993.000000;2.514245
2992.000000;2.613491
2991.000000;2.424528
2990.000000;2.264229
2989.000000;2.195401
2988.000000;2.187988
2987.000000;2.230563
2986.000000;2.324122
2985.000000;2.467155
2984.000000;2.574607
2983.000000;2.490917
2982.000000;2.313961
2981.000000;2.144943
2980.000000;2.015490
2979.000000;1.928509
2978.000000;1.876522
2977.000000;1.858506
2976.000000;1.883704
2975.000000;1.965674
2974.000000;2.112556
2973.000000;2.302386
2972.000000;2.370174
2971.000000;2.258611
2970.000000;2.134888
2969.000000;2.036480
2968.000000;1.959033
2967.000000;1.899141
2966.000000;1.858178
2965.000000;1.835677
2964.000000;1.828190
2963.000000;1.832488
2962.000000;1.848519
2961.000000;1.881000
2960.000000;1.934008
2959.000000;2.007006
2958.000000;2.095925
2957.000000;2.180601
2956.000000;2.217048
2955.000000;2.198599
2954.000000;2.166289
2953.000000;2.148293
2952.000000;2.154523
2951.000000;2.182339
2950.000000;2.233608
2949.000000;2.313751
2948.000000;2.458423
2947.000000;2.641054
2946.000000;3.233132
2945.000000;3.003662
2944.000000;2.439825
2943.000000;2.228189
2942.000000;2.088062
2941.000000;2.002935
2940.000000;1.944774
2939.000000;1.912613
2938.000000;1.902078
2937.000000;1.907092
2936.000000;1.915542
2935.000000;1.916143
2934.000000;1.914151
2933.000000;1.930300
2932.000000;1.977888
2931.000000;2.051093
2930.000000;2.136535
2929.000000;2.240231
2928.000000;2.417366
2927.000000;2.702362
2926.000000;2.611659
2925.000000;2.356381
2924.000000;2.222370
2923.000000;2.147596
2922.000000;2.126090
2921.000000;2.135361
2920.000000;2.142434
2919.000000;2.146897
2918.000000;2.180132
2917.000000;2.230472
2916.000000;2.253484
2915.000000;2.253972
2914.000000;2.268653
2913.000000;2.285761
2912.000000;2.283634
2911.000000;2.281678
2910.000000;2.299826
2909.000000;2.333246
2908.000000;2.388134
2907.000000;2.511446
2906.000000;2.800239
2905.000000;3.018512
2904.000000;2.515267
2903.000000;2.299374
2902.000000;2.207594
2901.000000;2.203610
2900.000000;2.245457
2899.000000;2.291819
2898.000000;2.311097
2897.000000;2.304046
2896.000000;2.286703
2895.000000;2.278060
2894.000000;2.290154
2893.000000;2.313991
2892.000000;2.314893
2891.000000;2.274484
2890.000000;2.221348
2889.000000;2.181850
2888.000000;2.148165
2887.000000;2.104732
2886.000000;2.055279
2885.000000;2.009719
2884.000000;1.970620
2883.000000;1.941187
2882.000000;1.930492
2881.000000;1.945524
2880.000000;1.984939
2879.000000;2.045718
2878.000000;2.135148
2877.000000;2.274559
2876.000000;2.480033
2875.000000;2.661938
2874.000000;2.662846
2873.000000;2.622887
2872.000000;2.591600
2871.000000;2.502912
2870.000000;2.351136
2869.000000;2.225289
2868.000000;2.156661
2867.000000;2.128844
2866.000000;2.115102
2865.000000;2.107434
2864.000000;2.117970
2863.000000;2.146668
2862.000000;2.166412
2861.000000;2.163080
2860.000000;2.160188
2859.000000;2.182024
2858.000000;2.231932
2857.000000;2.299958
2856.000000;2.371045
2855.000000;2.412401
2854.000000;2.399955
2853.000000;2.346366
2852.000000;2.274208
2851.000000;2.214975
2850.000000;2.193720
2849.000000;2.198463
2848.000000;2.178807
2847.000000;2.116377
2846.000000;2.047284
2845.000000;1.995840
2844.000000;1.963443
2843.000000;1.944553
2842.000000;1.937909
2841.000000;1.948759
2840.000000;1.986165
2839.000000;2.056999
2838.000000;2.164581
2837.000000;2.312165
2836.000000;2.518476
2835.000000;2.693919
2834.000000;2.549195
2833.000000;2.348394
2832.000000;2.209628
2831.000000;2.107454
2830.000000;2.043899
2829.000000;2.026230
2828.000000;2.056454
2827.000000;2.124627
2826.000000;2.215187
2825.000000;2.325585
2824.000000;2.464170
2823.000000;2.593946
2822.000000;2.568956
2821.000000;2.400550
2820.000000;2.243546
2819.000000;2.136790
2818.000000;2.077690
2817.000000;2.066103
2816.000000;2.109260
2815.000000;2.208243
2814.000000;2.258833
2813.000000;2.153813
2812.000000;2.026639
2811.000000;1.935859
2810.000000;1.875880
2809.000000;1.848784
2808.000000;1.862465
2807.000000;1.918242
2806.000000;1.998717
2805.000000;2.071527
2804.000000;2.120845
2803.000000;2.152071
2802.000000;2.170826
2801.000000;2.191775
2800.000000;2.229203
2799.000000;2.283616
2798.000000;2.341343
2797.000000;2.377061
2796.000000;2.382200
2795.000000;2.402987
2794.000000;2.456954
2793.000000;2.463343
2792.000000;2.385557
2791.000000;2.279824
2790.000000;2.176378
2789.000000;2.098426
2788.000000;2.060558
2787.000000;2.063180
2786.000000;2.094095
2785.000000;2.129530
2784.000000;2.144305
2783.000000;2.141272
2782.000000;2.149378
2781.000000;2.183263
2780.000000;2.235538
2779.000000;2.307733
2778.000000;2.422368
2777.000000;2.542882
2776.000000;2.517416
2775.000000;2.470802
2774.000000;2.511191
2773.000000;2.601072
2772.000000;2.669449
2771.000000;2.688446
2770.000000;2.677649
2769.000000;2.621741
2768.000000;2.527561
2767.000000;2.443422
2766.000000;2.397166
2765.000000;2.397063
2764.000000;2.433864
2763.000000;2.473518
2762.000000;2.468837
2761.000000;2.407341
2760.000000;2.323369
2759.000000;2.243710
2758.000000;2.171144
2757.000000;2.112674
2756.000000;2.077604
2755.000000;2.062922
2754.000000;2.065511
2753.000000;2.096567
2752.000000;2.173340
2751.000000;2.296674
2750.000000;2.418792
2749.000000;2.459923
2748.000000;2.448403
2747.000000;2.447891
2746.000000;2.462434
2745.000000;2.469362
2744.000000;2.469644
2743.000000;2.493321
2742.000000;2.563340
2741.000000;2.695531
2740.000000;2.845745
2739.000000;2.695080
2738.000000;2.451446
2737.000000;2.309002
2736.000000;2.236496
2735.000000;2.213253
2734.000000;2.220752
2733.000000;2.232438
2732.000000;2.226469
2731.000000;2.212411
2730.000000;2.214624
2729.000000;2.238185
2728.000000;2.264181
2727.000000;2.287508
2726.000000;2.338832
2725.000000;2.453706
2724.000000;2.631450
2723.000000;2.852237
2722.000000;3.094238
2721.000000;3.607807
2720.000000;3.271047
2719.000000;2.770867
2718.000000;2.506632
2717.000000;2.385366
2716.000000;2.362774
2715.000000;2.379728
2714.000000;2.349709
2713.000000;2.247419
2712.000000;2.129448
2711.000000;2.026880
2710.000000;1.946246
2709.000000;1.892119
2708.000000;1.869967
2707.000000;1.881265
2706.000000;1.920419
2705.000000;1.978878
2704.000000;2.055508
2703.000000;2.155229
2702.000000;2.250600
2701.000000;2.255714
2700.000000;2.175049
2699.000000;2.083679
2698.000000;2.009964
2697.000000;1.962403
2696.000000;1.945355
2695.000000;1.966056
2694.000000;2.036048
2693.000000;2.169389
2692.000000;2.376129
2691.000000;2.611769
2690.000000;2.615983
2689.000000;2.512788
2688.000000;2.467285
2687.000000;2.467382
2686.000000;2.468895
2685.000000;2.424035
2684.000000;2.349356
2683.000000;2.281243
2682.000000;2.229892
2681.000000;2.201015
2680.000000;2.199229
2679.000000;2.220184
2678.000000;2.262166
2677.000000;2.344922
2676.000000;2.489343
2675.000000;2.636334
2674.000000;2.716660
2673.000000;2.937232
2672.000000;3.027043
2671.000000;2.660989
2670.000000;2.413760
2669.000000;2.274971
2668.000000;2.209134
2667.000000;2.193441
2666.000000;2.202794
2665.000000;2.224639
2664.000000;2.257627
2663.000000;2.294332
2662.000000;2.304730
2661.000000;2.269306
2660.000000;2.215680
2659.000000;2.176183
2658.000000;2.161756
2657.000000;2.164292
2656.000000;2.171318
2655.000000;2.180307
2654.000000;2.196577
2653.000000;2.228087
2652.000000;2.280185
2651.000000;2.341529
2650.000000;2.371726
2649.000000;2.361107
2648.000000;2.345266
2647.000000;2.317881
2646.000000;2.259007
2645.000000;2.200092
2644.000000;2.166882
2643.000000;2.147778
2642.000000;2.132223
2641.000000;2.131800
2640.000000;2.156621
2639.000000;2.188145
2638.000000;2.189587
2637.000000;2.157592
2636.000000;2.124961
2635.000000;2.107725
2634.000000;2.096713
2633.000000;2.087189
2632.000000;2.089500
2631.000000;2.110250
2630.000000;2.146812
2629.000000;2.187467
2628.000000;2.209783
2627.000000;2.206320
2626.000000;2.197763
2625.000000;2.197709
2624.000000;2.207553
2623.000000;2.235940
2622.000000;2.291317
2621.000000;2.355516
2620.000000;2.400085
2619.000000;2.433088
2618.000000;2.467040
2617.000000;2.488679
2616.000000;2.479122
2615.000000;2.425482
2614.000000;2.338957
2613.000000;2.260982
2612.000000;2.218685
2611.000000;2.211108
2610.000000;2.227293
2609.000000;2.249730
2608.000000;2.257216
2607.000000;2.251721
2606.000000;2.259897
2605.000000;2.290815
2604.000000;2.315061
2603.000000;2.300741
2602.000000;2.260159
2601.000000;2.217647
2600.000000;2.173452
2599.000000;2.125039
2598.000000;2.085971
2597.000000;2.071601
2596.000000;2.085635
2595.000000;2.125368
2594.000000;2.196148
2593.000000;2.310932
2592.000000;2.474091
2591.000000;2.570201
2590.000000;2.475636
2589.000000;2.370846
2588.000000;2.339628
2587.000000;2.373776
2586.000000;2.450572
2585.000000;2.538809
2584.000000;2.516983
2583.000000;2.332923
2582.000000;2.162975
2581.000000;2.052067
2580.000000;1.988170
2579.000000;1.955908
2578.000000;1.944570
2577.000000;1.950221
2576.000000;1.974682
2575.000000;2.019683
2574.000000;2.081025
2573.000000;2.150342
2572.000000;2.227511
2571.000000;2.322227
2570.000000;2.424885
2569.000000;2.433138
2568.000000;2.336038
2567.000000;2.254849
2566.000000;2.213208
2565.000000;2.186590
2564.000000;2.154898
2563.000000;2.121912
2562.000000;2.098462
2561.000000;2.079363
2560.000000;2.049429
2559.000000;2.010129
2558.000000;1.982441
2557.000000;1.979752
2556.000000;1.995201
2555.000000;2.015186
2554.000000;2.039878
2553.000000;2.081477
2552.000000;2.143923
2551.000000;2.214725
2550.000000;2.277945
2549.000000;2.323380
2548.000000;2.341314
2547.000000;2.328175
2546.000000;2.294465
2545.000000;2.264742
2544.000000;2.261075
2543.000000;2.288512
2542.000000;2.334233
2541.000000;2.373215
2540.000000;2.385567
2539.000000;2.383195
2538.000000;2.405725
2537.000000;2.475741
2536.000000;2.576286
2535.000000;2.702716
2534.000000;2.894469
2533.000000;3.015792
2532.000000;2.798397
2531.000000;2.576852
2530.000000;2.423462
2529.000000;2.340564
2528.000000;2.330920
2527.000000;2.382624
2526.000000;2.461493
2525.000000;2.509599
2524.000000;2.516379
2523.000000;2.511336
2522.000000;2.498781
2521.000000;2.490143
2520.000000;2.508814
2519.000000;2.562485
2518.000000;2.620917
2517.000000;2.637185
2516.000000;2.637101
2515.000000;2.728572
2514.000000;2.810105
2513.000000;2.546267
2512.000000;2.309435
2511.000000;2.192445
2510.000000;2.138252
2509.000000;2.107269
2508.000000;2.073015
2507.000000;2.042993
2506.000000;2.031551
2505.000000;2.044178
2504.000000;2.084665
2503.000000;2.164493
2502.000000;2.297877
2501.000000;2.457891
2500.000000;2.453446
2499.000000;2.304756
2498.000000;2.189994
2497.000000;2.132259
2496.000000;2.128754
2495.000000;2.173911
2494.000000;2.261736
2493.000000;2.382597
2492.000000;2.519109
2491.000000;2.621631
2490.000000;2.591868
2489.000000;2.470936
2488.000000;2.371130
2487.000000;2.302633
2486.000000;2.241027
2485.000000;2.176798
2484.000000;2.115791
2483.000000;2.063412
2482.000000;2.022571
2481.000000;1.994494
2480.000000;1.982508
2479.000000;1.995143
2478.000000;2.040583
2477.000000;2.115441
2476.000000;2.195999
2475.000000;2.243116
2474.000000;2.229999
2473.000000;2.165660
2472.000000;2.080298
2471.000000;2.002069
2470.000000;1.948952
2469.000000;1.926682
2468.000000;1.929954
2467.000000;1.949199
2466.000000;1.982348
2465.000000;2.039184
2464.000000;2.132130
2463.000000;2.280201
2462.000000;2.522007
2461.000000;3.019355
2460.000000;2.692139
2459.000000;2.322563
2458.000000;2.175968
2457.000000;2.091446
2456.000000;2.057624
2455.000000;2.045165
2454.000000;2.040012
2453.000000;2.033459
2452.000000;2.027898
2451.000000;2.024845
2450.000000;2.026934
2449.000000;2.035072
2448.000000;2.048611
2447.000000;2.068824
2446.000000;2.102080
2445.000000;2.158453
2444.000000;2.243008
2443.000000;2.347054
2442.000000;2.433621
2441.000000;2.451207
2440.000000;2.413914
2439.000000;2.376573
2438.000000;2.349126
2437.000000;2.306965
2436.000000;2.219703
2435.000000;2.104915
2434.000000;2.011534
2433.000000;1.954501
2432.000000;1.919951
2431.000000;1.897910
2430.000000;1.894427
2429.000000;1.917230
2428.000000;1.962187
2427.000000;2.021162
2426.000000;2.100890
2425.000000;2.225018
2424.000000;2.411413
2423.000000;2.611087
2422.000000;2.628383
2421.000000;2.516792
2420.000000;2.387085
2419.000000;2.266802
2418.000000;2.181860
2417.000000;2.133826
2416.000000;2.104123
2415.000000;2.081628
2414.000000;2.076210
2413.000000;2.090244
2412.000000;2.095203
2411.000000;2.062779
2410.000000;2.012385
2409.000000;1.978069
2408.000000;1.968243
2407.000000;1.969772
2406.000000;1.969182
2405.000000;1.968419
2404.000000;1.982199
2403.000000;2.027651
2402.000000;2.114944
2401.000000;2.239465
2400.000000;2.376528
2399.000000;2.490029
2398.000000;2.578744
2397.000000;2.702117
2396.000000;2.974505
2395.000000;3.178711
2394.000000;2.712231
2393.000000;2.477156
2392.000000;2.331052
2391.000000;2.230944
2390.000000;2.166999
2389.000000;2.140226
2388.000000;2.135671
2387.000000;2.123135
2386.000000;2.085584
2385.000000;2.039635
2384.000000;2.005689
2383.000000;1.992109
2382.000000;2.000710
2381.000000;2.038582
2380.000000;2.120622
2379.000000;2.279492
2378.000000;2.387463
2377.000000;2.195331
2376.000000;1.998852
2375.000000;1.885982
2374.000000;1.826848
2373.000000;1.803734
2372.000000;1.804926
2371.000000;1.827956
2370.000000;1.871849
2369.000000;1.927595
2368.000000;1.970949
2367.000000;1.976683
2366.000000;1.946743
2365.000000;1.895073
2364.000000;1.835684
2363.000000;1.782835
2362.000000;1.753226
2361.000000;1.759416
2360.000000;1.803353
2359.000000;1.889106
2358.000000;2.034307
2357.000000;2.263963
2356.000000;2.857088
2355.000000;2.873373
2354.000000;2.290973
2353.000000;2.079994
2352.000000;1.887596
2351.000000;1.809964
2350.000000;1.806180
2349.000000;1.827041
2348.000000;1.820340
2347.000000;1.790818
2346.000000;1.772018
2345.000000;1.777744
2344.000000;1.805623
2343.000000;1.829058
2342.000000;1.840084
2341.000000;1.838348
2340.000000;1.833492
2339.000000;1.824645
2338.000000;1.807645
2337.000000;1.790380
2336.000000;1.781882
2335.000000;1.788367
2334.000000;1.805249
2333.000000;1.830208
2332.000000;1.858929
2331.000000;1.890658
2330.000000;1.909819
2329.000000;1.927745
2328.000000;1.944742
2327.000000;1.975574
2326.000000;2.008133
2325.000000;2.024447
2324.000000;2.017040
2323.000000;2.001337
2322.000000;1.994860
2321.000000;1.972996
2320.000000;1.932311
2319.000000;1.907149
2318.000000;1.907376
2317.000000;1.914137
2316.000000;1.902279
2315.000000;1.898092
2314.000000;1.928192
2313.000000;1.981729
2312.000000;1.997681
2311.000000;1.974318
2310.000000;1.949052
2309.000000;1.932482
2308.000000;1.910929
2307.000000;1.900419
2306.000000;1.919275
2305.000000;1.978255
2304.000000;2.065833
2303.000000;2.169623
2302.000000;2.278137
2301.000000;2.407625
2300.000000;2.562604
2299.000000;2.830275
2298.000000;2.936158
2297.000000;2.536598
2296.000000;2.258929
2295.000000;2.108368
2294.000000;2.040333
2293.000000;2.033680
2292.000000;2.067926
2291.000000;2.123298
2290.000000;2.171907
2289.000000;2.198053
2288.000000;2.220342
2287.000000;2.261691
2286.000000;2.308352
2285.000000;2.322553
2284.000000;2.317839
2283.000000;2.329296
2282.000000;2.364250
2281.000000;2.435378
2280.000000;2.582836
2279.000000;2.889956
2278.000000;2.974479
2277.000000;2.603702
2276.000000;2.372437
2275.000000;2.201355
2274.000000;2.081954
2273.000000;1.996983
2272.000000;1.941775
2271.000000;1.916479
2270.000000;1.924927
2269.000000;1.964322
2268.000000;2.018555
2267.000000;2.064935
2266.000000;2.092168
2265.000000;2.108478
2264.000000;2.134206
2263.000000;2.190324
2262.000000;2.293028
2261.000000;2.454832
2260.000000;2.699850
2259.000000;2.732124
2258.000000;2.442250
2257.000000;2.261886
2256.000000;2.164899
2255.000000;2.126742
2254.000000;2.134313
2253.000000;2.185668
2252.000000;2.275220
2251.000000;2.381801
2250.000000;2.417861
2249.000000;2.332083
2248.000000;2.229707
2247.000000;2.166174
2246.000000;2.136463
2245.000000;2.124804
2244.000000;2.124054
2243.000000;2.136947
2242.000000;2.165868
2241.000000;2.216001
2240.000000;2.295614
2239.000000;2.442289
2238.000000;2.695889
2237.000000;3.323058
2236.000000;2.964392
2235.000000;2.711639
2234.000000;2.652497
2233.000000;2.690050
2232.000000;2.782997
2231.000000;2.797846
2230.000000;2.641174
2229.000000;2.462191
2228.000000;2.309973
2227.000000;2.183704
2226.000000;2.091982
2225.000000;2.045314
2224.000000;2.043544
2223.000000;2.077091
2222.000000;2.134064
2221.000000;2.210711
2220.000000;2.313855
2219.000000;2.439060
2218.000000;2.562126
2217.000000;2.679636
2216.000000;2.836459
2215.000000;3.083975
2214.000000;3.480096
2213.000000;2.858884
2212.000000;2.485618
2211.000000;2.272120
2210.000000;2.120653
2209.000000;2.020629
2208.000000;1.967092
2207.000000;1.950188
2206.000000;1.952053
2205.000000;1.962985
2204.000000;1.987790
2203.000000;2.027180
2202.000000;2.063286
2201.000000;2.078161
2200.000000;2.084364
2199.000000;2.104368
2198.000000;2.139756
2197.000000;2.182133
2196.000000;2.243072
2195.000000;2.347627
2194.000000;2.498386
2193.000000;2.663761
2192.000000;2.779051
2191.000000;2.818957
2190.000000;2.816726
2189.000000;2.755111
2188.000000;2.617336
2187.000000;2.443384
2186.000000;2.300102
2185.000000;2.223865
2184.000000;2.210518
2183.000000;2.228927
2182.000000;2.238079
2181.000000;2.218576
2180.000000;2.186443
2179.000000;2.158806
2178.000000;2.134031
2177.000000;2.111714
2176.000000;2.100981
2175.000000;2.110766
2174.000000;2.149316
2173.000000;2.216782
2172.000000;2.326579
2171.000000;2.490712
2170.000000;2.884082
2169.000000;3.415775
2168.000000;2.779790
2167.000000;2.538687
2166.000000;2.373929
2165.000000;2.277618
2164.000000;2.227409
2163.000000;2.208139
2162.000000;2.203098
2161.000000;2.215851
2160.000000;2.253157
2159.000000;2.290496
2158.000000;2.276926
2157.000000;2.216752
2156.000000;2.162605
2155.000000;2.153668
2154.000000;2.207975
2153.000000;2.326837
2152.000000;2.496945
2151.000000;2.690994
2150.000000;2.838110
2149.000000;2.879925
2148.000000;2.799161
2147.000000;2.650052
2146.000000;2.551860
2145.000000;2.511229
2144.000000;2.508568
2143.000000;2.526063
2142.000000;2.556813
2141.000000;2.615346
2140.000000;2.723981
2139.000000;2.892243
2138.000000;2.975837
2137.000000;2.839773
2136.000000;2.707541
2135.000000;2.652282
2134.000000;2.570776
2133.000000;2.421241
2132.000000;2.289565
2131.000000;2.215723
2130.000000;2.196254
2129.000000;2.212767
2128.000000;2.249286
2127.000000;2.308817
2126.000000;2.409964
2125.000000;2.571048
2124.000000;2.778848
2123.000000;2.815220
2122.000000;2.686486
2121.000000;2.625868
2120.000000;2.621290
2119.000000;2.631696
2118.000000;2.641193
2117.000000;2.628301
2116.000000;2.577130
2115.000000;2.508785
2114.000000;2.437571
2113.000000;2.385989
2112.000000;2.374696
2111.000000;2.390264
2110.000000;2.389940
2109.000000;2.340830
2108.000000;2.247608
2107.000000;2.145714
2106.000000;2.065382
2105.000000;2.020862
2104.000000;2.018883
2103.000000;2.063567
2102.000000;2.157037
2101.000000;2.304757
2100.000000;2.518134
2099.000000;2.703799
2098.000000;2.544081
2097.000000;2.346420
2096.000000;2.205323
2095.000000;2.105477
2094.000000;2.039032
2093.000000;2.003227
2092.000000;1.993759
2091.000000;2.005388
2090.000000;2.031695
2089.000000;2.066030
2088.000000;2.103979
2087.000000;2.144787
2086.000000;2.190171
2085.000000;2.235475
2084.000000;2.249818
2083.000000;2.212472
2082.000000;2.162649
2081.000000;2.134445
2080.000000;2.130812
2079.000000;2.147483
2078.000000;2.178483
2077.000000;2.215069
2076.000000;2.250116
2075.000000;2.277768
2074.000000;2.301133
2073.000000;2.345318
2072.000000;2.439033
2071.000000;2.601861
2070.000000;2.879032
2069.000000;3.503715
2068.000000;3.248965
2067.000000;2.983783
2066.000000;2.801148
2065.000000;2.642186
2064.000000;2.532771
2063.000000;2.468391
2062.000000;2.454822
2061.000000;2.499662
2060.000000;2.580242
2059.000000;2.640289
2058.000000;2.676742
2057.000000;2.697210
2056.000000;2.592198
2055.000000;2.425861
2054.000000;2.319002
2053.000000;2.280361
2052.000000;2.282972
2051.000000;2.301384
2050.000000;2.339915
2049.000000;2.413288
2048.000000;2.497194
2047.000000;2.530318
2046.000000;2.532326
2045.000000;2.559745
2044.000000;2.620368
2043.000000;2.734367
2042.000000;2.955012
2041.000000;2.925856
2040.000000;2.589731
2039.000000;2.355919
2038.000000;2.189158
2037.000000;2.069201
2036.000000;1.980485
2035.000000;1.921150
2034.000000;1.894223
2033.000000;1.903997
2032.000000;1.953989
2031.000000;2.053863
2030.000000;2.220788
2029.000000;2.474110
2028.000000;2.708950
2027.000000;2.635329
2026.000000;2.477881
2025.000000;2.388158
2024.000000;2.383694
2023.000000;2.483379
2022.000000;2.697912
2021.000000;3.000525
2020.000000;3.222052
2019.000000;3.113891
2018.000000;2.900892
2017.000000;2.749688
2016.000000;2.618219
2015.000000;2.479003
2014.000000;2.328914
2013.000000;2.184845
2012.000000;2.072804
2011.000000;1.997767
2010.000000;1.945951
2009.000000;1.906325
2008.000000;1.880671
2007.000000;1.874415
2006.000000;1.885959
2005.000000;1.909988
2004.000000;1.946743
2003.000000;2.001530
2002.000000;2.074149
2001.000000;2.147989
2000.000000;2.191861
1999.000000;2.190796
1998.000000;2.166728
1997.000000;2.147188
1996.000000;2.144886
1995.000000;2.162638
1994.000000;2.196715
1993.000000;2.249212
1992.000000;2.345904
1991.000000;2.515162
1990.000000;2.702584
1989.000000;2.682902
1988.000000;2.557764
1987.000000;2.452340
1986.000000;2.380145
1985.000000;2.337052
1984.000000;2.306714
1983.000000;2.268930
1982.000000;2.212798
1981.000000;2.148290
1980.000000;2.102344
1979.000000;2.099024
1978.000000;2.146456
1977.000000;2.232578
1976.000000;2.324290
1975.000000;2.390515
1974.000000;2.429476
1973.000000;2.454393
1972.000000;2.483576
1971.000000;2.542506
1970.000000;2.649288
1969.000000;2.773534
1968.000000;2.836446
1967.000000;2.851036
1966.000000;2.905024
1965.000000;3.140192
1964.000000;3.100140
1963.000000;2.688535
1962.000000;2.471923
1961.000000;2.360796
1960.000000;2.326744
1959.000000;2.348582
1958.000000;2.402322
1957.000000;2.456086
1956.000000;2.474966
1955.000000;2.425936
1954.000000;2.319102
1953.000000;2.201379
1952.000000;2.107624
1951.000000;2.053465
1950.000000;2.044195
1949.000000;2.077884
1948.000000;2.135042
1947.000000;2.154176
1946.000000;2.111166
1945.000000;2.074041
1944.000000;2.088840
1943.000000;2.177390
1942.000000;2.352557
1941.000000;2.611685
1940.000000;2.459654
1939.000000;2.204852
1938.000000;2.052611
1937.000000;1.969716
1936.000000;1.934911
1935.000000;1.934829
1934.000000;1.964940
1933.000000;2.031158
1932.000000;2.143761
1931.000000;2.282216
1930.000000;2.338147
1929.000000;2.291798
1928.000000;2.244143
1927.000000;2.208611
1926.000000;2.181121
1925.000000;2.167799
1924.000000;2.168868
1923.000000;2.168294
1922.000000;2.156574
1921.000000;2.147004
1920.000000;2.159719
1919.000000;2.204628
1918.000000;2.276158
1917.000000;2.338459
1916.000000;2.310036
1915.000000;2.192571
1914.000000;2.078117
1913.000000;2.010620
1912.000000;1.994888
1911.000000;2.026222
1910.000000;2.096808
1909.000000;2.188500
1908.000000;2.263171
1907.000000;2.266723
1906.000000;2.189677
1905.000000;2.093622
1904.000000;2.022524
1903.000000;1.980817
1902.000000;1.962180
1901.000000;1.970692
1900.000000;2.018326
1899.000000;2.104487
1898.000000;2.179769
1897.000000;2.181149
1896.000000;2.150423
1895.000000;2.133672
1894.000000;2.112113
1893.000000;2.072888
1892.000000;2.031711
1891.000000;1.998227
1890.000000;1.972204
1889.000000;1.956478
1888.000000;1.954096
1887.000000;1.961216
1886.000000;1.969405
1885.000000;1.977478
1884.000000;1.997415
1883.000000;2.045191
1882.000000;2.131673
1881.000000;2.265164
1880.000000;2.461589
1879.000000;2.717837
1878.000000;2.738000
1877.000000;2.523209
1876.000000;2.368682
1875.000000;2.257388
1874.000000;2.179308
1873.000000;2.123228
1872.000000;2.084711
1871.000000;2.069966
1870.000000;2.091869
1869.000000;2.146329
1868.000000;2.204664
1867.000000;2.236997
1866.000000;2.236213
1865.000000;2.206437
1864.000000;2.152382
1863.000000;2.087541
1862.000000;2.027819
1861.000000;1.983537
1860.000000;1.958704
1859.000000;1.952818
1858.000000;1.962098
1857.000000;1.978257
1856.000000;1.987006
1855.000000;1.976273
1854.000000;1.949394
1853.000000;1.917716
1852.000000;1.890614
1851.000000;1.876646
1850.000000;1.885824
1849.000000;1.922229
1848.000000;1.976408
1847.000000;2.037436
1846.000000;2.114737
1845.000000;2.230537
1844.000000;2.380961
1843.000000;2.475656
1842.000000;2.426678
1841.000000;2.312118
1840.000000;2.207353
1839.000000;2.132997
1838.000000;2.090197
1837.000000;2.073123
1836.000000;2.075775
1835.000000;2.091711
1834.000000;2.111062
1833.000000;2.125027
1832.000000;2.132602
1831.000000;2.137602
1830.000000;2.147211
1829.000000;2.165123
1828.000000;2.189163
1827.000000;2.207903
1826.000000;2.206169
1825.000000;2.198772
1824.000000;2.208871
1823.000000;2.238030
1822.000000;2.279646
1821.000000;2.312310
1820.000000;2.296642
1819.000000;2.241511
1818.000000;2.198651
1817.000000;2.191592
1816.000000;2.212685
1815.000000;2.242332
1814.000000;2.297007
1813.000000;2.412357
1812.000000;2.688646
1811.000000;2.819840
1810.000000;2.552317
1809.000000;2.378277
1808.000000;2.271279
1807.000000;2.195505
1806.000000;2.149671
1805.000000;2.134709
1804.000000;2.149206
1803.000000;2.189913
1802.000000;2.246980
1801.000000;2.296593
1800.000000;2.322386
1799.000000;2.345275
1798.000000;2.399693
1797.000000;2.507378
1796.000000;2.588717
1795.000000;2.507206
1794.000000;2.408173
1793.000000;2.374191
1792.000000;2.397263
1791.000000;2.468854
1790.000000;2.613628
1789.000000;2.768397
1788.000000;2.623640
1787.000000;2.423476
1786.000000;2.311385
1785.000000;2.235031
1784.000000;2.170796
1783.000000;2.111455
1782.000000;2.063978
1781.000000;2.036027
1780.000000;2.029738
1779.000000;2.041102
1778.000000;2.062287
1777.000000;2.079962
1776.000000;2.081189
1775.000000;2.073657
1774.000000;2.084746
1773.000000;2.130930
1772.000000;2.193135
1771.000000;2.239572
1770.000000;2.273143
1769.000000;2.329344
1768.000000;2.445257
1767.000000;2.658377
1766.000000;2.950353
1765.000000;2.857914
1764.000000;2.603990
1763.000000;2.460976
1762.000000;2.367115
1761.000000;2.312572
1760.000000;2.290876
1759.000000;2.299075
1758.000000;2.315049
1757.000000;2.321269
1756.000000;2.328458
1755.000000;2.353261
1754.000000;2.385896
1753.000000;2.389304
1752.000000;2.347623
1751.000000;2.286684
1750.000000;2.224539
1749.000000;2.168194
1748.000000;2.127183
1747.000000;2.110872
1746.000000;2.125483
1745.000000;2.174853
1744.000000;2.258551
1743.000000;2.359015
1742.000000;2.422787
1741.000000;2.412874
1740.000000;2.360417
1739.000000;2.297130
1738.000000;2.227974
1737.000000;2.154186
1736.000000;2.093367
1735.000000;2.074359
1734.000000;2.097169
1733.000000;2.120339
1732.000000;2.123873
1731.000000;2.127012
1730.000000;2.147974
1729.000000;2.183017
1728.000000;2.213030
1727.000000;2.229523
1726.000000;2.237144
1725.000000;2.237665
1724.000000;2.234864
1723.000000;2.243373
1722.000000;2.282201
1721.000000;2.370042
1720.000000;2.503412
1719.000000;2.545216
1718.000000;2.426946
1717.000000;2.303868
1716.000000;2.201262
1715.000000;2.127334
1714.000000;2.089828
1713.000000;2.085302
1712.000000;2.104199
1711.000000;2.146056
1710.000000;2.219335
1709.000000;2.319651
1708.000000;2.417092
1707.000000;2.493153
1706.000000;2.556788
1705.000000;2.628118
1704.000000;2.741940
1703.000000;2.800382
1702.000000;2.665967
1701.000000;2.552324
1700.000000;2.531404
1699.000000;2.540179
1698.000000;2.553875
1697.000000;2.602152
1696.000000;2.719088
1695.000000;2.817642
1694.000000;2.724776
1693.000000;2.646082
1692.000000;2.689375
1691.000000;2.933034
1690.000000;3.063357
1689.000000;2.650997
1688.000000;2.446463
1687.000000;2.313832
1686.000000;2.250181
1685.000000;2.265418
1684.000000;2.334771
1683.000000;2.383909
1682.000000;2.396793
1681.000000;2.405620
1680.000000;2.450853
1679.000000;2.550493
1678.000000;2.808806
1677.000000;2.819497
1676.000000;2.520801
1675.000000;2.369809
1674.000000;2.298648
1673.000000;2.260912
1672.000000;2.248780
1671.000000;2.268620
1670.000000;2.300769
1669.000000;2.298990
1668.000000;2.260968
1667.000000;2.224258
1666.000000;2.208057
1665.000000;2.202466
1664.000000;2.197048
1663.000000;2.196148
1662.000000;2.197574
1661.000000;2.196556
1660.000000;2.195897
1659.000000;2.205558
1658.000000;2.245768
1657.000000;2.339021
1656.000000;2.520387
1655.000000;2.791432
1654.000000;2.704524
1653.000000;2.534013
1652.000000;2.460705
1651.000000;2.429166
1650.000000;2.441514
1649.000000;2.446373
1648.000000;2.424828
1647.000000;2.400863
1646.000000;2.380848
1645.000000;2.362522
1644.000000;2.362408
1643.000000;2.394186
1642.000000;2.454409
1641.000000;2.530009
1640.000000;2.610251
1639.000000;2.675331
1638.000000;2.655292
1637.000000;2.583063
1636.000000;2.551541
1635.000000;2.558558
1634.000000;2.582517
1633.000000;2.589639
1632.000000;2.544266
1631.000000;2.479549
1630.000000;2.430632
1629.000000;2.399878
1628.000000;2.393820
1627.000000;2.421347
1626.000000;2.475737
1625.000000;2.548081
1624.000000;2.648343
1623.000000;2.793785
1622.000000;2.934949
1621.000000;2.908384
1620.000000;2.817015
1619.000000;2.803773
1618.000000;2.779591
1617.000000;2.610878
1616.000000;2.464156
1615.000000;2.366113
1614.000000;2.288833
1613.000000;2.225786
1612.000000;2.192214
1611.000000;2.201302
1610.000000;2.240349
1609.000000;2.278976
1608.000000;2.294935
1607.000000;2.278290
1606.000000;2.229424
1605.000000;2.179204
1604.000000;2.162526
1603.000000;2.190823
1602.000000;2.259943
1601.000000;2.346203
1600.000000;2.354557
1599.000000;2.259383
1598.000000;2.166361
1597.000000;2.114178
1596.000000;2.096373
1595.000000;2.100946
1594.000000;2.123186
1593.000000;2.169905
1592.000000;2.252157
1591.000000;2.376146
1590.000000;2.508473
1589.000000;2.550240
1588.000000;2.521129
1587.000000;2.524690
1586.000000;2.613521
1585.000000;2.738653
1584.000000;2.648813
1583.000000;2.448230
1582.000000;2.297674
1581.000000;2.204363
1580.000000;2.152042
1579.000000;2.118731
1578.000000;2.099139
1577.000000;2.110467
1576.000000;2.161093
1575.000000;2.235363
1574.000000;2.316904
1573.000000;2.385320
1572.000000;2.436325
1571.000000;2.498438
1570.000000;2.558980
1569.000000;2.559604
1568.000000;2.511276
1567.000000;2.471672
1566.000000;2.460996
1565.000000;2.477772
1564.000000;2.532711
1563.000000;2.626537
1562.000000;2.725807
1561.000000;2.679355
1560.000000;2.572958
1559.000000;2.568588
1558.000000;2.571421
1557.000000;2.521691
1556.000000;2.426501
1555.000000;2.324229
1554.000000;2.264555
1553.000000;2.264471
1552.000000;2.318146
1551.000000;2.396330
1550.000000;2.431686
1549.000000;2.391235
1548.000000;2.313939
1547.000000;2.227618
1546.000000;2.154850
1545.000000;2.112761
1544.000000;2.099471
1543.000000;2.100418
1542.000000;2.114674
1541.000000;2.153290
1540.000000;2.199139
1539.000000;2.215060
1538.000000;2.212340
1537.000000;2.219073
1536.000000;2.240439
1535.000000;2.283074
1534.000000;2.363737
1533.000000;2.478356
1532.000000;2.581236
1531.000000;2.606913
1530.000000;2.560609
1529.000000;2.470916
1528.000000;2.370369
1527.000000;2.296796
1526.000000;2.245605
1525.000000;2.193089
1524.000000;2.131871
1523.000000;2.078648
1522.000000;2.053019
1521.000000;2.053635
1520.000000;2.064849
1519.000000;2.075450
1518.000000;2.082856
1517.000000;2.092387
1516.000000;2.107153
1515.000000;2.128410
1514.000000;2.161163
1513.000000;2.214373
1512.000000;2.299886
1511.000000;2.430751
1510.000000;2.624272
1509.000000;2.921024
1508.000000;3.373276
1507.000000;3.790343
1506.000000;3.466284
1505.000000;3.109815
1504.000000;2.783506
1503.000000;2.560385
1502.000000;2.442317
1501.000000;2.414040
1500.000000;2.468589
1499.000000;2.616748
1498.000000;2.927092
1497.000000;2.963273
1496.000000;2.663805
1495.000000;2.543671
1494.000000;2.452657
1493.000000;2.370191
1492.000000;2.309727
1491.000000;2.305147
1490.000000;2.346137
1489.000000;2.392349
1488.000000;2.415329
1487.000000;2.413975
1486.000000;2.409032
1485.000000;2.407879
1484.000000;2.452654
1483.000000;2.573544
1482.000000;3.149179
1481.000000;2.767600
1480.000000;2.354327
1479.000000;2.167185
1478.000000;2.071720
1477.000000;2.028016
1476.000000;2.015419
1475.000000;2.031588
1474.000000;2.088067
1473.000000;2.210555
1472.000000;2.395628
1471.000000;2.806404
1470.000000;3.071295
1469.000000;2.471773
1468.000000;2.281763
1467.000000;2.188856
1466.000000;2.181989
1465.000000;2.203727
1464.000000;2.224298
1463.000000;2.232648
1462.000000;2.270473
1461.000000;2.376659
1460.000000;2.590272
1459.000000;2.654465
1458.000000;2.427371
1457.000000;2.261986
1456.000000;2.166627
1455.000000;2.118050
1454.000000;2.103499
1453.000000;2.109589
1452.000000;2.128013
1451.000000;2.146511
1450.000000;2.155711
1449.000000;2.168269
1448.000000;2.205967
1447.000000;2.275131
1446.000000;2.352454
1445.000000;2.371201
1444.000000;2.301307
1443.000000;2.224669
1442.000000;2.194135
1441.000000;2.197650
1440.000000;2.195361
1439.000000;2.181299
1438.000000;2.193758
1437.000000;2.262544
1436.000000;2.382140
1435.000000;2.520603
1434.000000;2.605572
1433.000000;2.573102
1432.000000;2.510010
1431.000000;2.495198
1430.000000;2.543156
1429.000000;2.649365
1428.000000;2.801863
1427.000000;2.783139
1426.000000;2.565068
1425.000000;2.425712
1424.000000;2.392252
1423.000000;2.446938
1422.000000;2.576184
1421.000000;2.640142
1420.000000;2.429877
1419.000000;2.229878
1418.000000;2.107047
1417.000000;2.037235
1416.000000;2.002259
1415.000000;1.991249
1414.000000;2.001328
1413.000000;2.032220
1412.000000;2.071438
1411.000000;2.099357
1410.000000;2.114084
1409.000000;2.131555
1408.000000;2.154138
1407.000000;2.159277
1406.000000;2.137953
1405.000000;2.109687
1404.000000;2.094881
1403.000000;2.108565
1402.000000;2.158853
1401.000000;2.232122
1400.000000;2.248739
1399.000000;2.150867
1398.000000;2.028401
1397.000000;1.929194
1396.000000;1.858741
1395.000000;1.821545
1394.000000;1.819515
1393.000000;1.846486
1392.000000;1.890927
1391.000000;1.947779
1390.000000;2.030080
1389.000000;2.162321
1388.000000;2.352444
1387.000000;2.553643
1386.000000;2.683467
1385.000000;2.758098
1384.000000;2.669413
1383.000000;2.435752
1382.000000;2.252265
1381.000000;2.134819
1380.000000;2.068130
1379.000000;2.053974
1378.000000;2.089413
1377.000000;2.153568
1376.000000;2.225002
1375.000000;2.296149
1374.000000;2.365244
1373.000000;2.418295
1372.000000;2.445032
1371.000000;2.472799
1370.000000;2.533737
1369.000000;2.668242
1368.000000;2.900681
1367.000000;2.798894
1366.000000;2.527638
1365.000000;2.405901
1364.000000;2.367587
1363.000000;2.372177
1362.000000;2.388519
1361.000000;2.414216
1360.000000;2.455818
1359.000000;2.526053
1358.000000;2.650555
1357.000000;2.805895
1356.000000;2.677233
1355.000000;2.473608
1354.000000;2.376779
1353.000000;2.336647
1352.000000;2.320971
1351.000000;2.317829
1350.000000;2.309383
1349.000000;2.263545
1348.000000;2.199144
1347.000000;2.155459
1346.000000;2.151926
1345.000000;2.196754
1344.000000;2.288719
1343.000000;2.399033
1342.000000;2.458631
1341.000000;2.453330
1340.000000;2.438676
1339.000000;2.438714
1338.000000;2.416645
1337.000000;2.332480
1336.000000;2.225129
1335.000000;2.118709
1334.000000;2.012767
1333.000000;1.919319
1332.000000;1.852707
1331.000000;1.815640
1330.000000;1.803047
1329.000000;1.810817
1328.000000;1.835177
1327.000000;1.866212
1326.000000;1.893350
1325.000000;1.923394
1324.000000;1.979615
1323.000000;2.082578
1322.000000;2.234689
1321.000000;2.425807
1320.000000;2.656637
1319.000000;3.002352
1318.000000;2.961067
1317.000000;2.674608
1316.000000;2.488008
1315.000000;2.329995
1314.000000;2.199436
1313.000000;2.113727
1312.000000;2.083078
1311.000000;2.101293
1310.000000;2.161493
1309.000000;2.268887
1308.000000;2.477911
1307.000000;2.764843
1306.000000;2.586759
1305.000000;2.348777
1304.000000;2.251496
1303.000000;2.211509
1302.000000;2.198722
1301.000000;2.185328
1300.000000;2.174890
1299.000000;2.182301
1298.000000;2.221917
1297.000000;2.286162
1296.000000;2.330105
1295.000000;2.334204
1294.000000;2.351547
1293.000000;2.426121
1292.000000;2.555962
1291.000000;2.714842
1290.000000;2.950014
1289.000000;3.121270
1288.000000;2.783716
1287.000000;2.614397
1286.000000;2.534506
1285.000000;2.483813
1284.000000;2.427396
1283.000000;2.376757
1282.000000;2.356518
1281.000000;2.391189
1280.000000;2.494667
1279.000000;2.620927
1278.000000;2.595208
1277.000000;2.466519
1276.000000;2.369350
1275.000000;2.304910
1274.000000;2.268112
1273.000000;2.263121
1272.000000;2.285792
1271.000000;2.309132
1270.000000;2.324740
1269.000000;2.362908
1268.000000;2.435568
1267.000000;2.455330
1266.000000;2.376188
1265.000000;2.327886
1264.000000;2.370597
1263.000000;2.445955
1262.000000;2.407802
1261.000000;2.335174
1260.000000;2.335731
1259.000000;2.438888
1258.000000;2.741679
1257.000000;2.831253
1256.000000;2.426192
1255.000000;2.276532
1254.000000;2.202983
1253.000000;2.169553
1252.000000;2.136937
1251.000000;2.100034
1250.000000;2.057810
1249.000000;2.023072
1248.000000;2.006639
1247.000000;2.013224
1246.000000;2.050979
1245.000000;2.130401
1244.000000;2.274240
1243.000000;2.504013
1242.000000;2.903247
1241.000000;2.662035
1240.000000;2.440212
1239.000000;2.385289
1238.000000;2.403715
1237.000000;2.435141
1236.000000;2.437175
1235.000000;2.392034
1234.000000;2.294035
1233.000000;2.170554
1232.000000;2.070711
1231.000000;2.024921
1230.000000;2.037261
1229.000000;2.094699
1228.000000;2.171380
1227.000000;2.221640
1226.000000;2.218535
1225.000000;2.202048
1224.000000;2.207772
1223.000000;2.236369
1222.000000;2.278222
1221.000000;2.320529
1220.000000;2.338940
1219.000000;2.314200
1218.000000;2.264270
1217.000000;2.199012
1216.000000;2.114438
1215.000000;2.032385
1214.000000;1.979499
1213.000000;1.964373
1212.000000;1.982237
1211.000000;2.027105
1210.000000;2.102137
1209.000000;2.233319
1208.000000;2.512921
1207.000000;2.808089
1206.000000;2.358209
1205.000000;2.178596
1204.000000;2.099410
1203.000000;2.085071
1202.000000;2.111363
1201.000000;2.194094
1200.000000;2.345535
