Criado como novo conjunto de dados;"0307_DANIEL.spp","19262.8 Secs"
cm-1;Abs
10000.000000;0.954570
9999.000000;0.954106
9998.000000;0.953630
9997.000000;0.953184
9996.000000;0.952526
9995.000000;0.951269
9994.000000;0.949541
9993.000000;0.947807
9992.000000;0.946449
9991.000000;0.945575
9990.000000;0.945016
9989.000000;0.944434
9988.000000;0.943497
9987.000000;0.942101
9986.000000;0.940420
9985.000000;0.938706
9984.000000;0.937105
9983.000000;0.935719
9982.000000;0.934686
9981.000000;0.934008
9980.000000;0.933361
9979.000000;0.932277
9978.000000;0.930599
9977.000000;0.928661
9976.000000;0.926988
9975.000000;0.925882
9974.000000;0.925272
9973.000000;0.924841
9972.000000;0.924261
9971.000000;0.923360
9970.000000;0.922137
9969.000000;0.920655
9968.000000;0.918989
9967.000000;0.917310
9966.000000;0.915899
9965.000000;0.914920
9964.000000;0.914235
9963.000000;0.913528
9962.000000;0.912627
9961.000000;0.911573
9960.000000;0.910429
9959.000000;0.909160
9958.000000;0.907737
9957.000000;0.906205
9956.000000;0.904607
9955.000000;0.902976
9954.000000;0.901420
9953.000000;0.900112
9952.000000;0.899075
9951.000000;0.898071
9950.000000;0.896773
9949.000000;0.895037
9948.000000;0.893011
9947.000000;0.891071
9946.000000;0.889654
9945.000000;0.888954
9944.000000;0.888641
9943.000000;0.888017
9942.000000;0.886649
9941.000000;0.884841
9940.000000;0.883307
9939.000000;0.882417
9938.000000;0.881874
9937.000000;0.881119
9936.000000;0.879909
9935.000000;0.878418
9934.000000;0.876940
9933.000000;0.875623
9932.000000;0.874466
9931.000000;0.873402
9930.000000;0.872351
9929.000000;0.871270
9928.000000;0.870229
9927.000000;0.869392
9926.000000;0.868797
9925.000000;0.868172
9924.000000;0.867077
9923.000000;0.865366
9922.000000;0.863422
9921.000000;0.861796
9920.000000;0.860610
9919.000000;0.859439
9918.000000;0.857857
9917.000000;0.855960
9916.000000;0.854230
9915.000000;0.852952
9914.000000;0.851941
9913.000000;0.850851
9912.000000;0.849551
9911.000000;0.848115
9910.000000;0.846581
9909.000000;0.844910
9908.000000;0.843201
9907.000000;0.841741
9906.000000;0.840755
9905.000000;0.840135
9904.000000;0.839499
9903.000000;0.838524
9902.000000;0.837157
9901.000000;0.835536
9900.000000;0.833816
9899.000000;0.832125
9898.000000;0.830591
9897.000000;0.829282
9896.000000;0.828106
9895.000000;0.826863
9894.000000;0.825440
9893.000000;0.823902
9892.000000;0.822345
9891.000000;0.820727
9890.000000;0.818964
9889.000000;0.817182
9888.000000;0.815712
9887.000000;0.814750
9886.000000;0.814052
9885.000000;0.813090
9884.000000;0.811530
9883.000000;0.809527
9882.000000;0.807566
9881.000000;0.806067
9880.000000;0.805129
9879.000000;0.804524
9878.000000;0.803870
9877.000000;0.802858
9876.000000;0.801435
9875.000000;0.799796
9874.000000;0.798174
9873.000000;0.796653
9872.000000;0.795167
9871.000000;0.793626
9870.000000;0.792017
9869.000000;0.790415
9868.000000;0.788926
9867.000000;0.787587
9866.000000;0.786303
9865.000000;0.784985
9864.000000;0.783729
9863.000000;0.782729
9862.000000;0.781920
9861.000000;0.780877
9860.000000;0.779265
9859.000000;0.777289
9858.000000;0.775471
9857.000000;0.774017
9856.000000;0.772621
9855.000000;0.770947
9854.000000;0.769050
9853.000000;0.767257
9852.000000;0.765815
9851.000000;0.764762
9850.000000;0.763953
9849.000000;0.763051
9848.000000;0.761650
9847.000000;0.759616
9846.000000;0.757279
9845.000000;0.755169
9844.000000;0.753587
9843.000000;0.752481
9842.000000;0.751607
9841.000000;0.750659
9840.000000;0.749377
9839.000000;0.747730
9838.000000;0.745992
9837.000000;0.744476
9836.000000;0.743163
9835.000000;0.741735
9834.000000;0.739990
9833.000000;0.738087
9832.000000;0.736367
9831.000000;0.735001
9830.000000;0.733863
9829.000000;0.732685
9828.000000;0.731301
9827.000000;0.729772
9826.000000;0.728256
9825.000000;0.726768
9824.000000;0.725146
9823.000000;0.723342
9822.000000;0.721612
9821.000000;0.720276
9820.000000;0.719320
9819.000000;0.718367
9818.000000;0.717046
9817.000000;0.715301
9816.000000;0.713351
9815.000000;0.711464
9814.000000;0.709791
9813.000000;0.708293
9812.000000;0.706809
9811.000000;0.705244
9810.000000;0.703646
9809.000000;0.702040
9808.000000;0.700298
9807.000000;0.698345
9806.000000;0.696401
9805.000000;0.694800
9804.000000;0.693552
9803.000000;0.692278
9802.000000;0.690644
9801.000000;0.688696
9800.000000;0.686726
9799.000000;0.684999
9798.000000;0.683640
9797.000000;0.682584
9796.000000;0.681520
9795.000000;0.680078
9794.000000;0.678211
9793.000000;0.676248
9792.000000;0.674468
9791.000000;0.672789
9790.000000;0.671032
9789.000000;0.669305
9788.000000;0.667905
9787.000000;0.666898
9786.000000;0.666033
9785.000000;0.665006
9784.000000;0.663632
9783.000000;0.661793
9782.000000;0.659488
9781.000000;0.657001
9780.000000;0.654812
9779.000000;0.653193
9778.000000;0.651972
9777.000000;0.650756
9776.000000;0.649296
9775.000000;0.647590
9774.000000;0.645737
9773.000000;0.643837
9772.000000;0.641996
9771.000000;0.640299
9770.000000;0.638733
9769.000000;0.637186
9768.000000;0.635561
9767.000000;0.633878
9766.000000;0.632238
9765.000000;0.630694
9764.000000;0.629194
9763.000000;0.627633
9762.000000;0.625974
9761.000000;0.624271
9760.000000;0.622575
9759.000000;0.620836
9758.000000;0.618929
9757.000000;0.616811
9756.000000;0.614642
9755.000000;0.612692
9754.000000;0.611086
9753.000000;0.609654
9752.000000;0.608125
9751.000000;0.606469
9750.000000;0.604960
9749.000000;0.603811
9748.000000;0.602848
9747.000000;0.601640
9746.000000;0.599922
9745.000000;0.597782
9744.000000;0.595489
9743.000000;0.593312
9742.000000;0.591457
9741.000000;0.589952
9740.000000;0.588495
9739.000000;0.586615
9738.000000;0.584150
9737.000000;0.581463
9736.000000;0.579085
9735.000000;0.577232
9734.000000;0.575769
9733.000000;0.574507
9732.000000;0.573329
9731.000000;0.572078
9730.000000;0.570529
9729.000000;0.568557
9728.000000;0.566241
9727.000000;0.563793
9726.000000;0.561448
9725.000000;0.559388
9724.000000;0.557639
9723.000000;0.556014
9722.000000;0.554271
9721.000000;0.552349
9720.000000;0.550391
9719.000000;0.548532
9718.000000;0.546768
9717.000000;0.545029
9716.000000;0.543285
9715.000000;0.541528
9714.000000;0.539730
9713.000000;0.537885
9712.000000;0.536053
9711.000000;0.534288
9710.000000;0.532561
9709.000000;0.530766
9708.000000;0.528811
9707.000000;0.526695
9706.000000;0.524526
9705.000000;0.522433
9704.000000;0.520438
9703.000000;0.518434
9702.000000;0.516348
9701.000000;0.514297
9700.000000;0.512483
9699.000000;0.510928
9698.000000;0.509390
9697.000000;0.507583
9696.000000;0.505435
9695.000000;0.503108
9694.000000;0.500797
9693.000000;0.498562
9692.000000;0.496351
9691.000000;0.494159
9690.000000;0.492112
9689.000000;0.490338
9688.000000;0.488732
9687.000000;0.486969
9686.000000;0.484843
9685.000000;0.482528
9684.000000;0.480407
9683.000000;0.478674
9682.000000;0.477214
9681.000000;0.475787
9680.000000;0.474194
9679.000000;0.472314
9678.000000;0.470180
9677.000000;0.468023
9676.000000;0.466052
9675.000000;0.464142
9674.000000;0.461962
9673.000000;0.459490
9672.000000;0.457149
9671.000000;0.455273
9670.000000;0.453655
9669.000000;0.451860
9668.000000;0.449832
9667.000000;0.447899
9666.000000;0.446201
9665.000000;0.444456
9664.000000;0.442354
9663.000000;0.439942
9662.000000;0.437486
9661.000000;0.435123
9660.000000;0.432813
9659.000000;0.430523
9658.000000;0.428298
9657.000000;0.426177
9656.000000;0.424159
9655.000000;0.422244
9654.000000;0.420412
9653.000000;0.418565
9652.000000;0.416561
9651.000000;0.414339
9650.000000;0.411993
9649.000000;0.409714
9648.000000;0.407648
9647.000000;0.405767
9646.000000;0.403858
9645.000000;0.401682
9644.000000;0.399209
9643.000000;0.396682
9642.000000;0.394384
9641.000000;0.392332
9640.000000;0.390246
9639.000000;0.387876
9638.000000;0.385330
9637.000000;0.382990
9636.000000;0.381099
9635.000000;0.379503
9634.000000;0.377855
9633.000000;0.375978
9632.000000;0.373920
9631.000000;0.371720
9630.000000;0.369303
9629.000000;0.366663
9628.000000;0.363971
9627.000000;0.361388
9626.000000;0.358876
9625.000000;0.356348
9624.000000;0.353901
9623.000000;0.351726
9622.000000;0.349836
9621.000000;0.348028
9620.000000;0.346127
9619.000000;0.344107
9618.000000;0.341968
9617.000000;0.339692
9616.000000;0.337378
9615.000000;0.335242
9614.000000;0.333348
9613.000000;0.331449
9612.000000;0.329239
9611.000000;0.326681
9610.000000;0.323987
9609.000000;0.321379
9608.000000;0.318973
9607.000000;0.316806
9606.000000;0.314811
9605.000000;0.312773
9604.000000;0.310487
9603.000000;0.307965
9602.000000;0.305398
9601.000000;0.302899
9600.000000;0.300423
9599.000000;0.297945
9598.000000;0.295568
9597.000000;0.293362
9596.000000;0.291209
9595.000000;0.288928
9594.000000;0.286521
9593.000000;0.284159
9592.000000;0.281953
9591.000000;0.279831
9590.000000;0.277665
9589.000000;0.275434
9588.000000;0.273192
9587.000000;0.270937
9586.000000;0.268594
9585.000000;0.266150
9584.000000;0.263728
9583.000000;0.261470
9582.000000;0.259359
9581.000000;0.257212
9580.000000;0.254850
9579.000000;0.252231
9578.000000;0.249436
9577.000000;0.246591
9576.000000;0.243860
9575.000000;0.241422
9574.000000;0.239346
9573.000000;0.237471
9572.000000;0.235508
9571.000000;0.233298
9570.000000;0.230937
9569.000000;0.228612
9568.000000;0.226397
9567.000000;0.224230
9566.000000;0.222059
9565.000000;0.219900
9564.000000;0.217749
9563.000000;0.215503
9562.000000;0.213032
9561.000000;0.210313
9560.000000;0.207452
9559.000000;0.204634
9558.000000;0.202073
9557.000000;0.199957
9556.000000;0.198285
9555.000000;0.196733
9554.000000;0.194819
9553.000000;0.192324
9552.000000;0.189495
9551.000000;0.186750
9550.000000;0.184259
9549.000000;0.181928
9548.000000;0.179715
9547.000000;0.177749
9546.000000;0.176086
9545.000000;0.174528
9544.000000;0.172794
9543.000000;0.170761
9542.000000;0.168448
9541.000000;0.165884
9540.000000;0.163156
9539.000000;0.160513
9538.000000;0.158224
9537.000000;0.156306
9536.000000;0.154477
9535.000000;0.152437
9534.000000;0.150137
9533.000000;0.147772
9532.000000;0.145528
9531.000000;0.143393
9530.000000;0.141210
9529.000000;0.138921
9528.000000;0.136687
9527.000000;0.134687
9526.000000;0.132827
9525.000000;0.130803
9524.000000;0.128506
9523.000000;0.126196
9522.000000;0.124177
9521.000000;0.122427
9520.000000;0.120701
9519.000000;0.118868
9518.000000;0.116976
9517.000000;0.115071
9516.000000;0.113172
9515.000000;0.111367
9514.000000;0.109714
9513.000000;0.108067
9512.000000;0.106219
9511.000000;0.104234
9510.000000;0.102392
9509.000000;0.100768
9508.000000;0.099100
9507.000000;0.097161
9506.000000;0.095031
9505.000000;0.092880
9504.000000;0.090700
9503.000000;0.088456
9502.000000;0.086332
9501.000000;0.084594
9500.000000;0.083228
9499.000000;0.081923
9498.000000;0.080397
9497.000000;0.078659
9496.000000;0.076955
9495.000000;0.075542
9494.000000;0.074475
9493.000000;0.073536
9492.000000;0.072414
9491.000000;0.071030
9490.000000;0.069618
9489.000000;0.068410
9488.000000;0.067345
9487.000000;0.066200
9486.000000;0.064913
9485.000000;0.063613
9484.000000;0.062357
9483.000000;0.061039
9482.000000;0.059579
9481.000000;0.058081
9480.000000;0.056722
9479.000000;0.055567
9478.000000;0.054527
9477.000000;0.053472
9476.000000;0.052355
9475.000000;0.051239
9474.000000;0.050232
9473.000000;0.049401
9472.000000;0.048752
9471.000000;0.048259
9470.000000;0.047841
9469.000000;0.047285
9468.000000;0.046342
9467.000000;0.044972
9466.000000;0.043469
9465.000000;0.042230
9464.000000;0.041447
9463.000000;0.041026
9462.000000;0.040721
9461.000000;0.040299
9460.000000;0.039649
9459.000000;0.038843
9458.000000;0.038059
9457.000000;0.037367
9456.000000;0.036672
9455.000000;0.035931
9454.000000;0.035323
9453.000000;0.035068
9452.000000;0.035111
9451.000000;0.035124
9450.000000;0.034833
9449.000000;0.034266
9448.000000;0.033696
9447.000000;0.033387
9446.000000;0.033383
9445.000000;0.033479
9444.000000;0.033442
9443.000000;0.033280
9442.000000;0.033229
9441.000000;0.033412
9440.000000;0.033640
9439.000000;0.033670
9438.000000;0.033543
9437.000000;0.033501
9436.000000;0.033646
9435.000000;0.033861
9434.000000;0.034016
9433.000000;0.034072
9432.000000;0.034000
9431.000000;0.033784
9430.000000;0.033538
9429.000000;0.033475
9428.000000;0.033714
9427.000000;0.034221
9426.000000;0.034928
9425.000000;0.035780
9424.000000;0.036653
9423.000000;0.037379
9422.000000;0.037912
9421.000000;0.038379
9420.000000;0.038933
9419.000000;0.039634
9418.000000;0.040437
9417.000000;0.041179
9416.000000;0.041596
9415.000000;0.041552
9414.000000;0.041295
9413.000000;0.041333
9412.000000;0.041996
9411.000000;0.043183
9410.000000;0.044559
9409.000000;0.045837
9408.000000;0.046837
9407.000000;0.047488
9406.000000;0.047906
9405.000000;0.048359
9404.000000;0.049019
9403.000000;0.049805
9402.000000;0.050556
9401.000000;0.051276
9400.000000;0.052105
9399.000000;0.053113
9398.000000;0.054221
9397.000000;0.055288
9396.000000;0.056196
9395.000000;0.056903
9394.000000;0.057505
9393.000000;0.058208
9392.000000;0.059129
9391.000000;0.060171
9390.000000;0.061160
9389.000000;0.062074
9388.000000;0.063045
9387.000000;0.064142
9386.000000;0.065267
9385.000000;0.066290
9384.000000;0.067213
9383.000000;0.068136
9382.000000;0.069130
9381.000000;0.070180
9380.000000;0.071240
9379.000000;0.072292
9378.000000;0.073354
9377.000000;0.074448
9376.000000;0.075575
9375.000000;0.076699
9374.000000;0.077764
9373.000000;0.078760
9372.000000;0.079779
9371.000000;0.080967
9370.000000;0.082348
9369.000000;0.083742
9368.000000;0.084930
9367.000000;0.085917
9366.000000;0.086926
9365.000000;0.088125
9364.000000;0.089443
9363.000000;0.090725
9362.000000;0.091943
9361.000000;0.093145
9360.000000;0.094289
9359.000000;0.095284
9358.000000;0.096162
9357.000000;0.097074
9356.000000;0.098120
9355.000000;0.099297
9354.000000;0.100610
9353.000000;0.102081
9352.000000;0.103625
9351.000000;0.105057
9350.000000;0.106257
9349.000000;0.107254
9348.000000;0.108140
9347.000000;0.109026
9346.000000;0.110088
9345.000000;0.111481
9344.000000;0.113113
9343.000000;0.114633
9342.000000;0.115764
9341.000000;0.116581
9340.000000;0.117378
9339.000000;0.118335
9338.000000;0.119444
9337.000000;0.120661
9336.000000;0.121980
9335.000000;0.123343
9334.000000;0.124632
9333.000000;0.125806
9332.000000;0.126962
9331.000000;0.128213
9330.000000;0.129517
9329.000000;0.130689
9328.000000;0.131591
9327.000000;0.132289
9326.000000;0.133020
9325.000000;0.134000
9324.000000;0.135269
9323.000000;0.136718
9322.000000;0.138205
9321.000000;0.139633
9320.000000;0.140944
9319.000000;0.142130
9318.000000;0.143257
9317.000000;0.144413
9316.000000;0.145588
9315.000000;0.146664
9314.000000;0.147564
9313.000000;0.148373
9312.000000;0.149293
9311.000000;0.150485
9310.000000;0.151966
9309.000000;0.153609
9308.000000;0.155199
9307.000000;0.156537
9306.000000;0.157557
9305.000000;0.158376
9304.000000;0.159229
9303.000000;0.160314
9302.000000;0.161641
9301.000000;0.162995
9300.000000;0.164091
9299.000000;0.164841
9298.000000;0.165462
9297.000000;0.166250
9296.000000;0.167279
9295.000000;0.168390
9294.000000;0.169447
9293.000000;0.170477
9292.000000;0.171568
9291.000000;0.172746
9290.000000;0.174012
9289.000000;0.175368
9288.000000;0.176734
9287.000000;0.177957
9286.000000;0.178986
9285.000000;0.179963
9284.000000;0.181027
9283.000000;0.182121
9282.000000;0.183105
9281.000000;0.184005
9280.000000;0.185006
9279.000000;0.186201
9278.000000;0.187469
9277.000000;0.188631
9276.000000;0.189624
9275.000000;0.190515
9274.000000;0.191400
9273.000000;0.192327
9272.000000;0.193271
9271.000000;0.194190
9270.000000;0.195119
9269.000000;0.196190
9268.000000;0.197457
9267.000000;0.198755
9266.000000;0.199818
9265.000000;0.200552
9264.000000;0.201125
9263.000000;0.201762
9262.000000;0.202558
9261.000000;0.203492
9260.000000;0.204520
9259.000000;0.205585
9258.000000;0.206603
9257.000000;0.207542
9256.000000;0.208465
9255.000000;0.209434
9254.000000;0.210404
9253.000000;0.211313
9252.000000;0.212209
9251.000000;0.213195
9250.000000;0.214238
9249.000000;0.215146
9248.000000;0.215801
9247.000000;0.216326
9246.000000;0.216944
9245.000000;0.217709
9244.000000;0.218477
9243.000000;0.219154
9242.000000;0.219869
9241.000000;0.220829
9240.000000;0.222070
9239.000000;0.223402
9238.000000;0.224608
9237.000000;0.225629
9236.000000;0.226542
9235.000000;0.227434
9234.000000;0.228322
9233.000000;0.229176
9232.000000;0.229970
9231.000000;0.230718
9230.000000;0.231485
9229.000000;0.232319
9228.000000;0.233172
9227.000000;0.233901
9226.000000;0.234423
9225.000000;0.234871
9224.000000;0.235544
9223.000000;0.236651
9222.000000;0.238108
9221.000000;0.239593
9220.000000;0.240786
9219.000000;0.241567
9218.000000;0.242030
9217.000000;0.242363
9216.000000;0.242737
9215.000000;0.243248
9214.000000;0.243925
9213.000000;0.244750
9212.000000;0.245668
9211.000000;0.246591
9210.000000;0.247406
9209.000000;0.248031
9208.000000;0.248479
9207.000000;0.248860
9206.000000;0.249305
9205.000000;0.249900
9204.000000;0.250672
9203.000000;0.251597
9202.000000;0.252596
9201.000000;0.253555
9200.000000;0.254417
9199.000000;0.255222
9198.000000;0.256026
9197.000000;0.256787
9196.000000;0.257400
9195.000000;0.257868
9194.000000;0.258338
9193.000000;0.258942
9192.000000;0.259649
9191.000000;0.260331
9190.000000;0.260939
9189.000000;0.261533
9188.000000;0.262192
9187.000000;0.262942
9186.000000;0.263779
9185.000000;0.264689
9184.000000;0.265613
9183.000000;0.266454
9182.000000;0.267156
9181.000000;0.267760
9180.000000;0.268356
9179.000000;0.268969
9178.000000;0.269518
9177.000000;0.269897
9176.000000;0.270128
9175.000000;0.270418
9174.000000;0.271008
9173.000000;0.271954
9172.000000;0.273093
9171.000000;0.274210
9170.000000;0.275187
9169.000000;0.275981
9168.000000;0.276566
9167.000000;0.276995
9166.000000;0.277432
9165.000000;0.277998
9164.000000;0.278612
9163.000000;0.279118
9162.000000;0.279528
9161.000000;0.280010
9160.000000;0.280614
9159.000000;0.281172
9158.000000;0.281543
9157.000000;0.281850
9156.000000;0.282343
9155.000000;0.283095
9154.000000;0.283919
9153.000000;0.284567
9152.000000;0.284960
9151.000000;0.285233
9150.000000;0.285621
9149.000000;0.286278
9148.000000;0.287168
9147.000000;0.288143
9146.000000;0.289091
9145.000000;0.289968
9144.000000;0.290684
9143.000000;0.291085
9142.000000;0.291147
9141.000000;0.291081
9140.000000;0.291156
9139.000000;0.291435
9138.000000;0.291783
9137.000000;0.292118
9136.000000;0.292536
9135.000000;0.293154
9134.000000;0.293934
9133.000000;0.294704
9132.000000;0.295316
9131.000000;0.295757
9130.000000;0.296142
9129.000000;0.296613
9128.000000;0.297219
9127.000000;0.297874
9126.000000;0.298444
9125.000000;0.298874
9124.000000;0.299226
9123.000000;0.299600
9122.000000;0.300055
9121.000000;0.300578
9120.000000;0.301098
9119.000000;0.301529
9118.000000;0.301829
9117.000000;0.302037
9116.000000;0.302235
9115.000000;0.302483
9114.000000;0.302810
9113.000000;0.303249
9112.000000;0.303817
9111.000000;0.304464
9110.000000;0.305075
9109.000000;0.305550
9108.000000;0.305854
9107.000000;0.306027
9106.000000;0.306192
9105.000000;0.306537
9104.000000;0.307195
9103.000000;0.308088
9102.000000;0.308943
9101.000000;0.309509
9100.000000;0.309762
9099.000000;0.309870
9098.000000;0.310006
9097.000000;0.310234
9096.000000;0.310550
9095.000000;0.310961
9094.000000;0.311487
9093.000000;0.312115
9092.000000;0.312767
9091.000000;0.313338
9090.000000;0.313745
9089.000000;0.313970
9088.000000;0.314056
9087.000000;0.314087
9086.000000;0.314156
9085.000000;0.314340
9084.000000;0.314663
9083.000000;0.315079
9082.000000;0.315519
9081.000000;0.315954
9080.000000;0.316389
9079.000000;0.316818
9078.000000;0.317230
9077.000000;0.317642
9076.000000;0.318089
9075.000000;0.318545
9074.000000;0.318914
9073.000000;0.319144
9072.000000;0.319316
9071.000000;0.319557
9070.000000;0.319872
9069.000000;0.320143
9068.000000;0.320303
9067.000000;0.320456
9066.000000;0.320775
9065.000000;0.321293
9064.000000;0.321839
9063.000000;0.322201
9062.000000;0.322339
9061.000000;0.322422
9060.000000;0.322667
9059.000000;0.323118
9058.000000;0.323617
9057.000000;0.323991
9056.000000;0.324244
9055.000000;0.324510
9054.000000;0.324838
9053.000000;0.325089
9052.000000;0.325107
9051.000000;0.324932
9050.000000;0.324771
9049.000000;0.324775
9048.000000;0.324926
9047.000000;0.325153
9046.000000;0.325458
9045.000000;0.325875
9044.000000;0.326364
9043.000000;0.326840
9042.000000;0.327280
9041.000000;0.327737
9040.000000;0.328226
9039.000000;0.328681
9038.000000;0.329038
9037.000000;0.329312
9036.000000;0.329556
9035.000000;0.329783
9034.000000;0.329960
9033.000000;0.330060
9032.000000;0.330085
9031.000000;0.330077
9030.000000;0.330115
9029.000000;0.330294
9028.000000;0.330637
9027.000000;0.331036
9026.000000;0.331320
9025.000000;0.331398
9024.000000;0.331322
9023.000000;0.331210
9022.000000;0.331146
9021.000000;0.331155
9020.000000;0.331231
9019.000000;0.331366
9018.000000;0.331546
9017.000000;0.331761
9016.000000;0.332007
9015.000000;0.332276
9014.000000;0.332541
9013.000000;0.332769
9012.000000;0.332968
9011.000000;0.333209
9010.000000;0.333571
9009.000000;0.334024
9008.000000;0.334410
9007.000000;0.334567
9006.000000;0.334512
9005.000000;0.334441
9004.000000;0.334547
9003.000000;0.334859
9002.000000;0.335263
9001.000000;0.335632
9000.000000;0.335907
8999.000000;0.336076
8998.000000;0.336159
8997.000000;0.336200
8996.000000;0.336241
8995.000000;0.336284
8994.000000;0.336315
8993.000000;0.336349
8992.000000;0.336430
8991.000000;0.336577
8990.000000;0.336760
8989.000000;0.336935
8988.000000;0.337090
8987.000000;0.337227
8986.000000;0.337363
8985.000000;0.337528
8984.000000;0.337748
8983.000000;0.338012
8982.000000;0.338282
8981.000000;0.338531
8980.000000;0.338733
8979.000000;0.338826
8978.000000;0.338760
8977.000000;0.338610
8976.000000;0.338576
8975.000000;0.338798
8974.000000;0.339179
8973.000000;0.339480
8972.000000;0.339573
8971.000000;0.339543
8970.000000;0.339557
8969.000000;0.339678
8968.000000;0.339826
8967.000000;0.339882
8966.000000;0.339809
8965.000000;0.339690
8964.000000;0.339665
8963.000000;0.339802
8962.000000;0.340024
8961.000000;0.340197
8960.000000;0.340275
8959.000000;0.340328
8958.000000;0.340400
8957.000000;0.340420
8956.000000;0.340298
8955.000000;0.340079
8954.000000;0.339935
8953.000000;0.339994
8952.000000;0.340231
8951.000000;0.340526
8950.000000;0.340788
8949.000000;0.340983
8948.000000;0.341087
8947.000000;0.341095
8946.000000;0.341061
8945.000000;0.341095
8944.000000;0.341268
8943.000000;0.341536
8942.000000;0.341781
8941.000000;0.341912
8940.000000;0.341917
8939.000000;0.341823
8938.000000;0.341654
8937.000000;0.341451
8936.000000;0.341316
8935.000000;0.341380
8934.000000;0.341710
8933.000000;0.342225
8932.000000;0.342708
8931.000000;0.342924
8930.000000;0.342775
8929.000000;0.342374
8928.000000;0.341969
8927.000000;0.341762
8926.000000;0.341788
8925.000000;0.341954
8924.000000;0.342154
8923.000000;0.342322
8922.000000;0.342439
8921.000000;0.342531
8920.000000;0.342650
8919.000000;0.342794
8918.000000;0.342856
8917.000000;0.342718
8916.000000;0.342441
8915.000000;0.342276
8914.000000;0.342435
8913.000000;0.342860
8912.000000;0.343273
8911.000000;0.343433
8910.000000;0.343319
8909.000000;0.343098
8908.000000;0.342949
8907.000000;0.342918
8906.000000;0.342886
8905.000000;0.342680
8904.000000;0.342276
8903.000000;0.341871
8902.000000;0.341724
8901.000000;0.341902
8900.000000;0.342234
8899.000000;0.342510
8898.000000;0.342666
8897.000000;0.342743
8896.000000;0.342765
8895.000000;0.342722
8894.000000;0.342646
8893.000000;0.342602
8892.000000;0.342605
8891.000000;0.342601
8890.000000;0.342572
8889.000000;0.342593
8888.000000;0.342763
8887.000000;0.343072
8886.000000;0.343374
8885.000000;0.343494
8884.000000;0.343365
8883.000000;0.343086
8882.000000;0.342851
8881.000000;0.342775
8880.000000;0.342801
8879.000000;0.342783
8878.000000;0.342661
8877.000000;0.342531
8876.000000;0.342518
8875.000000;0.342640
8874.000000;0.342801
8873.000000;0.342894
8872.000000;0.342861
8871.000000;0.342710
8870.000000;0.342518
8869.000000;0.342400
8868.000000;0.342414
8867.000000;0.342494
8866.000000;0.342509
8865.000000;0.342400
8864.000000;0.342210
8863.000000;0.342004
8862.000000;0.341812
8861.000000;0.341694
8860.000000;0.341770
8859.000000;0.342107
8858.000000;0.342573
8857.000000;0.342879
8856.000000;0.342808
8855.000000;0.342414
8854.000000;0.341976
8853.000000;0.341743
8852.000000;0.341730
8851.000000;0.341753
8850.000000;0.341666
8849.000000;0.341523
8848.000000;0.341484
8847.000000;0.341588
8846.000000;0.341699
8845.000000;0.341677
8844.000000;0.341531
8843.000000;0.341368
8842.000000;0.341250
8841.000000;0.341168
8840.000000;0.341115
8839.000000;0.341115
8838.000000;0.341181
8837.000000;0.341292
8836.000000;0.341409
8835.000000;0.341467
8834.000000;0.341409
8833.000000;0.341263
8832.000000;0.341190
8831.000000;0.341334
8830.000000;0.341624
8829.000000;0.341815
8828.000000;0.341749
8827.000000;0.341536
8826.000000;0.341397
8825.000000;0.341409
8824.000000;0.341456
8823.000000;0.341386
8822.000000;0.341174
8821.000000;0.340942
8820.000000;0.340857
8819.000000;0.341015
8818.000000;0.341361
8817.000000;0.341761
8816.000000;0.342136
8815.000000;0.342516
8814.000000;0.342919
8813.000000;0.343226
8812.000000;0.343251
8811.000000;0.342930
8810.000000;0.342395
8809.000000;0.341852
8808.000000;0.341439
8807.000000;0.341202
8806.000000;0.341158
8805.000000;0.341325
8804.000000;0.341684
8803.000000;0.342117
8802.000000;0.342405
8801.000000;0.342349
8800.000000;0.341955
8799.000000;0.341460
8798.000000;0.341142
8797.000000;0.341087
8796.000000;0.341177
8795.000000;0.341268
8794.000000;0.341317
8793.000000;0.341344
8792.000000;0.341357
8791.000000;0.341364
8790.000000;0.341397
8789.000000;0.341490
8788.000000;0.341642
8787.000000;0.341821
8786.000000;0.341993
8785.000000;0.342105
8784.000000;0.342092
8783.000000;0.341943
8782.000000;0.341742
8781.000000;0.341622
8780.000000;0.341657
8779.000000;0.341800
8778.000000;0.341951
8777.000000;0.342066
8776.000000;0.342212
8775.000000;0.342470
8774.000000;0.342799
8773.000000;0.343012
8772.000000;0.342961
8771.000000;0.342711
8770.000000;0.342485
8769.000000;0.342429
8768.000000;0.342497
8767.000000;0.342575
8766.000000;0.342629
8765.000000;0.342681
8764.000000;0.342725
8763.000000;0.342748
8762.000000;0.342785
8761.000000;0.342871
8760.000000;0.342952
8759.000000;0.342944
8758.000000;0.342872
8757.000000;0.342861
8756.000000;0.342970
8755.000000;0.343105
8754.000000;0.343154
8753.000000;0.343119
8752.000000;0.343083
8751.000000;0.343080
8750.000000;0.343082
8749.000000;0.343072
8748.000000;0.343066
8747.000000;0.343049
8746.000000;0.342971
8745.000000;0.342816
8744.000000;0.342648
8743.000000;0.342568
8742.000000;0.342628
8741.000000;0.342811
8740.000000;0.343057
8739.000000;0.343292
8738.000000;0.343444
8737.000000;0.343467
8736.000000;0.343358
8735.000000;0.343161
8734.000000;0.342947
8733.000000;0.342780
8732.000000;0.342699
8731.000000;0.342709
8730.000000;0.342795
8729.000000;0.342920
8728.000000;0.343033
8727.000000;0.343099
8726.000000;0.343130
8725.000000;0.343183
8724.000000;0.343302
8723.000000;0.343484
8722.000000;0.343684
8721.000000;0.343848
8720.000000;0.343911
8719.000000;0.343832
8718.000000;0.343640
8717.000000;0.343443
8716.000000;0.343317
8715.000000;0.343245
8714.000000;0.343177
8713.000000;0.343131
8712.000000;0.343137
8711.000000;0.343114
8710.000000;0.342911
8709.000000;0.342516
8708.000000;0.342127
8707.000000;0.341971
8706.000000;0.342108
8705.000000;0.342437
8704.000000;0.342807
8703.000000;0.343053
8702.000000;0.343026
8701.000000;0.342734
8700.000000;0.342419
8699.000000;0.342343
8698.000000;0.342486
8697.000000;0.342556
8696.000000;0.342343
8695.000000;0.341942
8694.000000;0.341606
8693.000000;0.341454
8692.000000;0.341391
8691.000000;0.341264
8690.000000;0.341013
8689.000000;0.340728
8688.000000;0.340583
8687.000000;0.340676
8686.000000;0.340903
8685.000000;0.341019
8684.000000;0.340900
8683.000000;0.340673
8682.000000;0.340553
8681.000000;0.340590
8680.000000;0.340636
8679.000000;0.340553
8678.000000;0.340360
8677.000000;0.340168
8676.000000;0.340038
8675.000000;0.339922
8674.000000;0.339723
8673.000000;0.339396
8672.000000;0.338991
8671.000000;0.338606
8670.000000;0.338306
8669.000000;0.338101
8668.000000;0.337987
8667.000000;0.337946
8666.000000;0.337906
8665.000000;0.337762
8664.000000;0.337484
8663.000000;0.337179
8662.000000;0.336976
8661.000000;0.336897
8660.000000;0.336868
8659.000000;0.336817
8658.000000;0.336701
8657.000000;0.336477
8656.000000;0.336134
8655.000000;0.335756
8654.000000;0.335476
8653.000000;0.335342
8652.000000;0.335271
8651.000000;0.335129
8650.000000;0.334836
8649.000000;0.334408
8648.000000;0.333936
8647.000000;0.333539
8646.000000;0.333279
8645.000000;0.333116
8644.000000;0.332965
8643.000000;0.332780
8642.000000;0.332564
8641.000000;0.332308
8640.000000;0.331993
8639.000000;0.331640
8638.000000;0.331317
8637.000000;0.331067
8636.000000;0.330865
8635.000000;0.330641
8634.000000;0.330330
8633.000000;0.329917
8632.000000;0.329485
8631.000000;0.329187
8630.000000;0.329101
8629.000000;0.329127
8628.000000;0.329065
8627.000000;0.328808
8626.000000;0.328404
8625.000000;0.327954
8624.000000;0.327526
8623.000000;0.327166
8622.000000;0.326903
8621.000000;0.326704
8620.000000;0.326491
8619.000000;0.326242
8618.000000;0.326025
8617.000000;0.325886
8616.000000;0.325770
8615.000000;0.325575
8614.000000;0.325241
8613.000000;0.324772
8612.000000;0.324216
8611.000000;0.323672
8610.000000;0.323253
8609.000000;0.322996
8608.000000;0.322826
8607.000000;0.322641
8606.000000;0.322403
8605.000000;0.322120
8604.000000;0.321791
8603.000000;0.321431
8602.000000;0.321091
8601.000000;0.320803
8600.000000;0.320520
8599.000000;0.320177
8598.000000;0.319779
8597.000000;0.319401
8596.000000;0.319090
8595.000000;0.318822
8594.000000;0.318552
8593.000000;0.318254
8592.000000;0.317927
8591.000000;0.317585
8590.000000;0.317249
8589.000000;0.316925
8588.000000;0.316588
8587.000000;0.316204
8586.000000;0.315775
8585.000000;0.315341
8584.000000;0.314949
8583.000000;0.314617
8582.000000;0.314331
8581.000000;0.314057
8580.000000;0.313756
8579.000000;0.313416
8578.000000;0.313066
8577.000000;0.312759
8576.000000;0.312533
8575.000000;0.312370
8574.000000;0.312196
8573.000000;0.311932
8572.000000;0.311585
8571.000000;0.311233
8570.000000;0.310916
8569.000000;0.310556
8568.000000;0.310079
8567.000000;0.309559
8566.000000;0.309167
8565.000000;0.308954
8564.000000;0.308793
8563.000000;0.308562
8562.000000;0.308274
8561.000000;0.307988
8560.000000;0.307689
8559.000000;0.307343
8558.000000;0.306981
8557.000000;0.306629
8556.000000;0.306230
8555.000000;0.305746
8554.000000;0.305276
8553.000000;0.304955
8552.000000;0.304739
8551.000000;0.304442
8550.000000;0.303988
8549.000000;0.303522
8548.000000;0.303205
8547.000000;0.303022
8546.000000;0.302837
8545.000000;0.302575
8544.000000;0.302261
8543.000000;0.301940
8542.000000;0.301622
8541.000000;0.301307
8540.000000;0.300989
8539.000000;0.300648
8538.000000;0.300255
8537.000000;0.299803
8536.000000;0.299323
8535.000000;0.298870
8534.000000;0.298493
8533.000000;0.298195
8532.000000;0.297911
8531.000000;0.297557
8530.000000;0.297101
8529.000000;0.296579
8528.000000;0.296057
8527.000000;0.295599
8526.000000;0.295263
8525.000000;0.295069
8524.000000;0.294953
8523.000000;0.294805
8522.000000;0.294573
8521.000000;0.294282
8520.000000;0.293955
8519.000000;0.293562
8518.000000;0.293085
8517.000000;0.292592
8516.000000;0.292172
8515.000000;0.291830
8514.000000;0.291515
8513.000000;0.291226
8512.000000;0.291024
8511.000000;0.290921
8510.000000;0.290813
8509.000000;0.290550
8508.000000;0.290075
8507.000000;0.289489
8506.000000;0.288963
8505.000000;0.288590
8504.000000;0.288303
8503.000000;0.287958
8502.000000;0.287506
8501.000000;0.287064
8500.000000;0.286774
8499.000000;0.286623
8498.000000;0.286475
8497.000000;0.286232
8496.000000;0.285922
8495.000000;0.285595
8494.000000;0.285257
8493.000000;0.284921
8492.000000;0.284653
8491.000000;0.284479
8490.000000;0.284288
8489.000000;0.283926
8488.000000;0.283382
8487.000000;0.282813
8486.000000;0.282389
8485.000000;0.282146
8484.000000;0.282009
8483.000000;0.281864
8482.000000;0.281617
8481.000000;0.281229
8480.000000;0.280750
8479.000000;0.280276
8478.000000;0.279863
8477.000000;0.279502
8476.000000;0.279193
8475.000000;0.278964
8474.000000;0.278796
8473.000000;0.278576
8472.000000;0.278216
8471.000000;0.277771
8470.000000;0.277385
8469.000000;0.277119
8468.000000;0.276912
8467.000000;0.276681
8466.000000;0.276406
8465.000000;0.276094
8464.000000;0.275745
8463.000000;0.275382
8462.000000;0.275070
8461.000000;0.274853
8460.000000;0.274695
8459.000000;0.274506
8458.000000;0.274216
8457.000000;0.273818
8456.000000;0.273362
8455.000000;0.272941
8454.000000;0.272628
8453.000000;0.272409
8452.000000;0.272167
8451.000000;0.271787
8450.000000;0.271272
8449.000000;0.270744
8448.000000;0.270343
8447.000000;0.270123
8446.000000;0.270055
8445.000000;0.270058
8444.000000;0.270021
8443.000000;0.269832
8442.000000;0.269440
8441.000000;0.268916
8440.000000;0.268413
8439.000000;0.268027
8438.000000;0.267711
8437.000000;0.267350
8436.000000;0.266913
8435.000000;0.266485
8434.000000;0.266167
8433.000000;0.265974
8432.000000;0.265849
8431.000000;0.265718
8430.000000;0.265519
8429.000000;0.265229
8428.000000;0.264886
8427.000000;0.264565
8426.000000;0.264276
8425.000000;0.263945
8424.000000;0.263532
8423.000000;0.263139
8422.000000;0.262910
8421.000000;0.262854
8420.000000;0.262832
8419.000000;0.262717
8418.000000;0.262488
8417.000000;0.262171
8416.000000;0.261783
8415.000000;0.261384
8414.000000;0.261088
8413.000000;0.260967
8412.000000;0.260953
8411.000000;0.260878
8410.000000;0.260628
8409.000000;0.260227
8408.000000;0.259803
8407.000000;0.259457
8406.000000;0.259161
8405.000000;0.258790
8404.000000;0.258269
8403.000000;0.257684
8402.000000;0.257208
8401.000000;0.256930
8400.000000;0.256808
8399.000000;0.256748
8398.000000;0.256677
8397.000000;0.256534
8396.000000;0.256278
8395.000000;0.255943
8394.000000;0.255622
8393.000000;0.255352
8392.000000;0.255072
8391.000000;0.254705
8390.000000;0.254268
8389.000000;0.253858
8388.000000;0.253579
8387.000000;0.253472
8386.000000;0.253461
8385.000000;0.253369
8384.000000;0.253065
8383.000000;0.252638
8382.000000;0.252326
8381.000000;0.252243
8380.000000;0.252235
8379.000000;0.252073
8378.000000;0.251700
8377.000000;0.251235
8376.000000;0.250799
8375.000000;0.250443
8374.000000;0.250197
8373.000000;0.250050
8372.000000;0.249905
8371.000000;0.249639
8370.000000;0.249248
8369.000000;0.248850
8368.000000;0.248542
8367.000000;0.248303
8366.000000;0.248043
8365.000000;0.247706
8364.000000;0.247312
8363.000000;0.246936
8362.000000;0.246648
8361.000000;0.246445
8360.000000;0.246241
8359.000000;0.245958
8358.000000;0.245608
8357.000000;0.245264
8356.000000;0.244976
8355.000000;0.244771
8354.000000;0.244664
8353.000000;0.244609
8352.000000;0.244473
8351.000000;0.244148
8350.000000;0.243701
8349.000000;0.243337
8348.000000;0.243178
8347.000000;0.243159
8346.000000;0.243139
8345.000000;0.243028
8344.000000;0.242803
8343.000000;0.242461
8342.000000;0.242028
8341.000000;0.241568
8340.000000;0.241142
8339.000000;0.240771
8338.000000;0.240459
8337.000000;0.240230
8336.000000;0.240093
8335.000000;0.239999
8334.000000;0.239862
8333.000000;0.239609
8332.000000;0.239230
8331.000000;0.238783
8330.000000;0.238373
8329.000000;0.238071
8328.000000;0.237849
8327.000000;0.237621
8326.000000;0.237343
8325.000000;0.237067
8324.000000;0.236879
8323.000000;0.236816
8322.000000;0.236852
8321.000000;0.236918
8320.000000;0.236913
8319.000000;0.236751
8318.000000;0.236419
8317.000000;0.235989
8316.000000;0.235555
8315.000000;0.235168
8314.000000;0.234840
8313.000000;0.234568
8312.000000;0.234345
8311.000000;0.234162
8310.000000;0.234006
8309.000000;0.233852
8308.000000;0.233650
8307.000000;0.233371
8306.000000;0.233063
8305.000000;0.232823
8304.000000;0.232676
8303.000000;0.232543
8302.000000;0.232347
8301.000000;0.232120
8300.000000;0.231946
8299.000000;0.231840
8298.000000;0.231723
8297.000000;0.231505
8296.000000;0.231161
8295.000000;0.230734
8294.000000;0.230317
8293.000000;0.230019
8292.000000;0.229875
8291.000000;0.229807
8290.000000;0.229690
8289.000000;0.229491
8288.000000;0.229279
8287.000000;0.229106
8286.000000;0.228920
8285.000000;0.228634
8284.000000;0.228251
8283.000000;0.227861
8282.000000;0.227544
8281.000000;0.227319
8280.000000;0.227186
8279.000000;0.227153
8278.000000;0.227188
8277.000000;0.227177
8276.000000;0.226981
8275.000000;0.226563
8274.000000;0.226047
8273.000000;0.225638
8272.000000;0.225488
8271.000000;0.225596
8270.000000;0.225801
8269.000000;0.225886
8268.000000;0.225714
8267.000000;0.225317
8266.000000;0.224849
8265.000000;0.224462
8264.000000;0.224217
8263.000000;0.224086
8262.000000;0.224003
8261.000000;0.223903
8260.000000;0.223737
8259.000000;0.223487
8258.000000;0.223157
8257.000000;0.222776
8256.000000;0.222393
8255.000000;0.222067
8254.000000;0.221836
8253.000000;0.221688
8252.000000;0.221585
8251.000000;0.221514
8250.000000;0.221483
8249.000000;0.221477
8248.000000;0.221449
8247.000000;0.221355
8246.000000;0.221181
8245.000000;0.220938
8244.000000;0.220658
8243.000000;0.220414
8242.000000;0.220278
8241.000000;0.220243
8240.000000;0.220218
8239.000000;0.220124
8238.000000;0.219958
8237.000000;0.219740
8236.000000;0.219461
8235.000000;0.219130
8234.000000;0.218831
8233.000000;0.218661
8232.000000;0.218610
8231.000000;0.218570
8230.000000;0.218443
8229.000000;0.218219
8228.000000;0.217947
8227.000000;0.217697
8226.000000;0.217525
8225.000000;0.217439
8224.000000;0.217382
8223.000000;0.217285
8222.000000;0.217136
8221.000000;0.216973
8220.000000;0.216826
8219.000000;0.216700
8218.000000;0.216611
8217.000000;0.216570
8216.000000;0.216527
8215.000000;0.216394
8214.000000;0.216138
8213.000000;0.215831
8212.000000;0.215574
8211.000000;0.215411
8210.000000;0.215317
8209.000000;0.215223
8208.000000;0.215072
8207.000000;0.214869
8206.000000;0.214701
8205.000000;0.214649
8204.000000;0.214674
8203.000000;0.214641
8202.000000;0.214475
8201.000000;0.214247
8200.000000;0.214072
8199.000000;0.213978
8198.000000;0.213903
8197.000000;0.213796
8196.000000;0.213649
8195.000000;0.213477
8194.000000;0.213296
8193.000000;0.213142
8192.000000;0.213046
8191.000000;0.212995
8190.000000;0.212936
8189.000000;0.212847
8188.000000;0.212761
8187.000000;0.212720
8186.000000;0.212698
8185.000000;0.212609
8184.000000;0.212388
8183.000000;0.212071
8182.000000;0.211793
8181.000000;0.211673
8180.000000;0.211717
8179.000000;0.211810
8178.000000;0.211811
8177.000000;0.211657
8176.000000;0.211382
8175.000000;0.211075
8174.000000;0.210815
8173.000000;0.210634
8172.000000;0.210532
8171.000000;0.210501
8170.000000;0.210538
8169.000000;0.210615
8168.000000;0.210658
8167.000000;0.210614
8166.000000;0.210498
8165.000000;0.210363
8164.000000;0.210217
8163.000000;0.210006
8162.000000;0.209705
8161.000000;0.209372
8160.000000;0.209114
8159.000000;0.209010
8158.000000;0.209083
8157.000000;0.209273
8156.000000;0.209448
8155.000000;0.209465
8154.000000;0.209295
8153.000000;0.209047
8152.000000;0.208853
8151.000000;0.208740
8150.000000;0.208645
8149.000000;0.208527
8148.000000;0.208404
8147.000000;0.208295
8146.000000;0.208185
8145.000000;0.208071
8144.000000;0.207991
8143.000000;0.207983
8142.000000;0.208020
8141.000000;0.208010
8140.000000;0.207871
8139.000000;0.207617
8138.000000;0.207356
8137.000000;0.207195
8136.000000;0.207137
8135.000000;0.207087
8134.000000;0.206977
8133.000000;0.206848
8132.000000;0.206805
8131.000000;0.206885
8130.000000;0.207011
8129.000000;0.207075
8128.000000;0.207038
8127.000000;0.206938
8126.000000;0.206811
8125.000000;0.206655
8124.000000;0.206470
8123.000000;0.206310
8122.000000;0.206254
8121.000000;0.206312
8120.000000;0.206383
8119.000000;0.206349
8118.000000;0.206206
8117.000000;0.206056
8116.000000;0.205982
8115.000000;0.205952
8114.000000;0.205881
8113.000000;0.205744
8112.000000;0.205598
8111.000000;0.205501
8110.000000;0.205450
8109.000000;0.205400
8108.000000;0.205299
8107.000000;0.205129
8106.000000;0.204928
8105.000000;0.204777
8104.000000;0.204731
8103.000000;0.204765
8102.000000;0.204817
8101.000000;0.204860
8100.000000;0.204900
8099.000000;0.204912
8098.000000;0.204832
8097.000000;0.204647
8096.000000;0.204444
8095.000000;0.204329
8094.000000;0.204307
8093.000000;0.204299
8092.000000;0.204253
8091.000000;0.204187
8090.000000;0.204135
8089.000000;0.204087
8088.000000;0.204023
8087.000000;0.203965
8086.000000;0.203948
8085.000000;0.203951
8084.000000;0.203898
8083.000000;0.203751
8082.000000;0.203577
8081.000000;0.203485
8080.000000;0.203501
8079.000000;0.203533
8078.000000;0.203476
8077.000000;0.203334
8076.000000;0.203204
8075.000000;0.203149
8074.000000;0.203137
8073.000000;0.203093
8072.000000;0.202993
8071.000000;0.202860
8070.000000;0.202711
8069.000000;0.202552
8068.000000;0.202415
8067.000000;0.202355
8066.000000;0.202399
8065.000000;0.202521
8064.000000;0.202678
8063.000000;0.202830
8062.000000;0.202931
8061.000000;0.202931
8060.000000;0.202827
8059.000000;0.202679
8058.000000;0.202559
8057.000000;0.202489
8056.000000;0.202448
8055.000000;0.202404
8054.000000;0.202344
8053.000000;0.202281
8052.000000;0.202247
8051.000000;0.202284
8050.000000;0.202384
8049.000000;0.202481
8048.000000;0.202513
8047.000000;0.202485
8046.000000;0.202444
8045.000000;0.202404
8044.000000;0.202340
8043.000000;0.202262
8042.000000;0.202214
8041.000000;0.202210
8040.000000;0.202192
8039.000000;0.202100
8038.000000;0.201953
8037.000000;0.201831
8036.000000;0.201792
8035.000000;0.201825
8034.000000;0.201873
8033.000000;0.201875
8032.000000;0.201810
8031.000000;0.201706
8030.000000;0.201627
8029.000000;0.201608
8028.000000;0.201620
8027.000000;0.201615
8026.000000;0.201586
8025.000000;0.201577
8024.000000;0.201623
8023.000000;0.201704
8022.000000;0.201752
8021.000000;0.201724
8020.000000;0.201637
8019.000000;0.201558
8018.000000;0.201524
8017.000000;0.201506
8016.000000;0.201454
8015.000000;0.201380
8014.000000;0.201348
8013.000000;0.201380
8012.000000;0.201412
8011.000000;0.201374
8010.000000;0.201294
8009.000000;0.201263
8008.000000;0.201301
8007.000000;0.201321
8006.000000;0.201241
8005.000000;0.201084
8004.000000;0.200946
8003.000000;0.200890
8002.000000;0.200905
8001.000000;0.200954
8000.000000;0.201000
7999.000000;0.201005
7998.000000;0.200936
7997.000000;0.200825
7996.000000;0.200759
7995.000000;0.200792
7994.000000;0.200864
7993.000000;0.200865
7992.000000;0.200771
7991.000000;0.200677
7990.000000;0.200681
7989.000000;0.200771
7988.000000;0.200860
7987.000000;0.200896
7986.000000;0.200907
7985.000000;0.200934
7984.000000;0.200967
7983.000000;0.200951
7982.000000;0.200841
7981.000000;0.200656
7980.000000;0.200490
7979.000000;0.200464
7978.000000;0.200625
7977.000000;0.200881
7976.000000;0.201066
7975.000000;0.201090
7974.000000;0.200996
7973.000000;0.200889
7972.000000;0.200818
7971.000000;0.200772
7970.000000;0.200742
7969.000000;0.200756
7968.000000;0.200840
7967.000000;0.200970
7966.000000;0.201078
7965.000000;0.201099
7964.000000;0.201025
7963.000000;0.200905
7962.000000;0.200803
7961.000000;0.200737
7960.000000;0.200689
7959.000000;0.200655
7958.000000;0.200658
7957.000000;0.200697
7956.000000;0.200719
7955.000000;0.200663
7954.000000;0.200543
7953.000000;0.200453
7952.000000;0.200489
7951.000000;0.200662
7950.000000;0.200878
7949.000000;0.201011
7948.000000;0.201001
7947.000000;0.200891
7946.000000;0.200767
7945.000000;0.200674
7944.000000;0.200600
7943.000000;0.200536
7942.000000;0.200509
7941.000000;0.200541
7940.000000;0.200617
7939.000000;0.200703
7938.000000;0.200784
7937.000000;0.200861
7936.000000;0.200922
7935.000000;0.200959
7934.000000;0.200973
7933.000000;0.200961
7932.000000;0.200911
7931.000000;0.200833
7930.000000;0.200776
7929.000000;0.200784
7928.000000;0.200828
7927.000000;0.200842
7926.000000;0.200808
7925.000000;0.200775
7924.000000;0.200786
7923.000000;0.200834
7922.000000;0.200882
7921.000000;0.200908
7920.000000;0.200906
7919.000000;0.200868
7918.000000;0.200806
7917.000000;0.200765
7916.000000;0.200798
7915.000000;0.200912
7914.000000;0.201052
7913.000000;0.201156
7912.000000;0.201207
7911.000000;0.201242
7910.000000;0.201305
7909.000000;0.201392
7908.000000;0.201448
7907.000000;0.201427
7906.000000;0.201345
7905.000000;0.201272
7904.000000;0.201262
7903.000000;0.201315
7902.000000;0.201381
7901.000000;0.201422
7900.000000;0.201446
7899.000000;0.201485
7898.000000;0.201556
7897.000000;0.201632
7896.000000;0.201671
7895.000000;0.201662
7894.000000;0.201630
7893.000000;0.201600
7892.000000;0.201567
7891.000000;0.201523
7890.000000;0.201492
7889.000000;0.201520
7888.000000;0.201629
7887.000000;0.201793
7886.000000;0.201951
7885.000000;0.202036
7884.000000;0.202010
7883.000000;0.201898
7882.000000;0.201794
7881.000000;0.201779
7880.000000;0.201850
7879.000000;0.201920
7878.000000;0.201920
7877.000000;0.201866
7876.000000;0.201821
7875.000000;0.201815
7874.000000;0.201819
7873.000000;0.201803
7872.000000;0.201776
7871.000000;0.201784
7870.000000;0.201859
7869.000000;0.201993
7868.000000;0.202144
7867.000000;0.202259
7866.000000;0.202305
7865.000000;0.202305
7864.000000;0.202327
7863.000000;0.202419
7862.000000;0.202542
7861.000000;0.202602
7860.000000;0.202559
7859.000000;0.202498
7858.000000;0.202550
7857.000000;0.202741
7856.000000;0.202957
7855.000000;0.203068
7854.000000;0.203056
7853.000000;0.203016
7852.000000;0.203045
7851.000000;0.203149
7850.000000;0.203254
7849.000000;0.203269
7848.000000;0.203168
7847.000000;0.203013
7846.000000;0.202918
7845.000000;0.202961
7844.000000;0.203122
7843.000000;0.203316
7842.000000;0.203473
7841.000000;0.203591
7840.000000;0.203697
7839.000000;0.203792
7838.000000;0.203843
7837.000000;0.203835
7836.000000;0.203798
7835.000000;0.203794
7834.000000;0.203853
7833.000000;0.203957
7832.000000;0.204061
7831.000000;0.204134
7830.000000;0.204169
7829.000000;0.204180
7828.000000;0.204194
7827.000000;0.204239
7826.000000;0.204305
7825.000000;0.204353
7824.000000;0.204363
7823.000000;0.204366
7822.000000;0.204397
7821.000000;0.204439
7820.000000;0.204454
7819.000000;0.204466
7818.000000;0.204556
7817.000000;0.204744
7816.000000;0.204936
7815.000000;0.205037
7814.000000;0.205062
7813.000000;0.205106
7812.000000;0.205204
7811.000000;0.205291
7810.000000;0.205295
7809.000000;0.205216
7808.000000;0.205105
7807.000000;0.205017
7806.000000;0.204994
7805.000000;0.205064
7804.000000;0.205216
7803.000000;0.205386
7802.000000;0.205512
7801.000000;0.205583
7800.000000;0.205648
7799.000000;0.205757
7798.000000;0.205924
7797.000000;0.206119
7796.000000;0.206282
7795.000000;0.206357
7794.000000;0.206332
7793.000000;0.206259
7792.000000;0.206221
7791.000000;0.206267
7790.000000;0.206381
7789.000000;0.206508
7788.000000;0.206611
7787.000000;0.206701
7786.000000;0.206820
7785.000000;0.206992
7784.000000;0.207184
7783.000000;0.207326
7782.000000;0.207377
7781.000000;0.207371
7780.000000;0.207385
7779.000000;0.207450
7778.000000;0.207523
7777.000000;0.207565
7776.000000;0.207603
7775.000000;0.207686
7774.000000;0.207798
7773.000000;0.207872
7772.000000;0.207882
7771.000000;0.207891
7770.000000;0.207965
7769.000000;0.208092
7768.000000;0.208219
7767.000000;0.208319
7766.000000;0.208409
7765.000000;0.208498
7764.000000;0.208589
7763.000000;0.208703
7762.000000;0.208860
7761.000000;0.209044
7760.000000;0.209205
7759.000000;0.209322
7758.000000;0.209413
7757.000000;0.209499
7756.000000;0.209584
7755.000000;0.209679
7754.000000;0.209803
7753.000000;0.209948
7752.000000;0.210059
7751.000000;0.210088
7750.000000;0.210045
7749.000000;0.209997
7748.000000;0.210020
7747.000000;0.210150
7746.000000;0.210361
7745.000000;0.210573
7744.000000;0.210710
7743.000000;0.210771
7742.000000;0.210827
7741.000000;0.210952
7740.000000;0.211137
7739.000000;0.211301
7738.000000;0.211374
7737.000000;0.211366
7736.000000;0.211359
7735.000000;0.211429
7734.000000;0.211576
7733.000000;0.211741
7732.000000;0.211887
7731.000000;0.212038
7730.000000;0.212227
7729.000000;0.212432
7728.000000;0.212594
7727.000000;0.212687
7726.000000;0.212751
7725.000000;0.212840
7724.000000;0.212975
7723.000000;0.213134
7722.000000;0.213267
7721.000000;0.213332
7720.000000;0.213332
7719.000000;0.213336
7718.000000;0.213416
7717.000000;0.213575
7716.000000;0.213757
7715.000000;0.213924
7714.000000;0.214094
7713.000000;0.214293
7712.000000;0.214501
7711.000000;0.214667
7710.000000;0.214767
7709.000000;0.214820
7708.000000;0.214871
7707.000000;0.214959
7706.000000;0.215094
7705.000000;0.215259
7704.000000;0.215429
7703.000000;0.215592
7702.000000;0.215740
7701.000000;0.215868
7700.000000;0.215994
7699.000000;0.216157
7698.000000;0.216367
7697.000000;0.216565
7696.000000;0.216680
7695.000000;0.216715
7694.000000;0.216729
7693.000000;0.216772
7692.000000;0.216856
7691.000000;0.216999
7690.000000;0.217213
7689.000000;0.217454
7688.000000;0.217648
7687.000000;0.217787
7686.000000;0.217937
7685.000000;0.218127
7684.000000;0.218292
7683.000000;0.218376
7682.000000;0.218430
7681.000000;0.218551
7680.000000;0.218756
7679.000000;0.218967
7678.000000;0.219123
7677.000000;0.219230
7676.000000;0.219343
7675.000000;0.219515
7674.000000;0.219777
7673.000000;0.220108
7672.000000;0.220416
7671.000000;0.220606
7670.000000;0.220662
7669.000000;0.220667
7668.000000;0.220722
7667.000000;0.220871
7666.000000;0.221095
7665.000000;0.221354
7664.000000;0.221607
7663.000000;0.221810
7662.000000;0.221931
7661.000000;0.221985
7660.000000;0.222044
7659.000000;0.222200
7658.000000;0.222481
7657.000000;0.222829
7656.000000;0.223152
7655.000000;0.223401
7654.000000;0.223571
7653.000000;0.223660
7652.000000;0.223671
7651.000000;0.223661
7650.000000;0.223724
7649.000000;0.223907
7648.000000;0.224160
7647.000000;0.224401
7646.000000;0.224593
7645.000000;0.224760
7644.000000;0.224944
7643.000000;0.225182
7642.000000;0.225480
7641.000000;0.225806
7640.000000;0.226109
7639.000000;0.226363
7638.000000;0.226584
7637.000000;0.226788
7636.000000;0.226961
7635.000000;0.227098
7634.000000;0.227237
7633.000000;0.227431
7632.000000;0.227684
7631.000000;0.227945
7630.000000;0.228174
7629.000000;0.228382
7628.000000;0.228601
7627.000000;0.228843
7626.000000;0.229079
7625.000000;0.229289
7624.000000;0.229490
7623.000000;0.229712
7622.000000;0.229936
7621.000000;0.230108
7620.000000;0.230216
7619.000000;0.230330
7618.000000;0.230534
7617.000000;0.230825
7616.000000;0.231141
7615.000000;0.231446
7614.000000;0.231737
7613.000000;0.232002
7612.000000;0.232214
7611.000000;0.232395
7610.000000;0.232604
7609.000000;0.232862
7608.000000;0.233132
7607.000000;0.233391
7606.000000;0.233661
7605.000000;0.233958
7604.000000;0.234256
7603.000000;0.234535
7602.000000;0.234806
7601.000000;0.235084
7600.000000;0.235360
7599.000000;0.235629
7598.000000;0.235905
7597.000000;0.236186
7596.000000;0.236453
7595.000000;0.236705
7594.000000;0.236963
7593.000000;0.237215
7592.000000;0.237411
7591.000000;0.237552
7590.000000;0.237734
7589.000000;0.238045
7588.000000;0.238468
7587.000000;0.238902
7586.000000;0.239262
7585.000000;0.239518
7584.000000;0.239692
7583.000000;0.239849
7582.000000;0.240073
7581.000000;0.240410
7580.000000;0.240839
7579.000000;0.241305
7578.000000;0.241751
7577.000000;0.242124
7576.000000;0.242402
7575.000000;0.242647
7574.000000;0.242962
7573.000000;0.243359
7572.000000;0.243726
7571.000000;0.243962
7570.000000;0.244101
7569.000000;0.244263
7568.000000;0.244513
7567.000000;0.244840
7566.000000;0.245209
7565.000000;0.245583
7564.000000;0.245916
7563.000000;0.246199
7562.000000;0.246487
7561.000000;0.246839
7560.000000;0.247241
7559.000000;0.247632
7558.000000;0.247984
7557.000000;0.248316
7556.000000;0.248645
7555.000000;0.248974
7554.000000;0.249315
7553.000000;0.249663
7552.000000;0.249976
7551.000000;0.250230
7550.000000;0.250481
7549.000000;0.250805
7548.000000;0.251203
7547.000000;0.251602
7546.000000;0.251963
7545.000000;0.252322
7544.000000;0.252721
7543.000000;0.253147
7542.000000;0.253555
7541.000000;0.253910
7540.000000;0.254207
7539.000000;0.254469
7538.000000;0.254743
7537.000000;0.255073
7536.000000;0.255471
7535.000000;0.255913
7534.000000;0.256361
7533.000000;0.256771
7532.000000;0.257111
7531.000000;0.257398
7530.000000;0.257694
7529.000000;0.258046
7528.000000;0.258435
7527.000000;0.258815
7526.000000;0.259173
7525.000000;0.259533
7524.000000;0.259908
7523.000000;0.260293
7522.000000;0.260687
7521.000000;0.261097
7520.000000;0.261527
7519.000000;0.261968
7518.000000;0.262408
7517.000000;0.262825
7516.000000;0.263208
7515.000000;0.263591
7514.000000;0.264022
7513.000000;0.264495
7512.000000;0.264936
7511.000000;0.265304
7510.000000;0.265658
7509.000000;0.266077
7508.000000;0.266552
7507.000000;0.266994
7506.000000;0.267340
7505.000000;0.267610
7504.000000;0.267874
7503.000000;0.268208
7502.000000;0.268658
7501.000000;0.269200
7500.000000;0.269731
7499.000000;0.270163
7498.000000;0.270497
7497.000000;0.270833
7496.000000;0.271199
7495.000000;0.271574
7494.000000;0.272023
7493.000000;0.272460
7492.000000;0.272893
7491.000000;0.273284
7490.000000;0.273620
7489.000000;0.273927
7488.000000;0.274270
7487.000000;0.274688
7486.000000;0.275155
7485.000000;0.275601
7484.000000;0.275994
7483.000000;0.276370
7482.000000;0.276780
7481.000000;0.277228
7480.000000;0.277681
7479.000000;0.278134
7478.000000;0.278607
7477.000000;0.279093
7476.000000;0.279556
7475.000000;0.279989
7474.000000;0.280418
7473.000000;0.280849
7472.000000;0.281258
7471.000000;0.281648
7470.000000;0.282059
7469.000000;0.282501
7468.000000;0.282950
7467.000000;0.283410
7466.000000;0.283914
7465.000000;0.284454
7464.000000;0.284959
7463.000000;0.285391
7462.000000;0.285786
7461.000000;0.286186
7460.000000;0.286574
7459.000000;0.286924
7458.000000;0.287263
7457.000000;0.287634
7456.000000;0.288042
7455.000000;0.288470
7454.000000;0.288901
7453.000000;0.289307
7452.000000;0.289661
7451.000000;0.289990
7450.000000;0.290381
7449.000000;0.290889
7448.000000;0.291469
7447.000000;0.292033
7446.000000;0.292524
7445.000000;0.292936
7444.000000;0.293296
7443.000000;0.293662
7442.000000;0.294079
7441.000000;0.294525
7440.000000;0.294935
7439.000000;0.295295
7438.000000;0.295645
7437.000000;0.295989
7436.000000;0.296286
7435.000000;0.296553
7434.000000;0.296893
7433.000000;0.297367
7432.000000;0.297909
7431.000000;0.298420
7430.000000;0.298875
7429.000000;0.299305
7428.000000;0.299733
7427.000000;0.300178
7426.000000;0.300641
7425.000000;0.301071
7424.000000;0.301398
7423.000000;0.301666
7422.000000;0.302030
7421.000000;0.302565
7420.000000;0.303143
7419.000000;0.303583
7418.000000;0.303858
7417.000000;0.304069
7416.000000;0.304294
7415.000000;0.304561
7414.000000;0.304901
7413.000000;0.305340
7412.000000;0.305848
7411.000000;0.306353
7410.000000;0.306791
7409.000000;0.307131
7408.000000;0.307395
7407.000000;0.307684
7406.000000;0.308076
7405.000000;0.308509
7404.000000;0.308853
7403.000000;0.309123
7402.000000;0.309498
7401.000000;0.310091
7400.000000;0.310804
7399.000000;0.311439
7398.000000;0.311856
7397.000000;0.312051
7396.000000;0.312174
7395.000000;0.312432
7394.000000;0.312820
7393.000000;0.313080
7392.000000;0.313074
7391.000000;0.313040
7390.000000;0.313301
7389.000000;0.313841
7388.000000;0.314412
7387.000000;0.314960
7386.000000;0.315607
7385.000000;0.316279
7384.000000;0.316749
7383.000000;0.317062
7382.000000;0.317497
7381.000000;0.318002
7380.000000;0.318140
7379.000000;0.317876
7378.000000;0.317959
7377.000000;0.319004
7376.000000;0.320514
7375.000000;0.321366
7374.000000;0.321169
7373.000000;0.320660
7372.000000;0.320743
7371.000000;0.321596
7370.000000;0.322709
7369.000000;0.323432
7368.000000;0.323454
7367.000000;0.323078
7366.000000;0.323008
7365.000000;0.323633
7364.000000;0.324638
7363.000000;0.325477
7362.000000;0.325989
7361.000000;0.326296
7360.000000;0.326390
7359.000000;0.326296
7358.000000;0.326509
7357.000000;0.327511
7356.000000;0.328879
7355.000000;0.329573
7354.000000;0.329278
7353.000000;0.328819
7352.000000;0.329062
7351.000000;0.330037
7350.000000;0.331235
7349.000000;0.332146
7348.000000;0.332375
7347.000000;0.331911
7346.000000;0.331443
7345.000000;0.331748
7344.000000;0.332715
7343.000000;0.333659
7342.000000;0.334597
7341.000000;0.336182
7340.000000;0.338210
7339.000000;0.339348
7338.000000;0.339000
7337.000000;0.338373
7336.000000;0.338838
7335.000000;0.340157
7334.000000;0.341130
7333.000000;0.341279
7332.000000;0.341044
7331.000000;0.340945
7330.000000;0.341360
7329.000000;0.342480
7328.000000;0.343736
7327.000000;0.344028
7326.000000;0.343329
7325.000000;0.343187
7324.000000;0.344687
7323.000000;0.346821
7322.000000;0.347913
7321.000000;0.347892
7320.000000;0.348087
7319.000000;0.349192
7318.000000;0.350594
7317.000000;0.351562
7316.000000;0.352039
7315.000000;0.352259
7314.000000;0.352488
7313.000000;0.353169
7312.000000;0.354482
7311.000000;0.355756
7310.000000;0.356282
7309.000000;0.356555
7308.000000;0.357581
7307.000000;0.359127
7306.000000;0.359890
7305.000000;0.359537
7304.000000;0.359339
7303.000000;0.360367
7302.000000;0.362163
7301.000000;0.363680
7300.000000;0.364547
7299.000000;0.364962
7298.000000;0.365124
7297.000000;0.365508
7296.000000;0.366895
7295.000000;0.369250
7294.000000;0.371236
7293.000000;0.371747
7292.000000;0.371553
7291.000000;0.372431
7290.000000;0.374921
7289.000000;0.377865
7288.000000;0.379916
7287.000000;0.380774
7286.000000;0.381011
7285.000000;0.381318
7284.000000;0.382081
7283.000000;0.383288
7282.000000;0.384628
7281.000000;0.385803
7280.000000;0.386830
7279.000000;0.387960
7278.000000;0.389291
7277.000000;0.390704
7276.000000;0.392142
7275.000000;0.393692
7274.000000;0.395377
7273.000000;0.397065
7272.000000;0.398621
7271.000000;0.400080
7270.000000;0.401618
7269.000000;0.403336
7268.000000;0.405110
7267.000000;0.406695
7266.000000;0.408065
7265.000000;0.409583
7264.000000;0.411644
7263.000000;0.414132
7262.000000;0.416435
7261.000000;0.418112
7260.000000;0.419388
7259.000000;0.420815
7258.000000;0.422617
7257.000000;0.424612
7256.000000;0.426681
7255.000000;0.428979
7254.000000;0.431565
7253.000000;0.434097
7252.000000;0.436155
7251.000000;0.437767
7250.000000;0.439425
7249.000000;0.441518
7248.000000;0.443894
7247.000000;0.446089
7246.000000;0.448067
7245.000000;0.450519
7244.000000;0.453968
7243.000000;0.457761
7242.000000;0.460588
7241.000000;0.462135
7240.000000;0.463600
7239.000000;0.466172
7238.000000;0.469588
7237.000000;0.472676
7236.000000;0.474967
7235.000000;0.477245
7234.000000;0.480429
7233.000000;0.484292
7232.000000;0.487604
7231.000000;0.489599
7230.000000;0.491043
7229.000000;0.493544
7228.000000;0.497822
7227.000000;0.502866
7226.000000;0.506988
7225.000000;0.509571
7224.000000;0.511455
7223.000000;0.513835
7222.000000;0.517187
7221.000000;0.521134
7220.000000;0.524961
7219.000000;0.528201
7218.000000;0.531036
7217.000000;0.534146
7216.000000;0.538001
7215.000000;0.542357
7214.000000;0.546594
7213.000000;0.550431
7212.000000;0.554136
7211.000000;0.558035
7210.000000;0.562104
7209.000000;0.566172
7208.000000;0.570330
7207.000000;0.574826
7206.000000;0.579671
7205.000000;0.584528
7204.000000;0.588995
7203.000000;0.592976
7202.000000;0.596831
7201.000000;0.601086
7200.000000;0.605909
7199.000000;0.610936
7198.000000;0.615746
7197.000000;0.620379
7196.000000;0.625178
7195.000000;0.630210
7194.000000;0.635146
7193.000000;0.639820
7192.000000;0.644549
7191.000000;0.649676
7190.000000;0.655055
7189.000000;0.660297
7188.000000;0.665345
7187.000000;0.670411
7186.000000;0.675525
7185.000000;0.680580
7184.000000;0.685757
7183.000000;0.691407
7182.000000;0.697375
7181.000000;0.703017
7180.000000;0.708151
7179.000000;0.713501
7178.000000;0.719817
7177.000000;0.726880
7176.000000;0.733778
7175.000000;0.739899
7174.000000;0.745343
7173.000000;0.750554
7172.000000;0.755929
7171.000000;0.761749
7170.000000;0.768064
7169.000000;0.774549
7168.000000;0.780778
7167.000000;0.786616
7166.000000;0.792190
7165.000000;0.797615
7164.000000;0.803113
7163.000000;0.809145
7162.000000;0.815856
7161.000000;0.822611
7160.000000;0.828691
7159.000000;0.834393
7158.000000;0.840768
7157.000000;0.848148
7156.000000;0.855623
7155.000000;0.862234
7154.000000;0.868120
7153.000000;0.874074
7152.000000;0.880428
7151.000000;0.886871
7150.000000;0.893126
7149.000000;0.899271
7148.000000;0.905531
7147.000000;0.912040
7146.000000;0.918749
7145.000000;0.925401
7144.000000;0.931676
7143.000000;0.937594
7142.000000;0.943703
7141.000000;0.950524
7140.000000;0.957727
7139.000000;0.964336
7138.000000;0.970008
7137.000000;0.975666
7136.000000;0.982365
7135.000000;0.989901
7134.000000;0.997115
7133.000000;1.003391
7132.000000;1.009231
7131.000000;1.015296
7130.000000;1.021543
7129.000000;1.027580
7128.000000;1.033397
7127.000000;1.039316
7126.000000;1.045417
7125.000000;1.051507
7124.000000;1.057500
7123.000000;1.063466
7122.000000;1.069393
7121.000000;1.075209
7120.000000;1.081018
7119.000000;1.086965
7118.000000;1.092885
7117.000000;1.098455
7116.000000;1.103750
7115.000000;1.109336
7114.000000;1.115619
7113.000000;1.122313
7112.000000;1.128724
7111.000000;1.134447
7110.000000;1.139620
7109.000000;1.144644
7108.000000;1.149835
7107.000000;1.155287
7106.000000;1.160888
7105.000000;1.166419
7104.000000;1.171776
7103.000000;1.177122
7102.000000;1.182635
7101.000000;1.188140
7100.000000;1.193166
7099.000000;1.197460
7098.000000;1.201394
7097.000000;1.205714
7096.000000;1.210735
7095.000000;1.215975
7094.000000;1.220796
7093.000000;1.225238
7092.000000;1.229893
7091.000000;1.235036
7090.000000;1.240302
7089.000000;1.245214
7088.000000;1.249632
7087.000000;1.253618
7086.000000;1.257234
7085.000000;1.260671
7084.000000;1.264297
7083.000000;1.268320
7082.000000;1.272538
7081.000000;1.276587
7080.000000;1.280337
7079.000000;1.283967
7078.000000;1.287811
7077.000000;1.292145
7076.000000;1.296869
7075.000000;1.301393
7074.000000;1.305113
7073.000000;1.308040
7072.000000;1.310707
7071.000000;1.313543
7070.000000;1.316634
7069.000000;1.320044
7068.000000;1.323868
7067.000000;1.327871
7066.000000;1.331492
7065.000000;1.334440
7064.000000;1.337013
7063.000000;1.339626
7062.000000;1.342349
7061.000000;1.345084
7060.000000;1.347887
7059.000000;1.350839
7058.000000;1.353804
7057.000000;1.356608
7056.000000;1.359242
7055.000000;1.361701
7054.000000;1.363873
7053.000000;1.365782
7052.000000;1.367730
7051.000000;1.370013
7050.000000;1.372587
7049.000000;1.375148
7048.000000;1.377432
7047.000000;1.379374
7046.000000;1.381145
7045.000000;1.383114
7044.000000;1.385584
7043.000000;1.388436
7042.000000;1.391170
7041.000000;1.393356
7040.000000;1.394938
7039.000000;1.396164
7038.000000;1.397492
7037.000000;1.399495
7036.000000;1.402383
7035.000000;1.405480
7034.000000;1.407646
7033.000000;1.408527
7032.000000;1.409068
7031.000000;1.410485
7030.000000;1.412963
7029.000000;1.415611
7028.000000;1.417493
7027.000000;1.418486
7026.000000;1.419272
7025.000000;1.420682
7024.000000;1.422901
7023.000000;1.425194
7022.000000;1.426565
7021.000000;1.426846
7020.000000;1.426911
7019.000000;1.427705
7018.000000;1.429319
7017.000000;1.431158
7016.000000;1.432726
7015.000000;1.433994
7014.000000;1.435199
7013.000000;1.436537
7012.000000;1.437978
7011.000000;1.439207
7010.000000;1.439853
7009.000000;1.439900
7008.000000;1.439759
7007.000000;1.439904
7006.000000;1.440598
7005.000000;1.441975
7004.000000;1.444038
7003.000000;1.446442
7002.000000;1.448552
7001.000000;1.449881
7000.000000;1.450348
6999.000000;1.450103
6998.000000;1.449458
6997.000000;1.449025
6996.000000;1.449444
6995.000000;1.450663
6994.000000;1.451849
6993.000000;1.452320
6992.000000;1.452287
6991.000000;1.452374
6990.000000;1.452788
6989.000000;1.453409
6988.000000;1.454357
6987.000000;1.455874
6986.000000;1.457654
6985.000000;1.458866
6984.000000;1.459015
6983.000000;1.458495
6982.000000;1.458095
6981.000000;1.458252
6980.000000;1.458864
6979.000000;1.459572
6978.000000;1.460026
6977.000000;1.460019
6976.000000;1.459574
6975.000000;1.458923
6974.000000;1.458397
6973.000000;1.458259
6972.000000;1.458582
6971.000000;1.459201
6970.000000;1.459802
6969.000000;1.460098
6968.000000;1.459984
6967.000000;1.459596
6966.000000;1.459272
6965.000000;1.459370
6964.000000;1.459981
6963.000000;1.460762
6962.000000;1.461148
6961.000000;1.460808
6960.000000;1.459902
6959.000000;1.458947
6958.000000;1.458523
6957.000000;1.458900
6956.000000;1.459712
6955.000000;1.460128
6954.000000;1.459701
6953.000000;1.459011
6952.000000;1.459102
6951.000000;1.460230
6950.000000;1.461476
6949.000000;1.461744
6948.000000;1.460856
6947.000000;1.459501
6946.000000;1.458425
6945.000000;1.457967
6944.000000;1.458145
6943.000000;1.458740
6942.000000;1.459284
6941.000000;1.459301
6940.000000;1.458688
6939.000000;1.457740
6938.000000;1.456758
6937.000000;1.455835
6936.000000;1.455085
6935.000000;1.454871
6934.000000;1.455525
6933.000000;1.456826
6932.000000;1.457931
6931.000000;1.457971
6930.000000;1.456741
6929.000000;1.454723
6928.000000;1.452572
6927.000000;1.450750
6926.000000;1.449540
6925.000000;1.449040
6924.000000;1.449025
6923.000000;1.449090
6922.000000;1.449090
6921.000000;1.449258
6920.000000;1.449717
6919.000000;1.450065
6918.000000;1.449706
6917.000000;1.448529
6916.000000;1.447005
6915.000000;1.445703
6914.000000;1.444944
6913.000000;1.444765
6912.000000;1.444840
6911.000000;1.444520
6910.000000;1.443361
6909.000000;1.441733
6908.000000;1.440578
6907.000000;1.440462
6906.000000;1.441043
6905.000000;1.441531
6904.000000;1.441487
6903.000000;1.441052
6902.000000;1.440555
6901.000000;1.440079
6900.000000;1.439406
6899.000000;1.438325
6898.000000;1.436953
6897.000000;1.435707
6896.000000;1.434909
6895.000000;1.434516
6894.000000;1.434308
6893.000000;1.434154
6892.000000;1.433934
6891.000000;1.433400
6890.000000;1.432429
6889.000000;1.431333
6888.000000;1.430550
6887.000000;1.430018
6886.000000;1.429221
6885.000000;1.427960
6884.000000;1.426796
6883.000000;1.426513
6882.000000;1.427276
6881.000000;1.428398
6880.000000;1.428852
6879.000000;1.428052
6878.000000;1.426305
6877.000000;1.424539
6876.000000;1.423483
6875.000000;1.423133
6874.000000;1.423056
6873.000000;1.423011
6872.000000;1.422944
6871.000000;1.422531
6870.000000;1.421221
6869.000000;1.418926
6868.000000;1.416374
6867.000000;1.414536
6866.000000;1.413809
6865.000000;1.413768
6864.000000;1.413546
6863.000000;1.412498
6862.000000;1.410734
6861.000000;1.409037
6860.000000;1.408096
6859.000000;1.407839
6858.000000;1.407679
6857.000000;1.407270
6856.000000;1.406697
6855.000000;1.405978
6854.000000;1.404904
6853.000000;1.403468
6852.000000;1.402029
6851.000000;1.400868
6850.000000;1.399887
6849.000000;1.398933
6848.000000;1.398021
6847.000000;1.397024
6846.000000;1.395493
6845.000000;1.393202
6844.000000;1.390629
6843.000000;1.388507
6842.000000;1.387006
6841.000000;1.385681
6840.000000;1.384180
6839.000000;1.382637
6838.000000;1.381310
6837.000000;1.380148
6836.000000;1.378837
6835.000000;1.377149
6834.000000;1.375129
6833.000000;1.373035
6832.000000;1.371157
6831.000000;1.369626
6830.000000;1.368327
6829.000000;1.366990
6828.000000;1.365435
6827.000000;1.363735
6826.000000;1.362128
6825.000000;1.360734
6824.000000;1.359324
6823.000000;1.357447
6822.000000;1.354852
6821.000000;1.351780
6820.000000;1.348777
6819.000000;1.346228
6818.000000;1.344143
6817.000000;1.342293
6816.000000;1.340407
6815.000000;1.338243
6814.000000;1.335687
6813.000000;1.332883
6812.000000;1.330160
6811.000000;1.327765
6810.000000;1.325710
6809.000000;1.323895
6808.000000;1.322252
6807.000000;1.320694
6806.000000;1.318986
6805.000000;1.316826
6804.000000;1.314092
6803.000000;1.310967
6802.000000;1.307810
6801.000000;1.304897
6800.000000;1.302303
6799.000000;1.299984
6798.000000;1.297888
6797.000000;1.295905
6796.000000;1.293755
6795.000000;1.291097
6794.000000;1.287851
6793.000000;1.284304
6792.000000;1.280837
6791.000000;1.277646
6790.000000;1.274783
6789.000000;1.272292
6788.000000;1.270130
6787.000000;1.268065
6786.000000;1.265836
6785.000000;1.263403
6784.000000;1.260875
6783.000000;1.258274
6782.000000;1.255568
6781.000000;1.252878
6780.000000;1.250371
6779.000000;1.247947
6778.000000;1.245255
6777.000000;1.242134
6776.000000;1.238819
6775.000000;1.235622
6774.000000;1.232594
6773.000000;1.229635
6772.000000;1.226767
6771.000000;1.224118
6770.000000;1.221716
6769.000000;1.219459
6768.000000;1.217221
6767.000000;1.214884
6766.000000;1.212319
6765.000000;1.209474
6764.000000;1.206442
6763.000000;1.203327
6762.000000;1.200085
6761.000000;1.196651
6760.000000;1.193212
6759.000000;1.190163
6758.000000;1.187684
6757.000000;1.185456
6756.000000;1.182929
6755.000000;1.179898
6754.000000;1.176715
6753.000000;1.173892
6752.000000;1.171578
6751.000000;1.169485
6750.000000;1.167259
6749.000000;1.164808
6748.000000;1.162233
6747.000000;1.159599
6746.000000;1.156866
6745.000000;1.154002
6744.000000;1.151030
6743.000000;1.147984
6742.000000;1.144899
6741.000000;1.141835
6740.000000;1.138855
6739.000000;1.135985
6738.000000;1.133218
6737.000000;1.130542
6736.000000;1.127916
6735.000000;1.125259
6734.000000;1.122530
6733.000000;1.119767
6732.000000;1.116998
6731.000000;1.114167
6730.000000;1.111235
6729.000000;1.108325
6728.000000;1.105637
6727.000000;1.103212
6726.000000;1.100875
6725.000000;1.098411
6724.000000;1.095739
6723.000000;1.092912
6722.000000;1.090035
6721.000000;1.087224
6720.000000;1.084543
6719.000000;1.081948
6718.000000;1.079309
6717.000000;1.076533
6716.000000;1.073642
6715.000000;1.070738
6714.000000;1.067921
6713.000000;1.065248
6712.000000;1.062701
6711.000000;1.060187
6710.000000;1.057611
6709.000000;1.054950
6708.000000;1.052250
6707.000000;1.049569
6706.000000;1.046925
6705.000000;1.044237
6704.000000;1.041502
6703.000000;1.038726
6702.000000;1.036107
6701.000000;1.033621
6700.000000;1.031097
6699.000000;1.028555
6698.000000;1.025884
6697.000000;1.023217
6696.000000;1.020712
6695.000000;1.018425
6694.000000;1.016212
6693.000000;1.013856
6692.000000;1.011242
6691.000000;1.008454
6690.000000;1.005742
6689.000000;1.003333
6688.000000;1.001214
6687.000000;0.999121
6686.000000;0.996766
6685.000000;0.994084
6684.000000;0.991231
6683.000000;0.988400
6682.000000;0.985690
6681.000000;0.983107
6680.000000;0.980603
6679.000000;0.978119
6678.000000;0.975635
6677.000000;0.973175
6676.000000;0.970743
6675.000000;0.968304
6674.000000;0.965869
6673.000000;0.963512
6672.000000;0.961240
6671.000000;0.958897
6670.000000;0.956307
6669.000000;0.953510
6668.000000;0.950754
6667.000000;0.948249
6666.000000;0.946011
6665.000000;0.943909
6664.000000;0.941783
6663.000000;0.939500
6662.000000;0.936997
6661.000000;0.934328
6660.000000;0.931641
6659.000000;0.929073
6658.000000;0.926687
6657.000000;0.924483
6656.000000;0.922399
6655.000000;0.920309
6654.000000;0.918071
6653.000000;0.915626
6652.000000;0.913034
6651.000000;0.910426
6650.000000;0.907936
6649.000000;0.905655
6648.000000;0.903580
6647.000000;0.901586
6646.000000;0.899522
6645.000000;0.897330
6644.000000;0.895067
6643.000000;0.892812
6642.000000;0.890609
6641.000000;0.888467
6640.000000;0.886349
6639.000000;0.884162
6638.000000;0.881835
6637.000000;0.879423
6636.000000;0.877082
6635.000000;0.874918
6634.000000;0.872873
6633.000000;0.870781
6632.000000;0.868513
6631.000000;0.866069
6630.000000;0.863568
6629.000000;0.861155
6628.000000;0.858901
6627.000000;0.856783
6626.000000;0.854760
6625.000000;0.852803
6624.000000;0.850839
6623.000000;0.848753
6622.000000;0.846515
6621.000000;0.844271
6620.000000;0.842197
6619.000000;0.840282
6618.000000;0.838349
6617.000000;0.836281
6616.000000;0.834144
6615.000000;0.832059
6614.000000;0.830059
6613.000000;0.828097
6612.000000;0.826121
6611.000000;0.824088
6610.000000;0.821959
6609.000000;0.819729
6608.000000;0.817456
6607.000000;0.815217
6606.000000;0.813063
6605.000000;0.811022
6604.000000;0.809087
6603.000000;0.807205
6602.000000;0.805324
6601.000000;0.803449
6600.000000;0.801624
6599.000000;0.799820
6598.000000;0.797917
6597.000000;0.795834
6596.000000;0.793651
6595.000000;0.791546
6594.000000;0.789628
6593.000000;0.787862
6592.000000;0.786134
6591.000000;0.784352
6590.000000;0.782497
6589.000000;0.780599
6588.000000;0.778691
6587.000000;0.776780
6586.000000;0.774871
6585.000000;0.772987
6584.000000;0.771143
6583.000000;0.769308
6582.000000;0.767437
6581.000000;0.765538
6580.000000;0.763667
6579.000000;0.761851
6578.000000;0.760037
6577.000000;0.758155
6576.000000;0.756205
6575.000000;0.754270
6574.000000;0.752440
6573.000000;0.750734
6572.000000;0.749086
6571.000000;0.747410
6570.000000;0.745689
6569.000000;0.743974
6568.000000;0.742307
6567.000000;0.740662
6566.000000;0.738989
6565.000000;0.737286
6564.000000;0.735578
6563.000000;0.733859
6562.000000;0.732091
6561.000000;0.730271
6560.000000;0.728442
6559.000000;0.726630
6558.000000;0.724825
6557.000000;0.723015
6556.000000;0.721229
6555.000000;0.719504
6554.000000;0.717856
6553.000000;0.716278
6552.000000;0.714733
6551.000000;0.713160
6550.000000;0.711510
6549.000000;0.709795
6548.000000;0.708078
6547.000000;0.706417
6546.000000;0.704816
6545.000000;0.703247
6544.000000;0.701688
6543.000000;0.700135
6542.000000;0.698593
6541.000000;0.697047
6540.000000;0.695456
6539.000000;0.693801
6538.000000;0.692146
6537.000000;0.690589
6536.000000;0.689141
6535.000000;0.687684
6534.000000;0.686113
6533.000000;0.684457
6532.000000;0.682828
6531.000000;0.681278
6530.000000;0.679788
6529.000000;0.678346
6528.000000;0.676943
6527.000000;0.675508
6526.000000;0.673951
6525.000000;0.672298
6524.000000;0.670686
6523.000000;0.669204
6522.000000;0.667804
6521.000000;0.666398
6520.000000;0.664958
6519.000000;0.663487
6518.000000;0.661964
6517.000000;0.660389
6516.000000;0.658840
6515.000000;0.657406
6514.000000;0.656097
6513.000000;0.654827
6512.000000;0.653493
6511.000000;0.652038
6510.000000;0.650489
6509.000000;0.648948
6508.000000;0.647516
6507.000000;0.646190
6506.000000;0.644881
6505.000000;0.643541
6504.000000;0.642215
6503.000000;0.640937
6502.000000;0.639641
6501.000000;0.638238
6500.000000;0.636742
6499.000000;0.635252
6498.000000;0.633832
6497.000000;0.632469
6496.000000;0.631134
6495.000000;0.629824
6494.000000;0.628525
6493.000000;0.627208
6492.000000;0.625866
6491.000000;0.624526
6490.000000;0.623201
6489.000000;0.621875
6488.000000;0.620544
6487.000000;0.619244
6486.000000;0.618009
6485.000000;0.616828
6484.000000;0.615666
6483.000000;0.614499
6482.000000;0.613309
6481.000000;0.612054
6480.000000;0.610697
6479.000000;0.609275
6478.000000;0.607900
6477.000000;0.606652
6476.000000;0.605493
6475.000000;0.604311
6474.000000;0.603057
6473.000000;0.601801
6472.000000;0.600625
6471.000000;0.599507
6470.000000;0.598356
6469.000000;0.597126
6468.000000;0.595855
6467.000000;0.594596
6466.000000;0.593357
6465.000000;0.592121
6464.000000;0.590903
6463.000000;0.589737
6462.000000;0.588639
6461.000000;0.587578
6460.000000;0.586497
6459.000000;0.585348
6458.000000;0.584127
6457.000000;0.582877
6456.000000;0.581656
6455.000000;0.580488
6454.000000;0.579366
6453.000000;0.578266
6452.000000;0.577167
6451.000000;0.576055
6450.000000;0.574938
6449.000000;0.573837
6448.000000;0.572750
6447.000000;0.571648
6446.000000;0.570520
6445.000000;0.569412
6444.000000;0.568373
6443.000000;0.567371
6442.000000;0.566321
6441.000000;0.565188
6440.000000;0.564028
6439.000000;0.562903
6438.000000;0.561819
6437.000000;0.560746
6436.000000;0.559687
6435.000000;0.558669
6434.000000;0.557701
6433.000000;0.556761
6432.000000;0.555815
6431.000000;0.554836
6430.000000;0.553821
6429.000000;0.552796
6428.000000;0.551790
6427.000000;0.550797
6426.000000;0.549779
6425.000000;0.548713
6424.000000;0.547619
6423.000000;0.546530
6422.000000;0.545466
6421.000000;0.544445
6420.000000;0.543482
6419.000000;0.542560
6418.000000;0.541627
6417.000000;0.540653
6416.000000;0.539672
6415.000000;0.538731
6414.000000;0.537821
6413.000000;0.536894
6412.000000;0.535921
6411.000000;0.534923
6410.000000;0.533939
6409.000000;0.532985
6408.000000;0.532054
6407.000000;0.531135
6406.000000;0.530224
6405.000000;0.529329
6404.000000;0.528455
6403.000000;0.527591
6402.000000;0.526713
6401.000000;0.525807
6400.000000;0.524891
6399.000000;0.523993
6398.000000;0.523123
6397.000000;0.522267
6396.000000;0.521416
6395.000000;0.520571
6394.000000;0.519730
6393.000000;0.518877
6392.000000;0.517996
6391.000000;0.517095
6390.000000;0.516203
6389.000000;0.515334
6388.000000;0.514465
6387.000000;0.513564
6386.000000;0.512640
6385.000000;0.511743
6384.000000;0.510911
6383.000000;0.510129
6382.000000;0.509357
6381.000000;0.508582
6380.000000;0.507808
6379.000000;0.507030
6378.000000;0.506229
6377.000000;0.505398
6376.000000;0.504544
6375.000000;0.503672
6374.000000;0.502793
6373.000000;0.501944
6372.000000;0.501158
6371.000000;0.500432
6370.000000;0.499728
6369.000000;0.499007
6368.000000;0.498246
6367.000000;0.497432
6366.000000;0.496572
6365.000000;0.495712
6364.000000;0.494910
6363.000000;0.494174
6362.000000;0.493458
6361.000000;0.492716
6360.000000;0.491944
6359.000000;0.491160
6358.000000;0.490394
6357.000000;0.489674
6356.000000;0.489006
6355.000000;0.488347
6354.000000;0.487633
6353.000000;0.486852
6352.000000;0.486052
6351.000000;0.485275
6350.000000;0.484528
6349.000000;0.483812
6348.000000;0.483136
6347.000000;0.482491
6346.000000;0.481837
6345.000000;0.481153
6344.000000;0.480452
6343.000000;0.479742
6342.000000;0.479002
6341.000000;0.478229
6340.000000;0.477462
6339.000000;0.476744
6338.000000;0.476073
6337.000000;0.475417
6336.000000;0.474768
6335.000000;0.474133
6334.000000;0.473513
6333.000000;0.472895
6332.000000;0.472278
6331.000000;0.471656
6330.000000;0.471018
6329.000000;0.470361
6328.000000;0.469707
6327.000000;0.469076
6326.000000;0.468455
6325.000000;0.467814
6324.000000;0.467145
6323.000000;0.466469
6322.000000;0.465806
6321.000000;0.465158
6320.000000;0.464514
6319.000000;0.463862
6318.000000;0.463203
6317.000000;0.462557
6316.000000;0.461947
6315.000000;0.461366
6314.000000;0.460779
6313.000000;0.460166
6312.000000;0.459541
6311.000000;0.458916
6310.000000;0.458291
6309.000000;0.457669
6308.000000;0.457078
6307.000000;0.456532
6306.000000;0.456010
6305.000000;0.455475
6304.000000;0.454924
6303.000000;0.454368
6302.000000;0.453801
6301.000000;0.453207
6300.000000;0.452582
6299.000000;0.451945
6298.000000;0.451321
6297.000000;0.450729
6296.000000;0.450183
6295.000000;0.449682
6294.000000;0.449202
6293.000000;0.448714
6292.000000;0.448202
6291.000000;0.447661
6290.000000;0.447091
6289.000000;0.446506
6288.000000;0.445930
6287.000000;0.445373
6286.000000;0.444831
6285.000000;0.444305
6284.000000;0.443808
6283.000000;0.443332
6282.000000;0.442837
6281.000000;0.442290
6280.000000;0.441717
6279.000000;0.441174
6278.000000;0.440686
6277.000000;0.440222
6276.000000;0.439732
6275.000000;0.439200
6274.000000;0.438654
6273.000000;0.438139
6272.000000;0.437672
6271.000000;0.437218
6270.000000;0.436718
6269.000000;0.436160
6268.000000;0.435586
6267.000000;0.435055
6266.000000;0.434590
6265.000000;0.434174
6264.000000;0.433769
6263.000000;0.433330
6262.000000;0.432834
6261.000000;0.432301
6260.000000;0.431777
6259.000000;0.431279
6258.000000;0.430785
6257.000000;0.430272
6256.000000;0.429754
6255.000000;0.429259
6254.000000;0.428791
6253.000000;0.428341
6252.000000;0.427904
6251.000000;0.427473
6250.000000;0.427030
6249.000000;0.426577
6248.000000;0.426146
6247.000000;0.425757
6246.000000;0.425380
6245.000000;0.424960
6244.000000;0.424484
6243.000000;0.423985
6242.000000;0.423508
6241.000000;0.423079
6240.000000;0.422695
6239.000000;0.422319
6238.000000;0.421897
6237.000000;0.421414
6236.000000;0.420914
6235.000000;0.420453
6234.000000;0.420040
6233.000000;0.419655
6232.000000;0.419287
6231.000000;0.418932
6230.000000;0.418562
6229.000000;0.418143
6228.000000;0.417680
6227.000000;0.417208
6226.000000;0.416752
6225.000000;0.416312
6224.000000;0.415883
6223.000000;0.415462
6222.000000;0.415044
6221.000000;0.414626
6220.000000;0.414225
6219.000000;0.413860
6218.000000;0.413517
6217.000000;0.413165
6216.000000;0.412797
6215.000000;0.412425
6214.000000;0.412047
6213.000000;0.411643
6212.000000;0.411209
6211.000000;0.410771
6210.000000;0.410350
6209.000000;0.409952
6208.000000;0.409579
6207.000000;0.409230
6206.000000;0.408886
6205.000000;0.408525
6204.000000;0.408146
6203.000000;0.407776
6202.000000;0.407428
6201.000000;0.407092
6200.000000;0.406756
6199.000000;0.406417
6198.000000;0.406062
6197.000000;0.405674
6196.000000;0.405256
6195.000000;0.404846
6194.000000;0.404478
6193.000000;0.404149
6192.000000;0.403837
6191.000000;0.403524
6190.000000;0.403198
6189.000000;0.402848
6188.000000;0.402474
6187.000000;0.402099
6186.000000;0.401745
6185.000000;0.401411
6184.000000;0.401084
6183.000000;0.400750
6182.000000;0.400409
6181.000000;0.400069
6180.000000;0.399749
6179.000000;0.399463
6178.000000;0.399201
6177.000000;0.398925
6176.000000;0.398598
6175.000000;0.398219
6174.000000;0.397822
6173.000000;0.397436
6172.000000;0.397071
6171.000000;0.396727
6170.000000;0.396409
6169.000000;0.396129
6168.000000;0.395877
6167.000000;0.395614
6166.000000;0.395304
6165.000000;0.394942
6164.000000;0.394564
6163.000000;0.394204
6162.000000;0.393872
6161.000000;0.393561
6160.000000;0.393270
6159.000000;0.393004
6158.000000;0.392766
6157.000000;0.392540
6156.000000;0.392301
6155.000000;0.392028
6154.000000;0.391712
6153.000000;0.391367
6152.000000;0.391015
6151.000000;0.390660
6150.000000;0.390300
6149.000000;0.389942
6148.000000;0.389614
6147.000000;0.389333
6146.000000;0.389080
6145.000000;0.388826
6144.000000;0.388562
6143.000000;0.388296
6142.000000;0.388028
6141.000000;0.387752
6140.000000;0.387471
6139.000000;0.387192
6138.000000;0.386922
6137.000000;0.386660
6136.000000;0.386403
6135.000000;0.386141
6134.000000;0.385857
6133.000000;0.385556
6132.000000;0.385272
6131.000000;0.385030
6130.000000;0.384814
6129.000000;0.384579
6128.000000;0.384301
6127.000000;0.383999
6126.000000;0.383702
6125.000000;0.383428
6124.000000;0.383173
6123.000000;0.382925
6122.000000;0.382669
6121.000000;0.382399
6120.000000;0.382124
6119.000000;0.381862
6118.000000;0.381623
6117.000000;0.381406
6116.000000;0.381197
6115.000000;0.380974
6114.000000;0.380719
6113.000000;0.380435
6112.000000;0.380150
6111.000000;0.379883
6110.000000;0.379623
6109.000000;0.379361
6108.000000;0.379116
6107.000000;0.378917
6106.000000;0.378758
6105.000000;0.378595
6104.000000;0.378399
6103.000000;0.378175
6102.000000;0.377943
6101.000000;0.377704
6100.000000;0.377447
6099.000000;0.377170
6098.000000;0.376879
6097.000000;0.376583
6096.000000;0.376296
6095.000000;0.376035
6094.000000;0.375806
6093.000000;0.375601
6092.000000;0.375402
6091.000000;0.375194
6090.000000;0.374969
6089.000000;0.374726
6088.000000;0.374482
6087.000000;0.374264
6086.000000;0.374086
6085.000000;0.373936
6084.000000;0.373784
6083.000000;0.373604
6082.000000;0.373393
6081.000000;0.373172
6080.000000;0.372959
6079.000000;0.372748
6078.000000;0.372525
6077.000000;0.372295
6076.000000;0.372085
6075.000000;0.371910
6074.000000;0.371754
6073.000000;0.371594
6072.000000;0.371428
6071.000000;0.371265
6070.000000;0.371098
6069.000000;0.370907
6068.000000;0.370689
6067.000000;0.370464
6066.000000;0.370246
6065.000000;0.370034
6064.000000;0.369822
6063.000000;0.369611
6062.000000;0.369413
6061.000000;0.369239
6060.000000;0.369100
6059.000000;0.368987
6058.000000;0.368872
6057.000000;0.368731
6056.000000;0.368567
6055.000000;0.368406
6054.000000;0.368262
6053.000000;0.368124
6052.000000;0.367969
6051.000000;0.367781
6050.000000;0.367571
6049.000000;0.367370
6048.000000;0.367205
6047.000000;0.367066
6046.000000;0.366917
6045.000000;0.366734
6044.000000;0.366535
6043.000000;0.366353
6042.000000;0.366189
6041.000000;0.366022
6040.000000;0.365842
6039.000000;0.365662
6038.000000;0.365498
6037.000000;0.365356
6036.000000;0.365241
6035.000000;0.365155
6034.000000;0.365083
6033.000000;0.365000
6032.000000;0.364895
6031.000000;0.364779
6030.000000;0.364668
6029.000000;0.364565
6028.000000;0.364461
6027.000000;0.364346
6026.000000;0.364215
6025.000000;0.364066
6024.000000;0.363906
6023.000000;0.363744
6022.000000;0.363586
6021.000000;0.363436
6020.000000;0.363300
6019.000000;0.363174
6018.000000;0.363045
6017.000000;0.362907
6016.000000;0.362776
6015.000000;0.362663
6014.000000;0.362553
6013.000000;0.362418
6012.000000;0.362259
6011.000000;0.362103
6010.000000;0.361968
6009.000000;0.361844
6008.000000;0.361721
6007.000000;0.361607
6006.000000;0.361516
6005.000000;0.361446
6004.000000;0.361381
6003.000000;0.361311
6002.000000;0.361237
6001.000000;0.361175
6000.000000;0.361138
5999.000000;0.361120
5998.000000;0.361092
5997.000000;0.361020
5996.000000;0.360905
5995.000000;0.360787
5994.000000;0.360699
5993.000000;0.360638
5992.000000;0.360579
5991.000000;0.360506
5990.000000;0.360425
5989.000000;0.360343
5988.000000;0.360262
5987.000000;0.360179
5986.000000;0.360092
5985.000000;0.359996
5984.000000;0.359892
5983.000000;0.359791
5982.000000;0.359712
5981.000000;0.359672
5980.000000;0.359667
5979.000000;0.359668
5978.000000;0.359641
5977.000000;0.359570
5976.000000;0.359460
5975.000000;0.359329
5974.000000;0.359202
5973.000000;0.359111
5972.000000;0.359085
5971.000000;0.359115
5970.000000;0.359159
5969.000000;0.359175
5968.000000;0.359157
5967.000000;0.359117
5966.000000;0.359064
5965.000000;0.359008
5964.000000;0.358968
5963.000000;0.358962
5962.000000;0.358979
5961.000000;0.358993
5960.000000;0.358988
5959.000000;0.358976
5958.000000;0.358967
5957.000000;0.358958
5956.000000;0.358948
5955.000000;0.358938
5954.000000;0.358926
5953.000000;0.358903
5952.000000;0.358864
5951.000000;0.358818
5950.000000;0.358781
5949.000000;0.358766
5948.000000;0.358778
5947.000000;0.358807
5946.000000;0.358824
5945.000000;0.358802
5944.000000;0.358750
5943.000000;0.358709
5942.000000;0.358708
5941.000000;0.358744
5940.000000;0.358787
5939.000000;0.358809
5938.000000;0.358796
5937.000000;0.358759
5936.000000;0.358727
5935.000000;0.358725
5934.000000;0.358759
5933.000000;0.358810
5932.000000;0.358860
5931.000000;0.358905
5930.000000;0.358948
5929.000000;0.358989
5928.000000;0.359029
5927.000000;0.359069
5926.000000;0.359103
5925.000000;0.359129
5924.000000;0.359153
5923.000000;0.359189
5922.000000;0.359236
5921.000000;0.359283
5920.000000;0.359318
5919.000000;0.359345
5918.000000;0.359372
5917.000000;0.359404
5916.000000;0.359440
5915.000000;0.359480
5914.000000;0.359519
5913.000000;0.359554
5912.000000;0.359591
5911.000000;0.359643
5910.000000;0.359708
5909.000000;0.359760
5908.000000;0.359779
5907.000000;0.359776
5906.000000;0.359791
5905.000000;0.359851
5904.000000;0.359946
5903.000000;0.360036
5902.000000;0.360092
5901.000000;0.360120
5900.000000;0.360149
5899.000000;0.360200
5898.000000;0.360266
5897.000000;0.360334
5896.000000;0.360408
5895.000000;0.360492
5894.000000;0.360578
5893.000000;0.360648
5892.000000;0.360697
5891.000000;0.360730
5890.000000;0.360752
5889.000000;0.360767
5888.000000;0.360796
5887.000000;0.360868
5886.000000;0.360985
5885.000000;0.361114
5884.000000;0.361224
5883.000000;0.361315
5882.000000;0.361408
5881.000000;0.361518
5880.000000;0.361638
5879.000000;0.361758
5878.000000;0.361877
5877.000000;0.362001
5876.000000;0.362135
5875.000000;0.362282
5874.000000;0.362435
5873.000000;0.362579
5872.000000;0.362696
5871.000000;0.362785
5870.000000;0.362871
5869.000000;0.362982
5868.000000;0.363129
5867.000000;0.363291
5866.000000;0.363439
5865.000000;0.363566
5864.000000;0.363692
5863.000000;0.363839
5862.000000;0.364005
5861.000000;0.364175
5860.000000;0.364339
5859.000000;0.364499
5858.000000;0.364662
5857.000000;0.364831
5856.000000;0.365008
5855.000000;0.365194
5854.000000;0.365388
5853.000000;0.365580
5852.000000;0.365762
5851.000000;0.365926
5850.000000;0.366081
5849.000000;0.366247
5848.000000;0.366437
5847.000000;0.366638
5846.000000;0.366825
5845.000000;0.366999
5844.000000;0.367192
5843.000000;0.367430
5842.000000;0.367700
5841.000000;0.367966
5840.000000;0.368208
5839.000000;0.368430
5838.000000;0.368643
5837.000000;0.368850
5836.000000;0.369055
5835.000000;0.369262
5834.000000;0.369473
5833.000000;0.369691
5832.000000;0.369925
5831.000000;0.370186
5830.000000;0.370474
5829.000000;0.370767
5828.000000;0.371040
5827.000000;0.371280
5826.000000;0.371495
5825.000000;0.371706
5824.000000;0.371936
5823.000000;0.372187
5822.000000;0.372441
5821.000000;0.372678
5820.000000;0.372905
5819.000000;0.373140
5818.000000;0.373395
5817.000000;0.373670
5816.000000;0.373955
5815.000000;0.374244
5814.000000;0.374528
5813.000000;0.374806
5812.000000;0.375087
5811.000000;0.375383
5810.000000;0.375692
5809.000000;0.376004
5808.000000;0.376323
5807.000000;0.376661
5806.000000;0.377029
5805.000000;0.377410
5804.000000;0.377774
5803.000000;0.378102
5802.000000;0.378406
5801.000000;0.378717
5800.000000;0.379063
5799.000000;0.379444
5798.000000;0.379839
5797.000000;0.380225
5796.000000;0.380581
5795.000000;0.380893
5794.000000;0.381177
5793.000000;0.381479
5792.000000;0.381838
5791.000000;0.382241
5790.000000;0.382636
5789.000000;0.382992
5788.000000;0.383324
5787.000000;0.383658
5786.000000;0.383998
5785.000000;0.384347
5784.000000;0.384715
5783.000000;0.385102
5782.000000;0.385497
5781.000000;0.385895
5780.000000;0.386315
5779.000000;0.386760
5778.000000;0.387192
5777.000000;0.387581
5776.000000;0.387947
5775.000000;0.388336
5774.000000;0.388756
5773.000000;0.389182
5772.000000;0.389614
5771.000000;0.390071
5770.000000;0.390558
5769.000000;0.391053
5768.000000;0.391541
5767.000000;0.392027
5766.000000;0.392507
5765.000000;0.392969
5764.000000;0.393419
5763.000000;0.393881
5762.000000;0.394364
5761.000000;0.394841
5760.000000;0.395291
5759.000000;0.395728
5758.000000;0.396176
5757.000000;0.396641
5756.000000;0.397115
5755.000000;0.397601
5754.000000;0.398116
5753.000000;0.398662
5752.000000;0.399220
5751.000000;0.399761
5750.000000;0.400262
5749.000000;0.400725
5748.000000;0.401187
5747.000000;0.401696
5746.000000;0.402274
5745.000000;0.402901
5744.000000;0.403529
5743.000000;0.404125
5742.000000;0.404687
5741.000000;0.405239
5740.000000;0.405804
5739.000000;0.406385
5738.000000;0.406963
5737.000000;0.407520
5736.000000;0.408058
5735.000000;0.408603
5734.000000;0.409176
5733.000000;0.409784
5732.000000;0.410419
5731.000000;0.411062
5730.000000;0.411699
5729.000000;0.412336
5728.000000;0.412988
5727.000000;0.413657
5726.000000;0.414320
5725.000000;0.414948
5724.000000;0.415540
5723.000000;0.416115
5722.000000;0.416692
5721.000000;0.417286
5720.000000;0.417911
5719.000000;0.418577
5718.000000;0.419278
5717.000000;0.419993
5716.000000;0.420709
5715.000000;0.421423
5714.000000;0.422135
5713.000000;0.422831
5712.000000;0.423498
5711.000000;0.424138
5710.000000;0.424775
5709.000000;0.425444
5708.000000;0.426159
5707.000000;0.426900
5706.000000;0.427626
5705.000000;0.428320
5704.000000;0.428996
5703.000000;0.429677
5702.000000;0.430374
5701.000000;0.431092
5700.000000;0.431837
5699.000000;0.432584
5698.000000;0.433322
5697.000000;0.433995
5696.000000;0.434698
5695.000000;0.435470
5694.000000;0.436254
5693.000000;0.437036
5692.000000;0.437791
5691.000000;0.438516
5690.000000;0.439188
5689.000000;0.439818
5688.000000;0.440470
5687.000000;0.441216
5686.000000;0.442061
5685.000000;0.442934
5684.000000;0.443757
5683.000000;0.444500
5682.000000;0.445182
5681.000000;0.445844
5680.000000;0.446522
5679.000000;0.447226
5678.000000;0.447938
5677.000000;0.448646
5676.000000;0.449363
5675.000000;0.450110
5674.000000;0.450885
5673.000000;0.451666
5672.000000;0.452440
5671.000000;0.453202
5670.000000;0.453945
5669.000000;0.454662
5668.000000;0.455364
5667.000000;0.456076
5666.000000;0.456809
5665.000000;0.457565
5664.000000;0.458335
5663.000000;0.459098
5662.000000;0.459832
5661.000000;0.460534
5660.000000;0.461230
5659.000000;0.461936
5658.000000;0.462638
5657.000000;0.463326
5656.000000;0.464021
5655.000000;0.464735
5654.000000;0.465442
5653.000000;0.466098
5652.000000;0.466702
5651.000000;0.467290
5650.000000;0.467892
5649.000000;0.468517
5648.000000;0.469169
5647.000000;0.469838
5646.000000;0.470492
5645.000000;0.471100
5644.000000;0.471675
5643.000000;0.472262
5642.000000;0.472877
5641.000000;0.473500
5640.000000;0.474108
5639.000000;0.474701
5638.000000;0.475289
5637.000000;0.475867
5636.000000;0.476428
5635.000000;0.476974
5634.000000;0.477522
5633.000000;0.478092
5632.000000;0.478686
5631.000000;0.479280
5630.000000;0.479843
5629.000000;0.480366
5628.000000;0.480867
5627.000000;0.481347
5626.000000;0.481791
5625.000000;0.482209
5624.000000;0.482649
5623.000000;0.483134
5622.000000;0.483618
5621.000000;0.484044
5620.000000;0.484419
5619.000000;0.484793
5618.000000;0.485190
5617.000000;0.485599
5616.000000;0.486019
5615.000000;0.486455
5614.000000;0.486892
5613.000000;0.487297
5612.000000;0.487664
5611.000000;0.488012
5610.000000;0.488345
5609.000000;0.488648
5608.000000;0.488926
5607.000000;0.489204
5606.000000;0.489501
5605.000000;0.489819
5604.000000;0.490146
5603.000000;0.490462
5602.000000;0.490746
5601.000000;0.491001
5600.000000;0.491257
5599.000000;0.491533
5598.000000;0.491806
5597.000000;0.492046
5596.000000;0.492255
5595.000000;0.492448
5594.000000;0.492628
5593.000000;0.492797
5592.000000;0.492969
5591.000000;0.493150
5590.000000;0.493325
5589.000000;0.493492
5588.000000;0.493680
5587.000000;0.493894
5586.000000;0.494083
5585.000000;0.494197
5584.000000;0.494253
5583.000000;0.494307
5582.000000;0.494380
5581.000000;0.494469
5580.000000;0.494580
5579.000000;0.494714
5578.000000;0.494827
5577.000000;0.494884
5576.000000;0.494909
5575.000000;0.494949
5574.000000;0.494992
5573.000000;0.494997
5572.000000;0.494968
5571.000000;0.494958
5570.000000;0.494990
5569.000000;0.495056
5568.000000;0.495163
5567.000000;0.495307
5566.000000;0.495416
5565.000000;0.495416
5564.000000;0.495342
5563.000000;0.495298
5562.000000;0.495314
5561.000000;0.495322
5560.000000;0.495277
5559.000000;0.495221
5558.000000;0.495188
5557.000000;0.495147
5556.000000;0.495075
5555.000000;0.495012
5554.000000;0.494983
5553.000000;0.494934
5552.000000;0.494806
5551.000000;0.494651
5550.000000;0.494570
5549.000000;0.494579
5548.000000;0.494598
5547.000000;0.494553
5546.000000;0.494453
5545.000000;0.494359
5544.000000;0.494316
5543.000000;0.494319
5542.000000;0.494310
5541.000000;0.494232
5540.000000;0.494083
5539.000000;0.493923
5538.000000;0.493785
5537.000000;0.493631
5536.000000;0.493441
5535.000000;0.493301
5534.000000;0.493317
5533.000000;0.493476
5532.000000;0.493638
5531.000000;0.493684
5530.000000;0.493615
5529.000000;0.493505
5528.000000;0.493398
5527.000000;0.493285
5526.000000;0.493140
5525.000000;0.492982
5524.000000;0.492861
5523.000000;0.492788
5522.000000;0.492703
5521.000000;0.492561
5520.000000;0.492422
5519.000000;0.492421
5518.000000;0.492565
5517.000000;0.492682
5516.000000;0.492615
5515.000000;0.492416
5514.000000;0.492276
5513.000000;0.492284
5512.000000;0.492341
5511.000000;0.492339
5510.000000;0.492284
5509.000000;0.492207
5508.000000;0.492070
5507.000000;0.491859
5506.000000;0.491717
5505.000000;0.491837
5504.000000;0.492187
5503.000000;0.492473
5502.000000;0.492495
5501.000000;0.492376
5500.000000;0.492362
5499.000000;0.492481
5498.000000;0.492487
5497.000000;0.492270
5496.000000;0.492119
5495.000000;0.492335
5494.000000;0.492738
5493.000000;0.492842
5492.000000;0.492533
5491.000000;0.492322
5490.000000;0.492667
5489.000000;0.493339
5488.000000;0.493752
5487.000000;0.493734
5486.000000;0.493653
5485.000000;0.493841
5484.000000;0.494207
5483.000000;0.494476
5482.000000;0.494608
5481.000000;0.494694
5480.000000;0.494653
5479.000000;0.494469
5478.000000;0.494457
5477.000000;0.494904
5476.000000;0.495561
5475.000000;0.495828
5474.000000;0.495623
5473.000000;0.495648
5472.000000;0.496421
5471.000000;0.497516
5470.000000;0.498124
5469.000000;0.498030
5468.000000;0.497753
5467.000000;0.497843
5466.000000;0.498289
5465.000000;0.498783
5464.000000;0.499258
5463.000000;0.499825
5462.000000;0.500448
5461.000000;0.500945
5460.000000;0.501249
5459.000000;0.501567
5458.000000;0.502167
5457.000000;0.503028
5456.000000;0.503833
5455.000000;0.504293
5454.000000;0.504436
5453.000000;0.504661
5452.000000;0.505349
5451.000000;0.506334
5450.000000;0.507055
5449.000000;0.507346
5448.000000;0.507754
5447.000000;0.508786
5446.000000;0.510040
5445.000000;0.510756
5444.000000;0.511087
5443.000000;0.511916
5442.000000;0.513469
5441.000000;0.514921
5440.000000;0.515527
5439.000000;0.515665
5438.000000;0.516371
5437.000000;0.517983
5436.000000;0.519776
5435.000000;0.520868
5434.000000;0.521142
5433.000000;0.521375
5432.000000;0.522467
5431.000000;0.524477
5430.000000;0.526581
5429.000000;0.527961
5428.000000;0.528651
5427.000000;0.529433
5426.000000;0.530884
5425.000000;0.532786
5424.000000;0.534534
5423.000000;0.535793
5422.000000;0.536750
5421.000000;0.537896
5420.000000;0.539482
5419.000000;0.541197
5418.000000;0.542707
5417.000000;0.544302
5416.000000;0.546523
5415.000000;0.549250
5414.000000;0.551690
5413.000000;0.553490
5412.000000;0.555335
5411.000000;0.557886
5410.000000;0.560733
5409.000000;0.563040
5408.000000;0.564790
5407.000000;0.566688
5406.000000;0.569070
5405.000000;0.571565
5404.000000;0.573818
5403.000000;0.576037
5402.000000;0.578533
5401.000000;0.581268
5400.000000;0.584195
5399.000000;0.587353
5398.000000;0.590598
5397.000000;0.593799
5396.000000;0.597131
5395.000000;0.600865
5394.000000;0.604847
5393.000000;0.608594
5392.000000;0.612076
5391.000000;0.615769
5390.000000;0.619885
5389.000000;0.624119
5388.000000;0.628220
5387.000000;0.632346
5386.000000;0.636683
5385.000000;0.641103
5384.000000;0.645554
5383.000000;0.650373
5382.000000;0.655637
5381.000000;0.660851
5380.000000;0.665826
5379.000000;0.671079
5378.000000;0.677005
5377.000000;0.683194
5376.000000;0.689069
5375.000000;0.694878
5374.000000;0.701258
5373.000000;0.708128
5372.000000;0.714838
5371.000000;0.721201
5370.000000;0.727678
5369.000000;0.734608
5368.000000;0.741836
5367.000000;0.749278
5366.000000;0.757192
5365.000000;0.765609
5364.000000;0.774127
5363.000000;0.782593
5362.000000;0.791370
5361.000000;0.800757
5360.000000;0.810586
5359.000000;0.820497
5358.000000;0.830405
5357.000000;0.840506
5356.000000;0.851039
5355.000000;0.862166
5354.000000;0.873839
5353.000000;0.885718
5352.000000;0.897613
5351.000000;0.909942
5350.000000;0.923091
5349.000000;0.936577
5348.000000;0.949722
5347.000000;0.962883
5346.000000;0.977128
5345.000000;0.992610
5344.000000;1.008177
5343.000000;1.023177
5342.000000;1.038673
5341.000000;1.055810
5340.000000;1.074068
5339.000000;1.092109
5338.000000;1.109589
5337.000000;1.127334
5336.000000;1.146020
5335.000000;1.165627
5334.000000;1.186011
5333.000000;1.206968
5332.000000;1.227929
5331.000000;1.248705
5330.000000;1.270182
5329.000000;1.293290
5328.000000;1.317674
5327.000000;1.342202
5326.000000;1.366557
5325.000000;1.391372
5324.000000;1.416856
5323.000000;1.442565
5322.000000;1.468611
5321.000000;1.495772
5320.000000;1.524352
5319.000000;1.553985
5318.000000;1.584445
5317.000000;1.615666
5316.000000;1.647100
5315.000000;1.678169
5314.000000;1.709208
5313.000000;1.740739
5312.000000;1.772218
5311.000000;1.803072
5310.000000;1.834353
5309.000000;1.867421
5308.000000;1.901559
5307.000000;1.934977
5306.000000;1.967904
5305.000000;2.002102
5304.000000;2.037553
5303.000000;2.072371
5302.000000;2.105737
5301.000000;2.138070
5300.000000;2.168711
5299.000000;2.196752
5298.000000;2.223720
5297.000000;2.251912
5296.000000;2.280701
5295.000000;2.307985
5294.000000;2.334219
5293.000000;2.360620
5292.000000;2.384639
5291.000000;2.402521
5290.000000;2.415389
5289.000000;2.427257
5288.000000;2.438835
5287.000000;2.449094
5286.000000;2.460354
5285.000000;2.475369
5284.000000;2.491511
5283.000000;2.503942
5282.000000;2.512897
5281.000000;2.521241
5280.000000;2.527441
5279.000000;2.528449
5278.000000;2.527013
5277.000000;2.528799
5276.000000;2.534656
5275.000000;2.541286
5274.000000;2.546891
5273.000000;2.551191
5272.000000;2.552491
5271.000000;2.550131
5270.000000;2.547088
5269.000000;2.545373
5268.000000;2.542659
5267.000000;2.537730
5266.000000;2.534545
5265.000000;2.536106
5264.000000;2.539243
5263.000000;2.540294
5262.000000;2.541699
5261.000000;2.547743
5260.000000;2.557459
5259.000000;2.566414
5258.000000;2.572590
5257.000000;2.575503
5256.000000;2.573137
5255.000000;2.565538
5254.000000;2.557866
5253.000000;2.554628
5252.000000;2.554792
5251.000000;2.556071
5250.000000;2.558844
5249.000000;2.561948
5248.000000;2.560672
5247.000000;2.554702
5246.000000;2.551866
5245.000000;2.557573
5244.000000;2.566489
5243.000000;2.569902
5242.000000;2.567429
5241.000000;2.564261
5240.000000;2.561448
5239.000000;2.557289
5238.000000;2.553913
5237.000000;2.554718
5236.000000;2.557961
5235.000000;2.559623
5234.000000;2.560049
5233.000000;2.561066
5232.000000;2.560019
5231.000000;2.553668
5230.000000;2.545071
5229.000000;2.539686
5228.000000;2.537647
5227.000000;2.535711
5226.000000;2.534169
5225.000000;2.535564
5224.000000;2.538358
5223.000000;2.538737
5222.000000;2.537338
5221.000000;2.537683
5220.000000;2.539647
5219.000000;2.540435
5218.000000;2.540529
5217.000000;2.543115
5216.000000;2.548580
5215.000000;2.554171
5214.000000;2.558558
5213.000000;2.562263
5212.000000;2.564426
5211.000000;2.564058
5210.000000;2.563173
5209.000000;2.564019
5208.000000;2.564471
5207.000000;2.561166
5206.000000;2.556340
5205.000000;2.555603
5204.000000;2.559688
5203.000000;2.563339
5202.000000;2.561832
5201.000000;2.555336
5200.000000;2.547454
5199.000000;2.542688
5198.000000;2.544230
5197.000000;2.550877
5196.000000;2.556958
5195.000000;2.558485
5194.000000;2.557852
5193.000000;2.558953
5192.000000;2.560820
5191.000000;2.559991
5190.000000;2.556693
5189.000000;2.554487
5188.000000;2.555196
5187.000000;2.557792
5186.000000;2.560722
5185.000000;2.562262
5184.000000;2.560601
5183.000000;2.556828
5182.000000;2.555263
5181.000000;2.558031
5180.000000;2.562056
5179.000000;2.563660
5178.000000;2.563273
5177.000000;2.562463
5176.000000;2.559902
5175.000000;2.554838
5174.000000;2.551186
5173.000000;2.552801
5172.000000;2.557167
5171.000000;2.558580
5170.000000;2.556133
5169.000000;2.553537
5168.000000;2.552604
5167.000000;2.552273
5166.000000;2.552606
5165.000000;2.555003
5164.000000;2.559054
5163.000000;2.562540
5162.000000;2.564397
5161.000000;2.564596
5160.000000;2.562079
5159.000000;2.556762
5158.000000;2.551647
5157.000000;2.549084
5156.000000;2.547140
5155.000000;2.543447
5154.000000;2.540717
5153.000000;2.543601
5152.000000;2.551471
5151.000000;2.558434
5150.000000;2.560320
5149.000000;2.558731
5148.000000;2.557613
5147.000000;2.558863
5146.000000;2.561906
5145.000000;2.564738
5144.000000;2.565154
5143.000000;2.563189
5142.000000;2.561660
5141.000000;2.562178
5140.000000;2.562423
5139.000000;2.559554
5138.000000;2.554331
5137.000000;2.549490
5136.000000;2.546097
5135.000000;2.543745
5134.000000;2.542396
5133.000000;2.541860
5132.000000;2.541427
5131.000000;2.542051
5130.000000;2.546601
5129.000000;2.555502
5128.000000;2.564244
5127.000000;2.567849
5126.000000;2.566085
5125.000000;2.561978
5124.000000;2.557680
5123.000000;2.554257
5122.000000;2.553060
5121.000000;2.554242
5120.000000;2.555230
5119.000000;2.553237
5118.000000;2.548271
5117.000000;2.542027
5116.000000;2.535957
5115.000000;2.532117
5114.000000;2.532833
5113.000000;2.537309
5112.000000;2.541605
5111.000000;2.544683
5110.000000;2.550892
5109.000000;2.562019
5108.000000;2.571141
5107.000000;2.570478
5106.000000;2.562528
5105.000000;2.555892
5104.000000;2.553661
5103.000000;2.552614
5102.000000;2.550333
5101.000000;2.546869
5100.000000;2.541101
5099.000000;2.531925
5098.000000;2.522625
5097.000000;2.518429
5096.000000;2.519960
5095.000000;2.523331
5094.000000;2.526467
5093.000000;2.531309
5092.000000;2.539052
5091.000000;2.547001
5090.000000;2.551620
5089.000000;2.552163
5088.000000;2.550041
5087.000000;2.546957
5086.000000;2.544582
5085.000000;2.543598
5084.000000;2.542846
5083.000000;2.541419
5082.000000;2.540447
5081.000000;2.540427
5080.000000;2.538485
5079.000000;2.531883
5078.000000;2.523459
5077.000000;2.519567
5076.000000;2.522762
5075.000000;2.528983
5074.000000;2.531949
5073.000000;2.529188
5072.000000;2.523530
5071.000000;2.520064
5070.000000;2.521963
5069.000000;2.527526
5068.000000;2.531061
5067.000000;2.528715
5066.000000;2.522992
5065.000000;2.519174
5064.000000;2.519128
5063.000000;2.520829
5062.000000;2.522145
5061.000000;2.522382
5060.000000;2.520776
5059.000000;2.516598
5058.000000;2.511463
5057.000000;2.508799
5056.000000;2.509806
5055.000000;2.511915
5054.000000;2.512231
5053.000000;2.511124
5052.000000;2.511087
5051.000000;2.512743
5050.000000;2.513407
5049.000000;2.510147
5048.000000;2.503937
5047.000000;2.499768
5046.000000;2.501115
5045.000000;2.505026
5044.000000;2.505100
5043.000000;2.499315
5042.000000;2.491990
5041.000000;2.487553
5040.000000;2.485880
5039.000000;2.484720
5038.000000;2.483465
5037.000000;2.482338
5036.000000;2.480417
5035.000000;2.477269
5034.000000;2.474803
5033.000000;2.474948
5032.000000;2.476608
5031.000000;2.477049
5030.000000;2.475463
5029.000000;2.473471
5028.000000;2.472953
5027.000000;2.474367
5026.000000;2.476151
5025.000000;2.475123
5024.000000;2.469162
5023.000000;2.460265
5022.000000;2.453027
5021.000000;2.449673
5020.000000;2.448565
5019.000000;2.447687
5018.000000;2.446734
5017.000000;2.444837
5016.000000;2.439717
5015.000000;2.431335
5014.000000;2.423431
5013.000000;2.419005
5012.000000;2.416769
5011.000000;2.414039
5010.000000;2.410887
5009.000000;2.408832
5008.000000;2.407348
5007.000000;2.404615
5006.000000;2.400547
5005.000000;2.396494
5004.000000;2.392682
5003.000000;2.388431
5002.000000;2.384197
5001.000000;2.380778
5000.000000;2.377350
4999.000000;2.372843
4998.000000;2.367786
4997.000000;2.363033
4996.000000;2.357822
4995.000000;2.351006
4994.000000;2.343389
4993.000000;2.337112
4992.000000;2.333444
4991.000000;2.332433
4990.000000;2.333625
4989.000000;2.335569
4988.000000;2.335570
4987.000000;2.331871
4986.000000;2.325595
4985.000000;2.318991
4984.000000;2.312793
4983.000000;2.306682
4982.000000;2.300894
4981.000000;2.295575
4980.000000;2.289648
4979.000000;2.282152
4978.000000;2.274029
4977.000000;2.266962
4976.000000;2.261132
4975.000000;2.255608
4974.000000;2.250191
4973.000000;2.245335
4972.000000;2.240705
4971.000000;2.235376
4970.000000;2.229396
4969.000000;2.223744
4968.000000;2.218820
4967.000000;2.214165
4966.000000;2.209421
4965.000000;2.204332
4964.000000;2.198403
4963.000000;2.191659
4962.000000;2.185206
4961.000000;2.179941
4960.000000;2.175127
4959.000000;2.169252
4958.000000;2.162046
4957.000000;2.154659
4956.000000;2.148119
4955.000000;2.142363
4954.000000;2.136549
4953.000000;2.130059
4952.000000;2.123375
4951.000000;2.118003
4950.000000;2.114911
4949.000000;2.112909
4948.000000;2.109412
4947.000000;2.103172
4946.000000;2.095472
4945.000000;2.088180
4944.000000;2.081865
4943.000000;2.076264
4942.000000;2.071219
4941.000000;2.066229
4940.000000;2.060296
4939.000000;2.053308
4938.000000;2.046671
4937.000000;2.041472
4936.000000;2.036890
4935.000000;2.031373
4934.000000;2.024639
4933.000000;2.017468
4932.000000;2.010332
4931.000000;2.003393
4930.000000;1.997166
4929.000000;1.991934
4928.000000;1.986972
4927.000000;1.981456
4926.000000;1.975805
4925.000000;1.970960
4924.000000;1.966594
4923.000000;1.961262
4922.000000;1.954338
4921.000000;1.946745
4920.000000;1.939650
4919.000000;1.933340
4918.000000;1.927492
4917.000000;1.921808
4916.000000;1.916158
4915.000000;1.910572
4914.000000;1.905205
4913.000000;1.899987
4912.000000;1.894429
4911.000000;1.888197
4910.000000;1.881699
4909.000000;1.875658
4908.000000;1.870196
4907.000000;1.864752
4906.000000;1.858843
4905.000000;1.852534
4904.000000;1.846241
4903.000000;1.840406
4902.000000;1.835218
4901.000000;1.830328
4900.000000;1.825002
4899.000000;1.818900
4898.000000;1.812577
4897.000000;1.806911
4896.000000;1.802158
4895.000000;1.797763
4894.000000;1.792947
4893.000000;1.787270
4892.000000;1.780831
4891.000000;1.774195
4890.000000;1.767969
4889.000000;1.762269
4888.000000;1.756768
4887.000000;1.751265
4886.000000;1.745866
4885.000000;1.740514
4884.000000;1.734829
4883.000000;1.728672
4882.000000;1.722484
4881.000000;1.716768
4880.000000;1.711580
4879.000000;1.706770
4878.000000;1.702292
4877.000000;1.697945
4876.000000;1.693226
4875.000000;1.687910
4874.000000;1.682475
4873.000000;1.677517
4872.000000;1.672944
4871.000000;1.668145
4870.000000;1.662736
4869.000000;1.656815
4868.000000;1.650671
4867.000000;1.644575
4866.000000;1.638695
4865.000000;1.632921
4864.000000;1.626963
4863.000000;1.620845
4862.000000;1.615058
4861.000000;1.609986
4860.000000;1.605469
4859.000000;1.601160
4858.000000;1.596996
4857.000000;1.592947
4856.000000;1.588635
4855.000000;1.583704
4854.000000;1.578359
4853.000000;1.573062
4852.000000;1.567855
4851.000000;1.562419
4850.000000;1.556711
4849.000000;1.551078
4848.000000;1.545778
4847.000000;1.540766
4846.000000;1.535954
4845.000000;1.531360
4844.000000;1.526946
4843.000000;1.522564
4842.000000;1.518094
4841.000000;1.513474
4840.000000;1.508650
4839.000000;1.503675
4838.000000;1.498762
4837.000000;1.494060
4836.000000;1.489453
4835.000000;1.484769
4834.000000;1.480050
4833.000000;1.475392
4832.000000;1.470681
4831.000000;1.465775
4830.000000;1.460849
4829.000000;1.456240
4828.000000;1.451987
4827.000000;1.447811
4826.000000;1.443568
4825.000000;1.439424
4824.000000;1.435512
4823.000000;1.431637
4822.000000;1.427452
4821.000000;1.422849
4820.000000;1.418067
4819.000000;1.413434
4818.000000;1.409020
4817.000000;1.404575
4816.000000;1.399886
4815.000000;1.395163
4814.000000;1.390846
4813.000000;1.386996
4812.000000;1.383122
4811.000000;1.378801
4810.000000;1.374226
4809.000000;1.369855
4808.000000;1.365773
4807.000000;1.361636
4806.000000;1.357251
4805.000000;1.352816
4804.000000;1.348616
4803.000000;1.344695
4802.000000;1.340874
4801.000000;1.336929
4800.000000;1.332706
4799.000000;1.328226
4798.000000;1.323735
4797.000000;1.319551
4796.000000;1.315790
4795.000000;1.312252
4794.000000;1.308610
4793.000000;1.304672
4792.000000;1.300513
4791.000000;1.296355
4790.000000;1.292316
4789.000000;1.288273
4788.000000;1.284064
4787.000000;1.279787
4786.000000;1.275743
4785.000000;1.272054
4784.000000;1.268509
4783.000000;1.264862
4782.000000;1.261086
4781.000000;1.257242
4780.000000;1.253302
4779.000000;1.249283
4778.000000;1.245397
4777.000000;1.241837
4776.000000;1.238504
4775.000000;1.235134
4774.000000;1.231619
4773.000000;1.228043
4772.000000;1.224454
4771.000000;1.220786
4770.000000;1.216989
4769.000000;1.213094
4768.000000;1.209201
4767.000000;1.205488
4766.000000;1.202143
4765.000000;1.199150
4764.000000;1.196210
4763.000000;1.193020
4762.000000;1.189574
4761.000000;1.186056
4760.000000;1.182537
4759.000000;1.178971
4758.000000;1.175411
4757.000000;1.171984
4756.000000;1.168668
4755.000000;1.165295
4754.000000;1.161807
4753.000000;1.158346
4752.000000;1.155051
4751.000000;1.151919
4750.000000;1.148897
4749.000000;1.145977
4748.000000;1.143102
4747.000000;1.140119
4746.000000;1.136904
4745.000000;1.133504
4744.000000;1.130089
4743.000000;1.126799
4742.000000;1.123675
4741.000000;1.120659
4740.000000;1.117639
4739.000000;1.114533
4738.000000;1.111377
4737.000000;1.108314
4736.000000;1.105456
4735.000000;1.102760
4734.000000;1.100044
4733.000000;1.097149
4732.000000;1.094087
4731.000000;1.091035
4730.000000;1.088147
4729.000000;1.085404
4728.000000;1.082679
4727.000000;1.079903
4726.000000;1.077091
4725.000000;1.074255
4724.000000;1.071403
4723.000000;1.068615
4722.000000;1.065972
4721.000000;1.063381
4720.000000;1.060623
4719.000000;1.057643
4718.000000;1.054654
4717.000000;1.051883
4716.000000;1.049326
4715.000000;1.046839
4714.000000;1.044351
4713.000000;1.041861
4712.000000;1.039351
4711.000000;1.036837
4710.000000;1.034414
4709.000000;1.032114
4708.000000;1.029787
4707.000000;1.027272
4706.000000;1.024622
4705.000000;1.022029
4704.000000;1.019577
4703.000000;1.017201
4702.000000;1.014856
4701.000000;1.012557
4700.000000;1.010280
4699.000000;1.007974
4698.000000;1.005682
4697.000000;1.003523
4696.000000;1.001517
4695.000000;0.999536
4694.000000;0.997451
4693.000000;0.995252
4692.000000;0.992984
4691.000000;0.990671
4690.000000;0.988334
4689.000000;0.986050
4688.000000;0.983919
4687.000000;0.981977
4686.000000;0.980150
4685.000000;0.978297
4684.000000;0.976332
4683.000000;0.974302
4682.000000;0.972308
4681.000000;0.970376
4680.000000;0.968464
4679.000000;0.966589
4678.000000;0.964828
4677.000000;0.963144
4676.000000;0.961361
4675.000000;0.959382
4674.000000;0.957346
4673.000000;0.955434
4672.000000;0.953633
4671.000000;0.951796
4670.000000;0.949871
4669.000000;0.947912
4668.000000;0.945950
4667.000000;0.943987
4666.000000;0.942113
4665.000000;0.940442
4664.000000;0.938950
4663.000000;0.937493
4662.000000;0.935994
4661.000000;0.934498
4660.000000;0.933033
4659.000000;0.931564
4658.000000;0.930080
4657.000000;0.928617
4656.000000;0.927147
4655.000000;0.925562
4654.000000;0.923797
4653.000000;0.921912
4652.000000;0.920004
4651.000000;0.918137
4650.000000;0.916391
4649.000000;0.914888
4648.000000;0.913701
4647.000000;0.912752
4646.000000;0.911842
4645.000000;0.910772
4644.000000;0.909461
4643.000000;0.907980
4642.000000;0.906477
4641.000000;0.905044
4640.000000;0.903666
4639.000000;0.902319
4638.000000;0.901030
4637.000000;0.899799
4636.000000;0.898517
4635.000000;0.897084
4634.000000;0.895570
4633.000000;0.894169
4632.000000;0.892984
4631.000000;0.891938
4630.000000;0.890887
4629.000000;0.889751
4628.000000;0.888541
4627.000000;0.887338
4626.000000;0.886250
4625.000000;0.885319
4624.000000;0.884463
4623.000000;0.883569
4622.000000;0.882613
4621.000000;0.881624
4620.000000;0.880561
4619.000000;0.879351
4618.000000;0.878044
4617.000000;0.876794
4616.000000;0.875676
4615.000000;0.874613
4614.000000;0.873537
4613.000000;0.872517
4612.000000;0.871665
4611.000000;0.870982
4610.000000;0.870372
4609.000000;0.869749
4608.000000;0.869077
4607.000000;0.868331
4606.000000;0.867489
4605.000000;0.866557
4604.000000;0.865590
4603.000000;0.864672
4602.000000;0.863870
4601.000000;0.863174
4600.000000;0.862506
4599.000000;0.861804
4598.000000;0.861089
4597.000000;0.860418
4596.000000;0.859797
4595.000000;0.859178
4594.000000;0.858528
4593.000000;0.857827
4592.000000;0.857038
4591.000000;0.856159
4590.000000;0.855322
4589.000000;0.854715
4588.000000;0.854385
4587.000000;0.854157
4586.000000;0.853807
4585.000000;0.853256
4584.000000;0.852581
4583.000000;0.851891
4582.000000;0.851251
4581.000000;0.850715
4580.000000;0.850339
4579.000000;0.850160
4578.000000;0.850138
4577.000000;0.850145
4576.000000;0.850031
4575.000000;0.849734
4574.000000;0.849319
4573.000000;0.848896
4572.000000;0.848529
4571.000000;0.848238
4570.000000;0.848025
4569.000000;0.847855
4568.000000;0.847646
4567.000000;0.847372
4566.000000;0.847140
4565.000000;0.847086
4564.000000;0.847192
4563.000000;0.847275
4562.000000;0.847201
4561.000000;0.847027
4560.000000;0.846916
4559.000000;0.846966
4558.000000;0.847150
4557.000000;0.847363
4556.000000;0.847498
4555.000000;0.847517
4554.000000;0.847492
4553.000000;0.847545
4552.000000;0.847726
4551.000000;0.847969
4550.000000;0.848194
4549.000000;0.848404
4548.000000;0.848669
4547.000000;0.849035
4546.000000;0.849481
4545.000000;0.849951
4544.000000;0.850394
4543.000000;0.850773
4542.000000;0.851061
4541.000000;0.851250
4540.000000;0.851395
4539.000000;0.851614
4538.000000;0.851993
4537.000000;0.852474
4536.000000;0.852905
4535.000000;0.853240
4534.000000;0.853632
4533.000000;0.854249
4532.000000;0.855035
4531.000000;0.855742
4530.000000;0.856185
4529.000000;0.856405
4528.000000;0.856574
4527.000000;0.856825
4526.000000;0.857189
4525.000000;0.857601
4524.000000;0.857938
4523.000000;0.858103
4522.000000;0.858119
4521.000000;0.858138
4520.000000;0.858322
4519.000000;0.858733
4518.000000;0.859307
4517.000000;0.859904
4516.000000;0.860398
4515.000000;0.860777
4514.000000;0.861170
4513.000000;0.861709
4512.000000;0.862359
4511.000000;0.862929
4510.000000;0.863274
4509.000000;0.863447
4508.000000;0.863627
4507.000000;0.863954
4506.000000;0.864447
4505.000000;0.865043
4504.000000;0.865677
4503.000000;0.866331
4502.000000;0.867021
4501.000000;0.867748
4500.000000;0.868456
4499.000000;0.869069
4498.000000;0.869570
4497.000000;0.870042
4496.000000;0.870603
4495.000000;0.871308
4494.000000;0.872092
4493.000000;0.872826
4492.000000;0.873436
4491.000000;0.873987
4490.000000;0.874632
4489.000000;0.875478
4488.000000;0.876514
4487.000000;0.877660
4486.000000;0.878829
4485.000000;0.879927
4484.000000;0.880874
4483.000000;0.881677
4482.000000;0.882447
4481.000000;0.883284
4480.000000;0.884186
4479.000000;0.885112
4478.000000;0.886097
4477.000000;0.887226
4476.000000;0.888518
4475.000000;0.889897
4474.000000;0.891266
4473.000000;0.892578
4472.000000;0.893839
4471.000000;0.895097
4470.000000;0.896413
4469.000000;0.897788
4468.000000;0.899135
4467.000000;0.900375
4466.000000;0.901556
4465.000000;0.902821
4464.000000;0.904261
4463.000000;0.905827
4462.000000;0.907379
4461.000000;0.908810
4460.000000;0.910147
4459.000000;0.911539
4458.000000;0.913123
4457.000000;0.914858
4456.000000;0.916572
4455.000000;0.918179
4454.000000;0.919767
4453.000000;0.921406
4452.000000;0.922995
4451.000000;0.924432
4450.000000;0.925863
4449.000000;0.927574
4448.000000;0.929616
4447.000000;0.931697
4446.000000;0.933507
4445.000000;0.935045
4444.000000;0.936553
4443.000000;0.938226
4442.000000;0.940055
4441.000000;0.941939
4440.000000;0.943857
4439.000000;0.945901
4438.000000;0.948149
4437.000000;0.950516
4436.000000;0.952798
4435.000000;0.954891
4434.000000;0.956927
4433.000000;0.959111
4432.000000;0.961459
4431.000000;0.963772
4430.000000;0.965849
4429.000000;0.967671
4428.000000;0.969378
4427.000000;0.971149
4426.000000;0.973091
4425.000000;0.975195
4424.000000;0.977385
4423.000000;0.979636
4422.000000;0.982018
4421.000000;0.984558
4420.000000;0.987134
4419.000000;0.989620
4418.000000;0.992087
4417.000000;0.994713
4416.000000;0.997497
4415.000000;1.000207
4414.000000;1.002652
4413.000000;1.004885
4412.000000;1.007063
4411.000000;1.009254
4410.000000;1.011495
4409.000000;1.013936
4408.000000;1.016759
4407.000000;1.019915
4406.000000;1.023077
4405.000000;1.025912
4404.000000;1.028397
4403.000000;1.030819
4402.000000;1.033464
4401.000000;1.036352
4400.000000;1.039304
4399.000000;1.042202
4398.000000;1.045075
4397.000000;1.047933
4396.000000;1.050681
4395.000000;1.053276
4394.000000;1.055901
4393.000000;1.058823
4392.000000;1.062110
4391.000000;1.065558
4390.000000;1.068887
4389.000000;1.071932
4388.000000;1.074706
4387.000000;1.077380
4386.000000;1.080175
4385.000000;1.083184
4384.000000;1.086277
4383.000000;1.089281
4382.000000;1.092220
4381.000000;1.095292
4380.000000;1.098611
4379.000000;1.102095
4378.000000;1.105593
4377.000000;1.109008
4376.000000;1.112279
4375.000000;1.115409
4374.000000;1.118543
4373.000000;1.121893
4372.000000;1.125480
4371.000000;1.129042
4370.000000;1.132286
4369.000000;1.135241
4368.000000;1.138280
4367.000000;1.141792
4366.000000;1.145835
4365.000000;1.150103
4364.000000;1.154214
4363.000000;1.158058
4362.000000;1.161859
4361.000000;1.165868
4360.000000;1.170018
4359.000000;1.173959
4358.000000;1.177439
4357.000000;1.180604
4356.000000;1.183896
4355.000000;1.187688
4354.000000;1.192009
4353.000000;1.196569
4352.000000;1.200976
4351.000000;1.204942
4350.000000;1.208388
4349.000000;1.211481
4348.000000;1.214616
4347.000000;1.218242
4346.000000;1.222555
4345.000000;1.227357
4344.000000;1.232270
4343.000000;1.237085
4342.000000;1.241818
4341.000000;1.246485
4340.000000;1.251027
4339.000000;1.255488
4338.000000;1.260066
4337.000000;1.264861
4336.000000;1.269680
4335.000000;1.274205
4334.000000;1.278325
4333.000000;1.282221
4332.000000;1.286190
4331.000000;1.290485
4330.000000;1.295181
4329.000000;1.300106
4328.000000;1.304978
4327.000000;1.309724
4326.000000;1.314615
4325.000000;1.320000
4324.000000;1.325936
4323.000000;1.332075
4322.000000;1.337840
4321.000000;1.342750
4320.000000;1.346761
4319.000000;1.350345
4318.000000;1.354121
4317.000000;1.358352
4316.000000;1.362911
4315.000000;1.367676
4314.000000;1.372740
4313.000000;1.378185
4312.000000;1.383924
4311.000000;1.389872
4310.000000;1.396040
4309.000000;1.402345
4308.000000;1.408531
4307.000000;1.414424
4306.000000;1.420051
4305.000000;1.425407
4304.000000;1.430359
4303.000000;1.434903
4302.000000;1.439305
4301.000000;1.443892
4300.000000;1.448883
4299.000000;1.454420
4298.000000;1.460406
4297.000000;1.466322
4296.000000;1.471703
4295.000000;1.476933
4294.000000;1.483004
4293.000000;1.490210
4292.000000;1.497572
4291.000000;1.503954
4290.000000;1.509252
4289.000000;1.513946
4288.000000;1.518105
4287.000000;1.521694
4286.000000;1.525477
4285.000000;1.530628
4284.000000;1.537420
4283.000000;1.544931
4282.000000;1.552068
4281.000000;1.558428
4280.000000;1.564207
4279.000000;1.569820
4278.000000;1.575653
4277.000000;1.581718
4276.000000;1.587486
4275.000000;1.592510
4274.000000;1.597271
4273.000000;1.602890
4272.000000;1.609829
4271.000000;1.617296
4270.000000;1.624067
4269.000000;1.629635
4268.000000;1.634486
4267.000000;1.639538
4266.000000;1.645445
4265.000000;1.652254
4264.000000;1.659533
4263.000000;1.666859
4262.000000;1.674152
4261.000000;1.681472
4260.000000;1.688612
4259.000000;1.695105
4258.000000;1.700681
4257.000000;1.705728
4256.000000;1.711417
4255.000000;1.719123
4254.000000;1.729188
4253.000000;1.740185
4252.000000;1.749943
4251.000000;1.757591
4250.000000;1.764009
4249.000000;1.770103
4248.000000;1.775728
4247.000000;1.780950
4246.000000;1.787068
4245.000000;1.795457
4244.000000;1.805326
4243.000000;1.814015
4242.000000;1.819725
4241.000000;1.823501
4240.000000;1.828169
4239.000000;1.835532
4238.000000;1.844687
4237.000000;1.853128
4236.000000;1.859845
4235.000000;1.866768
4234.000000;1.876000
4233.000000;1.886154
4232.000000;1.893402
4231.000000;1.896452
4230.000000;1.898198
4229.000000;1.901719
4228.000000;1.907162
4227.000000;1.913754
4226.000000;1.922545
4225.000000;1.934738
4224.000000;1.948455
4223.000000;1.959733
4222.000000;1.967047
4221.000000;1.972695
4220.000000;1.979371
4219.000000;1.987549
4218.000000;1.996275
4217.000000;2.004705
4216.000000;2.012770
4215.000000;2.021494
4214.000000;2.032187
4213.000000;2.043923
4212.000000;2.052489
4211.000000;2.054216
4210.000000;2.051092
4209.000000;2.049716
4208.000000;2.055345
4207.000000;2.068235
4206.000000;2.084103
4205.000000;2.096821
4204.000000;2.102788
4203.000000;2.104489
4202.000000;2.108727
4201.000000;2.120561
4200.000000;2.138786
4199.000000;2.156990
4198.000000;2.168923
4197.000000;2.172673
4196.000000;2.170834
4195.000000;2.168693
4194.000000;2.171394
4193.000000;2.180187
4192.000000;2.191223
4191.000000;2.199858
4190.000000;2.206079
4189.000000;2.213296
4188.000000;2.222576
4187.000000;2.231352
4186.000000;2.237621
4185.000000;2.242111
4184.000000;2.246342
4183.000000;2.251652
4182.000000;2.259719
4181.000000;2.271365
4180.000000;2.284965
4179.000000;2.297948
4178.000000;2.309274
4177.000000;2.318660
4176.000000;2.325446
4175.000000;2.330895
4174.000000;2.338424
4173.000000;2.348095
4172.000000;2.354681
4171.000000;2.355930
4170.000000;2.358907
4169.000000;2.371625
4168.000000;2.391454
4167.000000;2.407550
4166.000000;2.414748
4165.000000;2.417537
4164.000000;2.419365
4163.000000;2.418657
4162.000000;2.416677
4161.000000;2.419987
4160.000000;2.432206
4159.000000;2.448563
4158.000000;2.462445
4157.000000;2.474340
4156.000000;2.486048
4155.000000;2.495426
4154.000000;2.503893
4153.000000;2.514067
4152.000000;2.519806
4151.000000;2.511870
4150.000000;2.496269
4149.000000;2.494677
4148.000000;2.522512
4147.000000;2.571772
4146.000000;2.612237
4145.000000;2.620487
4144.000000;2.606777
4143.000000;2.594533
4142.000000;2.593350
4141.000000;2.597844
4140.000000;2.601281
4139.000000;2.606212
4138.000000;2.619567
4137.000000;2.642160
4136.000000;2.664662
4135.000000;2.674968
4134.000000;2.672713
4133.000000;2.665316
4132.000000;2.658377
4131.000000;2.656841
4130.000000;2.665499
4129.000000;2.687664
4128.000000;2.717574
4127.000000;2.736766
4126.000000;2.732205
4125.000000;2.715652
4124.000000;2.707408
4123.000000;2.714320
4122.000000;2.731490
4121.000000;2.750476
4120.000000;2.764374
4119.000000;2.770061
4118.000000;2.765651
4117.000000;2.749990
4116.000000;2.728645
4115.000000;2.717104
4114.000000;2.730476
4113.000000;2.769181
4112.000000;2.817859
4111.000000;2.860372
4110.000000;2.884558
4109.000000;2.884820
4108.000000;2.862923
4107.000000;2.830350
4106.000000;2.818455
4105.000000;2.838470
4104.000000;2.862518
4103.000000;2.859430
4102.000000;2.831166
4101.000000;2.800517
4100.000000;2.779478
4099.000000;2.762482
4098.000000;2.747665
4097.000000;2.750750
4096.000000;2.788636
4095.000000;2.856643
4094.000000;2.922256
4093.000000;2.947482
4092.000000;2.934091
4091.000000;2.919147
4090.000000;2.929336
4089.000000;2.956256
4088.000000;2.966939
4087.000000;2.955143
4086.000000;2.944922
4085.000000;2.948934
4084.000000;2.957714
4083.000000;2.952662
4082.000000;2.927277
4081.000000;2.897587
4080.000000;2.877919
4079.000000;2.856474
4078.000000;2.835782
4077.000000;2.844116
4076.000000;2.887567
4075.000000;2.953236
4074.000000;3.040875
4073.000000;3.157157
4072.000000;3.268854
4071.000000;3.244917
4070.000000;3.097328
4069.000000;2.968646
4068.000000;2.903326
4067.000000;2.890525
4066.000000;2.902732
4065.000000;2.921083
4064.000000;2.957083
4063.000000;3.031635
4062.000000;3.116817
4061.000000;3.126089
4060.000000;3.070376
4059.000000;3.013079
4058.000000;2.978002
4057.000000;2.976776
4056.000000;3.013070
4055.000000;3.075454
4054.000000;3.139022
4053.000000;3.149567
4052.000000;3.069635
4051.000000;2.978886
4050.000000;2.933076
4049.000000;2.933417
4048.000000;2.972158
4047.000000;3.021036
4046.000000;3.030367
4045.000000;3.016076
4044.000000;3.036441
4043.000000;3.097061
4042.000000;3.154044
4041.000000;3.153122
4040.000000;3.099747
4039.000000;3.024823
4038.000000;2.942868
4037.000000;2.881007
4036.000000;2.866025
4035.000000;2.905481
4034.000000;2.978697
4033.000000;3.033178
4032.000000;3.025412
4031.000000;2.982920
4030.000000;2.959472
4029.000000;2.980816
4028.000000;3.050307
4027.000000;3.153395
4026.000000;3.234096
4025.000000;3.221270
4024.000000;3.138306
4023.000000;3.042213
4022.000000;2.965443
4021.000000;2.925074
4020.000000;2.928162
4019.000000;2.984654
4018.000000;3.104978
4017.000000;3.251368
4016.000000;3.284769
4015.000000;3.207586
4014.000000;3.122347
4013.000000;3.077997
4012.000000;3.090068
4011.000000;3.143758
4010.000000;3.200257
4009.000000;3.179014
4008.000000;3.105923
4007.000000;3.073868
4006.000000;3.081827
4005.000000;3.079337
4004.000000;3.065898
4003.000000;3.068909
4002.000000;3.068125
4001.000000;3.029887
4000.000000;2.958211
3999.000000;2.890459
3998.000000;2.862148
3997.000000;2.886344
3996.000000;2.950944
3995.000000;3.027297
3994.000000;3.096469
3993.000000;3.172307
3992.000000;3.273947
3991.000000;3.317513
3990.000000;3.271191
3989.000000;3.174816
3988.000000;3.027164
3987.000000;2.916043
3986.000000;2.879351
3985.000000;2.909128
3984.000000;2.985636
3983.000000;3.052682
3982.000000;3.060029
3981.000000;3.053481
3980.000000;3.039391
3979.000000;2.986392
3978.000000;2.950849
3977.000000;2.990737
3976.000000;3.075174
3975.000000;3.143216
3974.000000;3.204704
3973.000000;3.193717
3972.000000;3.155467
3971.000000;3.142055
3970.000000;3.081489
3969.000000;2.988782
3968.000000;2.924943
3967.000000;2.912468
3966.000000;2.943737
3965.000000;2.980324
3964.000000;2.980252
3963.000000;2.949383
3962.000000;2.934405
3961.000000;2.956150
3960.000000;3.037700
3959.000000;3.213884
3958.000000;3.871454
3957.000000;3.681363
3956.000000;3.516789
3955.000000;3.767129
3954.000000;4.128006
3953.000000;3.677999
3952.000000;3.351400
3951.000000;3.242726
3950.000000;3.304193
3949.000000;3.412713
3948.000000;3.220308
3947.000000;3.046882
3946.000000;3.038698
3945.000000;3.216646
3944.000000;3.495670
3943.000000;3.315642
3942.000000;3.090437
3941.000000;2.980441
3940.000000;2.925945
3939.000000;2.943400
3938.000000;3.052605
3937.000000;3.245192
3936.000000;3.447921
3935.000000;3.554843
3934.000000;3.540415
3933.000000;3.434342
3932.000000;3.319082
3931.000000;3.219654
3930.000000;3.116264
3929.000000;3.034646
3928.000000;3.012230
3927.000000;3.093461
3926.000000;3.368029
3925.000000;4.086968
3924.000000;3.554267
3923.000000;3.248641
3922.000000;3.080549
3921.000000;3.040808
3920.000000;3.068582
3919.000000;3.098914
3918.000000;3.109888
3917.000000;3.156955
3916.000000;3.294555
3915.000000;3.710826
3914.000000;3.572421
3913.000000;3.231346
3912.000000;3.192362
3911.000000;3.274308
3910.000000;3.339247
3909.000000;3.143322
3908.000000;3.008832
3907.000000;3.020857
3906.000000;3.125266
3905.000000;3.229727
3904.000000;3.245127
3903.000000;3.192177
3902.000000;3.152090
3901.000000;3.186384
3900.000000;3.303391
3899.000000;3.385585
3898.000000;3.275112
3897.000000;3.123920
3896.000000;3.073009
3895.000000;3.194415
3894.000000;3.555605
3893.000000;3.796367
3892.000000;3.652424
3891.000000;3.668680
3890.000000;3.725737
3889.000000;3.833659
3888.000000;3.708455
3887.000000;3.525801
3886.000000;3.481025
3885.000000;3.447078
3884.000000;3.383775
3883.000000;3.336321
3882.000000;3.329985
3881.000000;3.299019
3880.000000;3.251972
3879.000000;3.221503
3878.000000;3.212300
3877.000000;3.262802
3876.000000;3.345977
3875.000000;3.448104
3874.000000;3.701021
3873.000000;4.368092
3872.000000;3.947300
3871.000000;3.596125
3870.000000;3.496064
3869.000000;3.501633
3868.000000;3.510717
3867.000000;3.483028
3866.000000;3.415646
3865.000000;3.381214
3864.000000;3.429820
3863.000000;3.606464
3862.000000;4.051573
3861.000000;3.755474
3860.000000;3.506954
3859.000000;3.770031
3858.000000;3.803596
3857.000000;4.036298
3856.000000;4.050392
3855.000000;3.855076
3854.000000;3.956702
3853.000000;4.076559
3852.000000;3.962486
3851.000000;3.622698
3850.000000;3.325548
3849.000000;3.272186
3848.000000;3.573435
3847.000000;3.590676
3846.000000;3.348719
3845.000000;3.401608
3844.000000;3.577524
3843.000000;3.673779
3842.000000;3.793548
3841.000000;4.167165
3840.000000;4.055562
3839.000000;3.854053
3838.000000;3.926362
3837.000000;4.082530
3836.000000;4.151490
3835.000000;4.010770
3834.000000;3.950472
3833.000000;4.232922
3832.000000;4.420184
3831.000000;3.789085
3830.000000;3.481879
3829.000000;3.412156
3828.000000;3.625872
3827.000000;3.909117
3826.000000;3.849167
3825.000000;3.624438
3824.000000;3.402230
3823.000000;3.399642
3822.000000;3.640166
3821.000000;4.008771
3820.000000;4.300114
3819.000000;4.436739
3818.000000;4.318571
3817.000000;4.045555
3816.000000;4.008871
3815.000000;4.144483
3814.000000;4.430123
3813.000000;4.493804
3812.000000;3.874759
3811.000000;3.576056
3810.000000;3.391058
3809.000000;3.280594
3808.000000;3.349964
3807.000000;3.540788
3806.000000;3.725417
3805.000000;3.845241
3804.000000;4.108716
3803.000000;4.245342
3802.000000;4.132492
3801.000000;4.235433
3800.000000;4.234866
3799.000000;3.734596
3798.000000;3.352101
3797.000000;3.227914
3796.000000;3.265640
3795.000000;3.378375
3794.000000;3.658287
3793.000000;4.513610
3792.000000;4.092742
3791.000000;3.911550
3790.000000;3.554556
3789.000000;3.547776
3788.000000;3.329696
3787.000000;3.171944
3786.000000;3.173986
3785.000000;3.239922
3784.000000;3.214355
3783.000000;3.147063
3782.000000;3.175697
3781.000000;3.307151
3780.000000;3.386556
3779.000000;3.438927
3778.000000;3.531370
3777.000000;3.685610
3776.000000;3.389242
3775.000000;3.105075
3774.000000;3.133101
3773.000000;3.437130
3772.000000;3.675429
3771.000000;3.656795
3770.000000;3.792858
3769.000000;4.020036
3768.000000;4.162386
3767.000000;3.594097
3766.000000;3.216354
3765.000000;3.037867
3764.000000;2.976724
3763.000000;2.990511
3762.000000;3.042755
3761.000000;3.080002
3760.000000;3.156337
3759.000000;3.260548
3758.000000;3.317367
3757.000000;3.335834
3756.000000;3.419361
3755.000000;3.865216
3754.000000;3.803727
3753.000000;3.489060
3752.000000;3.572842
3751.000000;3.742342
3750.000000;3.912113
3749.000000;3.909606
3748.000000;3.648784
3747.000000;3.356978
3746.000000;3.278959
3745.000000;3.432369
3744.000000;3.589952
3743.000000;3.465079
3742.000000;3.329480
3741.000000;3.361099
3740.000000;3.294834
3739.000000;3.366627
3738.000000;3.586747
3737.000000;3.757044
3736.000000;3.943813
3735.000000;4.109990
3734.000000;3.648151
3733.000000;3.476399
3732.000000;3.435443
3731.000000;3.404172
3730.000000;3.290145
3729.000000;3.104668
3728.000000;2.950793
3727.000000;2.927434
3726.000000;3.068181
3725.000000;3.084727
3724.000000;2.941056
3723.000000;2.934447
3722.000000;3.046179
3721.000000;3.072127
3720.000000;2.905195
3719.000000;2.768199
3718.000000;2.744012
3717.000000;2.823570
3716.000000;2.882180
3715.000000;2.907209
3714.000000;3.062537
3713.000000;3.190360
3712.000000;3.324990
3711.000000;3.502786
3710.000000;3.615481
3709.000000;3.700055
3708.000000;3.806639
3707.000000;3.688380
3706.000000;3.855337
3705.000000;3.837680
3704.000000;3.255823
3703.000000;3.192544
3702.000000;3.304407
3701.000000;3.577246
3700.000000;3.578382
3699.000000;3.227492
3698.000000;3.090992
3697.000000;3.296111
3696.000000;3.636385
3695.000000;3.581492
3694.000000;3.767954
3693.000000;3.586293
3692.000000;3.512994
3691.000000;3.593962
3690.000000;3.662022
3689.000000;3.649710
3688.000000;3.498581
3687.000000;3.213117
3686.000000;2.888169
3685.000000;2.664628
3684.000000;2.610366
3683.000000;2.711109
3682.000000;2.886699
3681.000000;3.047067
3680.000000;3.337101
3679.000000;3.935901
3678.000000;3.824709
3677.000000;3.741270
3676.000000;3.799357
3675.000000;3.847590
3674.000000;3.782113
3673.000000;3.889705
3672.000000;4.018356
3671.000000;3.717093
3670.000000;3.731500
3669.000000;3.621004
3668.000000;3.445153
3667.000000;3.263037
3666.000000;3.188064
3665.000000;3.249536
3664.000000;3.456581
3663.000000;3.702251
3662.000000;3.142165
3661.000000;2.949928
3660.000000;3.028991
3659.000000;2.992662
3658.000000;2.706949
3657.000000;2.649669
3656.000000;2.745375
3655.000000;2.898992
3654.000000;2.979974
3653.000000;3.004193
3652.000000;3.287491
3651.000000;3.656178
3650.000000;3.519614
3649.000000;3.507347
3648.000000;3.449602
3647.000000;3.335922
3646.000000;3.276198
3645.000000;3.386175
3644.000000;3.408317
3643.000000;3.061997
3642.000000;2.827802
3641.000000;2.750755
3640.000000;2.807559
3639.000000;3.685652
3638.000000;2.953037
3637.000000;2.608156
3636.000000;2.565099
3635.000000;2.640037
3634.000000;2.806426
3633.000000;2.870131
3632.000000;2.744534
3631.000000;2.618131
3630.000000;2.614601
3629.000000;2.724209
3628.000000;2.837894
3627.000000;2.855301
3626.000000;2.763070
3625.000000;2.706879
3624.000000;2.762570
3623.000000;2.837022
3622.000000;2.852169
3621.000000;2.816852
3620.000000;2.810050
3619.000000;2.853500
3618.000000;2.912579
3617.000000;2.958595
3616.000000;2.964509
3615.000000;2.932209
3614.000000;2.888146
3613.000000;2.811806
3612.000000;2.740236
3611.000000;2.741114
3610.000000;2.693220
3609.000000;2.591504
3608.000000;2.631598
3607.000000;2.834867
3606.000000;3.196700
3605.000000;3.355563
3604.000000;2.744623
3603.000000;2.559495
3602.000000;2.534521
3601.000000;2.542014
3600.000000;2.553625
3599.000000;2.603690
3598.000000;2.658867
3597.000000;2.651296
3596.000000;2.614880
3595.000000;2.509611
3594.000000;2.384418
3593.000000;2.331958
3592.000000;2.339087
3591.000000;2.380186
3590.000000;2.463740
3589.000000;2.570984
3588.000000;2.592216
3587.000000;2.591726
3586.000000;2.645386
3585.000000;2.658204
3584.000000;2.647185
3583.000000;2.766492
3582.000000;3.413735
3581.000000;3.231343
3580.000000;3.059219
3579.000000;2.836785
3578.000000;2.548732
3577.000000;2.432162
3576.000000;2.380304
3575.000000;2.297549
3574.000000;2.200446
3573.000000;2.146885
3572.000000;2.159842
3571.000000;2.226368
3570.000000;2.290120
3569.000000;2.294235
3568.000000;2.252724
3567.000000;2.199794
3566.000000;2.141048
3565.000000;2.081047
3564.000000;2.055910
3563.000000;2.101891
3562.000000;2.240405
3561.000000;2.509736
3560.000000;3.071143
3559.000000;3.192100
3558.000000;2.688411
3557.000000;2.453795
3556.000000;2.397311
3555.000000;2.519279
3554.000000;2.795010
3553.000000;2.613150
3552.000000;2.498772
3551.000000;2.452690
3550.000000;2.294910
3549.000000;2.208424
3548.000000;2.274850
3547.000000;2.533665
3546.000000;2.942572
3545.000000;2.961623
3544.000000;3.006290
3543.000000;3.159897
3542.000000;2.899645
3541.000000;2.553258
3540.000000;2.366476
3539.000000;2.282490
3538.000000;2.279522
3537.000000;2.354390
3536.000000;2.424287
3535.000000;2.373894
3534.000000;2.347789
3533.000000;2.422201
3532.000000;2.628501
3531.000000;3.136965
3530.000000;2.570238
3529.000000;2.330278
3528.000000;2.299681
3527.000000;2.283185
3526.000000;2.211792
3525.000000;2.133078
3524.000000;2.165367
3523.000000;2.416892
3522.000000;2.759571
3521.000000;2.573172
3520.000000;2.522169
3519.000000;2.553855
3518.000000;2.707332
3517.000000;3.054184
3516.000000;3.207263
3515.000000;2.838137
3514.000000;2.609770
3513.000000;2.426401
3512.000000;2.289684
3511.000000;2.237323
3510.000000;2.288821
3509.000000;2.455638
3508.000000;2.591403
3507.000000;2.489316
3506.000000;2.395532
3505.000000;2.400360
3504.000000;2.446269
3503.000000;2.485657
3502.000000;2.480035
3501.000000;2.426408
3500.000000;2.365201
3499.000000;2.350716
3498.000000;2.444888
3497.000000;2.744849
3496.000000;3.226510
3495.000000;2.700538
3494.000000;2.485112
3493.000000;2.434184
3492.000000;2.535896
3491.000000;2.583495
3490.000000;2.438227
3489.000000;2.418249
3488.000000;2.512018
3487.000000;2.637564
3486.000000;2.746303
3485.000000;2.960333
3484.000000;3.080127
3483.000000;2.851257
3482.000000;2.711322
3481.000000;2.663162
3480.000000;2.697421
3479.000000;2.659499
3478.000000;2.608086
3477.000000;2.704188
3476.000000;2.818616
3475.000000;2.752134
3474.000000;2.585011
3473.000000;2.448996
3472.000000;2.415588
3471.000000;2.505992
3470.000000;2.647406
3469.000000;2.703681
3468.000000;2.746126
3467.000000;2.826897
3466.000000;2.897259
3465.000000;3.236167
3464.000000;3.338085
3463.000000;2.676191
3462.000000;2.514117
3461.000000;2.526407
3460.000000;2.832718
3459.000000;2.828548
3458.000000;2.476800
3457.000000;2.447793
3456.000000;2.670498
3455.000000;2.704025
3454.000000;2.474119
3453.000000;2.446673
3452.000000;2.492349
3451.000000;2.481003
3450.000000;2.425066
3449.000000;2.420260
3448.000000;2.462450
3447.000000;2.475569
3446.000000;2.473717
3445.000000;2.554381
3444.000000;2.835829
3443.000000;2.806481
3442.000000;2.572592
3441.000000;2.508634
3440.000000;2.495385
3439.000000;2.509263
3438.000000;2.490733
3437.000000;2.408429
3436.000000;2.348955
3435.000000;2.378617
3434.000000;2.532509
3433.000000;2.752380
3432.000000;2.930466
3431.000000;2.978791
3430.000000;2.794761
3429.000000;2.685978
3428.000000;2.614279
3427.000000;2.578977
3426.000000;2.679394
3425.000000;2.791168
3424.000000;2.713688
3423.000000;2.577570
3422.000000;2.480418
3421.000000;2.456088
3420.000000;2.511643
3419.000000;2.620041
3418.000000;2.740273
3417.000000;2.713415
3416.000000;2.532333
3415.000000;2.420336
3414.000000;2.406362
3413.000000;2.463715
3412.000000;2.562562
3411.000000;2.657603
3410.000000;2.728028
3409.000000;2.850661
3408.000000;3.023222
3407.000000;2.772801
3406.000000;2.521825
3405.000000;2.482745
3404.000000;2.572608
3403.000000;2.909313
3402.000000;2.980728
3401.000000;2.528366
3400.000000;2.340663
3399.000000;2.320579
3398.000000;2.430282
3397.000000;2.641401
3396.000000;2.896443
3395.000000;3.101498
3394.000000;3.218870
3393.000000;3.430899
3392.000000;3.120928
3391.000000;2.728892
3390.000000;2.520708
3389.000000;2.426556
3388.000000;2.406635
3387.000000;2.430189
3386.000000;2.464207
3385.000000;2.464610
3384.000000;2.460065
3383.000000;2.532374
3382.000000;2.759783
3381.000000;3.286094
3380.000000;3.180603
3379.000000;2.854127
3378.000000;2.875153
3377.000000;2.886370
3376.000000;2.767882
3375.000000;2.659823
3374.000000;2.650345
3373.000000;2.745218
3372.000000;3.015970
3371.000000;3.621480
3370.000000;3.316276
3369.000000;3.075746
3368.000000;2.938072
3367.000000;2.829544
3366.000000;2.799391
3365.000000;2.775158
3364.000000;2.747665
3363.000000;2.781010
3362.000000;2.921624
3361.000000;2.939716
3360.000000;2.802635
3359.000000;2.770756
3358.000000;2.736875
3357.000000;2.619259
3356.000000;2.492268
3355.000000;2.395652
3354.000000;2.356389
3353.000000;2.409765
3352.000000;2.589047
3351.000000;2.906865
3350.000000;3.320467
3349.000000;3.213081
3348.000000;2.917506
3347.000000;2.780739
3346.000000;2.728454
3345.000000;2.748126
3344.000000;2.913431
3343.000000;3.240575
3342.000000;2.933451
3341.000000;2.716684
3340.000000;2.721520
3339.000000;3.012439
3338.000000;3.086575
3337.000000;2.716923
3336.000000;2.738329
3335.000000;3.068560
3334.000000;2.927091
3333.000000;2.758412
3332.000000;2.865765
3331.000000;3.265207
3330.000000;3.055657
3329.000000;2.705630
3328.000000;2.586752
3327.000000;2.539572
3326.000000;2.525957
3325.000000;2.557605
3324.000000;2.691531
3323.000000;2.826552
3322.000000;2.826360
3321.000000;2.967702
3320.000000;3.406758
3319.000000;3.609934
3318.000000;3.750033
3317.000000;3.225872
3316.000000;2.928185
3315.000000;2.855974
3314.000000;2.857745
3313.000000;2.955152
3312.000000;2.904349
3311.000000;2.676552
3310.000000;2.551464
3309.000000;2.552633
3308.000000;2.640150
3307.000000;2.702693
3306.000000;2.727010
3305.000000;2.873971
3304.000000;3.260507
3303.000000;3.782615
3302.000000;3.612434
3301.000000;3.320990
3300.000000;3.057467
3299.000000;2.882613
3298.000000;2.766880
3297.000000;2.713507
3296.000000;2.710866
3295.000000;2.820466
3294.000000;3.136064
3293.000000;2.872410
3292.000000;2.603620
3291.000000;2.583980
3290.000000;2.703651
3289.000000;3.017230
3288.000000;3.409447
3287.000000;3.550621
3286.000000;3.533034
3285.000000;3.056425
3284.000000;2.801278
3283.000000;2.691668
3282.000000;2.695674
3281.000000;2.874262
3280.000000;2.997522
3279.000000;2.797676
3278.000000;2.737279
3277.000000;2.750041
3276.000000;2.718313
3275.000000;2.623272
3274.000000;2.551464
3273.000000;2.552640
3272.000000;2.620964
3271.000000;2.756779
3270.000000;2.885378
3269.000000;2.853115
3268.000000;2.716285
3267.000000;2.606371
3266.000000;2.549138
3265.000000;2.529616
3264.000000;2.522662
3263.000000;2.547783
3262.000000;2.599742
3261.000000;2.746262
3260.000000;3.293862
3259.000000;2.897877
3258.000000;2.631107
3257.000000;2.632715
3256.000000;2.776327
3255.000000;3.129680
3254.000000;3.125730
3253.000000;2.822990
3252.000000;2.740757
3251.000000;2.862125
3250.000000;3.192688
3249.000000;3.135097
3248.000000;2.892582
3247.000000;2.865314
3246.000000;2.998591
3245.000000;3.264483
3244.000000;3.406094
3243.000000;3.614966
3242.000000;3.331704
3241.000000;2.852597
3240.000000;2.671993
3239.000000;2.696307
3238.000000;2.928780
3237.000000;3.383675
3236.000000;3.838502
3235.000000;4.030582
3234.000000;3.413473
3233.000000;3.149970
3232.000000;3.200814
3231.000000;3.619334
3230.000000;3.287880
3229.000000;2.988423
3228.000000;2.899937
3227.000000;2.882906
3226.000000;2.877258
3225.000000;2.821626
3224.000000;2.765852
3223.000000;2.758401
3222.000000;2.764559
3221.000000;2.820682
3220.000000;3.010234
3219.000000;2.967762
3218.000000;2.747454
3217.000000;2.682623
3216.000000;2.689544
3215.000000;2.705458
3214.000000;2.695600
3213.000000;2.683593
3212.000000;2.752016
3211.000000;2.882810
3210.000000;2.807712
3209.000000;2.702425
3208.000000;2.729742
3207.000000;2.816619
3206.000000;2.887222
3205.000000;2.910904
3204.000000;2.948949
3203.000000;2.961184
3202.000000;2.803557
3201.000000;2.652922
3200.000000;2.627060
3199.000000;2.735913
3198.000000;3.064350
3197.000000;3.471412
3196.000000;3.102451
3195.000000;2.989729
3194.000000;2.979269
3193.000000;3.048687
3192.000000;3.173867
3191.000000;3.032317
3190.000000;2.832831
3189.000000;2.740860
3188.000000;2.759772
3187.000000;2.836873
3186.000000;2.775776
3185.000000;2.665829
3184.000000;2.659844
3183.000000;2.699716
3182.000000;2.833997
3181.000000;3.098899
3180.000000;2.748202
3179.000000;2.533707
3178.000000;2.517743
3177.000000;2.560698
3176.000000;2.614922
3175.000000;2.657782
3174.000000;2.715847
3173.000000;2.817218
3172.000000;2.993484
3171.000000;3.318721
3170.000000;3.363091
3169.000000;3.034000
3168.000000;2.916233
3167.000000;2.877103
3166.000000;2.849514
3165.000000;2.821594
3164.000000;2.812107
3163.000000;2.828405
3162.000000;2.806093
3161.000000;2.741086
3160.000000;2.704316
3159.000000;2.717125
3158.000000;2.769810
3157.000000;2.897883
3156.000000;3.010594
3155.000000;2.864903
3154.000000;2.718507
3153.000000;2.673827
3152.000000;2.688980
3151.000000;2.762970
3150.000000;2.830177
3149.000000;2.831736
3148.000000;2.848300
3147.000000;3.061387
3146.000000;3.746858
3145.000000;3.143238
3144.000000;2.837114
3143.000000;2.739681
3142.000000;2.788435
3141.000000;2.998232
3140.000000;2.994369
3139.000000;2.813629
3138.000000;2.781232
3137.000000;2.812033
3136.000000;2.802198
3135.000000;2.803710
3134.000000;2.919819
3133.000000;3.075736
3132.000000;3.076993
3131.000000;2.961066
3130.000000;2.907430
3129.000000;2.936093
3128.000000;2.941673
3127.000000;2.870497
3126.000000;2.984297
3125.000000;3.669996
3124.000000;3.063295
3123.000000;2.876485
3122.000000;3.022727
3121.000000;3.312344
3120.000000;3.288143
3119.000000;2.959990
3118.000000;2.812055
3117.000000;2.813541
3116.000000;2.986068
3115.000000;3.204204
3114.000000;3.407553
3113.000000;3.506498
3112.000000;3.019434
3111.000000;2.765537
3110.000000;2.666333
3109.000000;2.662920
3108.000000;2.771664
3107.000000;3.011569
3106.000000;3.127665
3105.000000;3.136085
3104.000000;3.071843
3103.000000;2.867415
3102.000000;2.831408
3101.000000;2.887678
3100.000000;2.833560
3099.000000;2.776876
3098.000000;2.837359
3097.000000;3.084996
3096.000000;3.246098
3095.000000;2.982963
3094.000000;2.911243
3093.000000;3.014691
3092.000000;3.036937
3091.000000;2.927885
3090.000000;2.907706
3089.000000;2.945452
3088.000000;2.943877
3087.000000;3.113475
3086.000000;3.394893
3085.000000;2.970774
3084.000000;2.761145
3083.000000;2.790817
3082.000000;2.900127
3081.000000;2.964240
3080.000000;3.076175
3079.000000;3.086019
3078.000000;2.988704
3077.000000;2.958110
3076.000000;2.906826
3075.000000;2.835587
3074.000000;2.815688
3073.000000;2.819418
3072.000000;2.979733
3071.000000;3.914350
3070.000000;3.197404
3069.000000;3.016527
3068.000000;3.120604
3067.000000;3.076120
3066.000000;3.010623
3065.000000;2.925174
3064.000000;2.871958
3063.000000;2.878370
3062.000000;2.897478
3061.000000;2.851897
3060.000000;2.804107
3059.000000;2.848468
3058.000000;2.954259
3057.000000;2.944327
3056.000000;2.910534
3055.000000;2.935827
3054.000000;3.076975
3053.000000;3.407306
3052.000000;3.097893
3051.000000;2.842046
3050.000000;2.852777
3049.000000;3.044999
3048.000000;3.243911
3047.000000;3.000898
3046.000000;2.864896
3045.000000;2.903836
3044.000000;2.992498
3043.000000;3.053736
3042.000000;3.159513
3041.000000;3.238624
3040.000000;3.248866
3039.000000;3.509300
3038.000000;3.125123
3037.000000;2.800524
3036.000000;2.727139
3035.000000;2.771029
3034.000000;2.831069
3033.000000;2.832337
3032.000000;2.808615
3031.000000;2.791137
3030.000000;2.754069
3029.000000;2.675142
3028.000000;2.643147
3027.000000;2.737167
3026.000000;2.977835
3025.000000;3.100519
3024.000000;3.205286
3023.000000;3.564725
3022.000000;3.081661
3021.000000;2.837908
3020.000000;2.830082
3019.000000;2.929841
3018.000000;3.083591
3017.000000;3.054054
3016.000000;2.990457
3015.000000;3.216001
3014.000000;3.630649
3013.000000;3.037899
3012.000000;2.919896
3011.000000;2.958931
3010.000000;2.862749
3009.000000;2.798599
3008.000000;2.957833
3007.000000;3.351806
3006.000000;3.118117
3005.000000;2.936698
3004.000000;3.114532
3003.000000;3.569354
3002.000000;3.446188
3001.000000;3.417323
3000.000000;3.374867
2999.000000;2.965502
2998.000000;2.729203
2997.000000;2.636405
2996.000000;2.672889
2995.000000;2.822396
2994.000000;3.061132
2993.000000;3.512047
2992.000000;3.102578
2991.000000;2.763915
2990.000000;2.689020
2989.000000;2.814021
2988.000000;3.169156
2987.000000;3.040825
2986.000000;2.777992
2985.000000;2.670707
2984.000000;2.681170
2983.000000;2.859168
2982.000000;3.005809
2981.000000;3.076589
2980.000000;3.408652
2979.000000;3.121337
2978.000000;2.874357
2977.000000;2.888596
2976.000000;3.044010
2975.000000;3.356505
2974.000000;3.324949
2973.000000;3.086353
2972.000000;3.022341
2971.000000;3.057050
2970.000000;3.092973
2969.000000;3.009332
2968.000000;2.875405
2967.000000;2.804698
2966.000000;2.812081
2965.000000;2.892471
2964.000000;3.088337
2963.000000;3.146445
2962.000000;2.922095
2961.000000;2.872819
2960.000000;3.003016
2959.000000;3.040669
2958.000000;2.967740
2957.000000;3.109758
2956.000000;3.295789
2955.000000;2.988830
2954.000000;2.810854
2953.000000;2.738818
2952.000000;2.702571
2951.000000;2.716697
2950.000000;2.810479
2949.000000;2.999568
2948.000000;3.082500
2947.000000;3.113407
2946.000000;3.574474
2945.000000;3.435459
2944.000000;3.025968
2943.000000;3.011046
2942.000000;3.026144
2941.000000;3.013557
2940.000000;3.011192
2939.000000;3.180097
2938.000000;3.538318
2937.000000;3.557742
2936.000000;4.119171
2935.000000;3.199547
2934.000000;2.879244
2933.000000;2.883762
2932.000000;3.059577
2931.000000;3.237885
2930.000000;3.036273
2929.000000;2.821951
2928.000000;2.773073
2927.000000;2.870228
2926.000000;2.989364
2925.000000;2.953576
2924.000000;2.856010
2923.000000;2.846118
2922.000000;2.939939
2921.000000;3.347273
2920.000000;3.496290
2919.000000;2.954448
2918.000000;2.807635
2917.000000;2.898356
2916.000000;3.393075
2915.000000;3.841122
2914.000000;3.479689
2913.000000;3.400637
2912.000000;3.424137
2911.000000;3.601427
2910.000000;3.324413
2909.000000;3.162805
2908.000000;3.061027
2907.000000;2.954941
2906.000000;3.170569
2905.000000;3.600247
2904.000000;2.957685
2903.000000;2.772505
2902.000000;2.782971
2901.000000;2.866314
2900.000000;2.974435
2899.000000;3.015962
2898.000000;3.130462
2897.000000;3.244718
2896.000000;3.033221
2895.000000;3.004149
2894.000000;3.206643
2893.000000;3.015273
2892.000000;2.872897
2891.000000;2.944312
2890.000000;2.989282
2889.000000;2.996006
2888.000000;3.112195
2887.000000;3.137777
2886.000000;2.984255
2885.000000;2.837381
2884.000000;2.712983
2883.000000;2.618742
2882.000000;2.567744
2881.000000;2.536604
2880.000000;2.558481
2879.000000;2.653671
2878.000000;2.983869
2877.000000;3.854804
2876.000000;3.056873
2875.000000;2.941449
2874.000000;3.025319
2873.000000;3.061416
2872.000000;3.059785
2871.000000;3.022969
2870.000000;3.438815
2869.000000;3.653740
2868.000000;2.926312
2867.000000;2.735902
2866.000000;2.678859
2865.000000;2.714638
2864.000000;2.802602
2863.000000;2.777030
2862.000000;2.708400
2861.000000;2.739437
2860.000000;2.945498
2859.000000;3.436687
2858.000000;3.771284
2857.000000;4.019828
2856.000000;3.643993
2855.000000;3.505594
2854.000000;3.832241
2853.000000;3.051183
2852.000000;2.802482
2851.000000;2.805667
2850.000000;3.076376
2849.000000;3.498444
2848.000000;3.015975
2847.000000;2.797884
2846.000000;2.653371
2845.000000;2.594133
2844.000000;2.651714
2843.000000;2.777959
2842.000000;2.919191
2841.000000;3.000865
2840.000000;3.261810
2839.000000;3.431428
2838.000000;2.955818
2837.000000;2.775691
2836.000000;2.834473
2835.000000;3.096676
2834.000000;3.652708
2833.000000;3.626997
2832.000000;3.231681
2831.000000;3.062677
2830.000000;2.991514
2829.000000;2.959068
2828.000000;2.925601
2827.000000;2.935629
2826.000000;2.964709
2825.000000;2.997324
2824.000000;2.999149
2823.000000;3.236146
2822.000000;3.886108
2821.000000;3.040635
2820.000000;2.785462
2819.000000;2.711648
2818.000000;2.710170
2817.000000;2.755693
2816.000000;2.791799
2815.000000;2.852716
2814.000000;3.026417
2813.000000;3.188708
2812.000000;3.030132
2811.000000;2.995606
2810.000000;3.114092
2809.000000;3.102530
2808.000000;2.976992
2807.000000;2.886004
2806.000000;2.815086
2805.000000;2.764261
2804.000000;2.749349
2803.000000;2.710561
2802.000000;2.636593
2801.000000;2.636718
2800.000000;2.771212
2799.000000;3.137355
2798.000000;3.410949
2797.000000;3.022896
2796.000000;2.878860
2795.000000;2.775954
2794.000000;2.630156
2793.000000;2.555703
2792.000000;2.598040
2791.000000;2.823388
2790.000000;3.210568
2789.000000;3.083497
2788.000000;2.818800
2787.000000;2.682064
2786.000000;2.634737
2785.000000;2.636022
2784.000000;2.642206
2783.000000;2.648666
2782.000000;2.689430
2781.000000;2.759552
2780.000000;2.936721
2779.000000;3.490695
2778.000000;3.131839
2777.000000;2.831888
2776.000000;2.804142
2775.000000;2.799560
2774.000000;2.803962
2773.000000;2.824486
2772.000000;2.931867
2771.000000;3.063364
2770.000000;2.975567
2769.000000;2.797695
2768.000000;2.668318
2767.000000;2.609062
2766.000000;2.616858
2765.000000;2.667319
2764.000000;2.715626
2763.000000;2.756035
2762.000000;2.821645
2761.000000;2.975446
2760.000000;3.503321
2759.000000;3.419265
2758.000000;2.960720
2757.000000;2.874382
2756.000000;2.831529
2755.000000;2.788490
2754.000000;2.738286
2753.000000;2.726544
2752.000000;2.798302
2751.000000;2.959522
2750.000000;3.191009
2749.000000;3.184311
2748.000000;3.101151
2747.000000;3.053489
2746.000000;3.092179
2745.000000;3.292432
2744.000000;2.972529
2743.000000;2.697472
2742.000000;2.621242
2741.000000;2.795916
2740.000000;3.348087
2739.000000;3.031384
2738.000000;2.807741
2737.000000;2.846786
2736.000000;3.003410
2735.000000;3.418252
2734.000000;3.340153
2733.000000;2.940402
2732.000000;2.797842
2731.000000;2.778490
2730.000000;2.844508
2729.000000;2.892142
2728.000000;2.877476
2727.000000;2.888090
2726.000000;2.864756
2725.000000;2.808826
2724.000000;2.802950
2723.000000;2.860212
2722.000000;2.952046
2721.000000;3.039789
2720.000000;3.140224
2719.000000;3.175948
2718.000000;3.164864
2717.000000;3.366493
2716.000000;3.169585
2715.000000;2.811921
2714.000000;2.684605
2713.000000;2.672654
2712.000000;2.727249
2711.000000;2.843892
2710.000000;2.989510
2709.000000;3.033204
2708.000000;2.977519
2707.000000;2.966962
2706.000000;3.170775
2705.000000;3.650645
2704.000000;3.458715
2703.000000;3.134844
2702.000000;2.953018
2701.000000;2.866346
2700.000000;3.039029
2699.000000;3.596428
2698.000000;3.189670
2697.000000;2.951802
2696.000000;2.983953
2695.000000;3.136565
2694.000000;3.305296
2693.000000;3.004609
2692.000000;2.776366
2691.000000;2.677651
2690.000000;2.654296
2689.000000;2.700126
2688.000000;2.801851
2687.000000;2.977884
2686.000000;3.216437
2685.000000;3.346777
2684.000000;3.209216
2683.000000;2.966379
2682.000000;2.778984
2681.000000;2.722103
2680.000000;2.810472
2679.000000;2.967205
2678.000000;2.958521
2677.000000;2.867574
2676.000000;2.893839
2675.000000;2.912734
2674.000000;2.905849
2673.000000;2.982020
2672.000000;2.929178
2671.000000;2.825375
2670.000000;2.893507
2669.000000;2.961674
2668.000000;2.827770
2667.000000;2.780093
2666.000000;2.968901
2665.000000;3.301193
2664.000000;3.168224
2663.000000;3.110399
2662.000000;3.255145
2661.000000;3.178995
2660.000000;3.059574
2659.000000;3.152313
2658.000000;3.386293
2657.000000;3.489406
2656.000000;3.304270
2655.000000;3.033971
2654.000000;2.910678
2653.000000;2.851290
2652.000000;2.823933
2651.000000;2.934306
2650.000000;3.020308
2649.000000;2.927887
2648.000000;2.992523
2647.000000;3.227052
2646.000000;3.258288
2645.000000;3.182155
2644.000000;3.209759
2643.000000;3.335867
2642.000000;3.276049
2641.000000;3.054138
2640.000000;2.905396
2639.000000;2.979229
2638.000000;3.321167
2637.000000;3.161695
2636.000000;2.967667
2635.000000;2.979246
2634.000000;3.096598
2633.000000;3.201292
2632.000000;3.116254
2631.000000;3.144063
2630.000000;3.315109
2629.000000;3.333868
2628.000000;3.140211
2627.000000;3.033316
2626.000000;3.080044
2625.000000;3.160696
2624.000000;3.147820
2623.000000;3.013389
2622.000000;2.924703
2621.000000;2.997166
2620.000000;3.300514
2619.000000;4.112442
2618.000000;4.137927
2617.000000;3.608098
2616.000000;3.096663
2615.000000;2.797430
2614.000000;2.694843
2613.000000;2.682029
2612.000000;2.709327
2611.000000;2.778513
2610.000000;2.934318
2609.000000;2.957970
2608.000000;2.774459
2607.000000;2.687182
2606.000000;2.680025
2605.000000;2.665832
2604.000000;2.638035
2603.000000;2.662046
2602.000000;2.826639
2601.000000;3.038670
2600.000000;2.933446
2599.000000;2.762603
2598.000000;2.668295
2597.000000;2.600413
2596.000000;2.592567
2595.000000;2.631829
2594.000000;2.716152
2593.000000;2.796779
2592.000000;2.948411
2591.000000;3.640283
2590.000000;3.227029
2589.000000;2.823812
2588.000000;2.739448
2587.000000;2.716443
2586.000000;2.782334
2585.000000;2.912036
2584.000000;2.982785
2583.000000;2.888805
2582.000000;2.832514
2581.000000;2.887934
2580.000000;2.972180
2579.000000;2.944142
2578.000000;2.848481
2577.000000;2.772468
2576.000000;2.716859
2575.000000;2.721316
2574.000000;2.855232
2573.000000;3.290920
2572.000000;3.461293
2571.000000;3.132812
2570.000000;3.180118
2569.000000;3.251902
2568.000000;3.162757
2567.000000;2.988523
2566.000000;2.880524
2565.000000;2.912782
2564.000000;2.991024
2563.000000;2.960373
2562.000000;2.949473
2561.000000;3.015853
2560.000000;2.954123
2559.000000;2.827459
2558.000000;2.779250
2557.000000;2.843569
2556.000000;3.099622
2555.000000;3.547414
2554.000000;3.597543
2553.000000;3.415751
2552.000000;3.208697
2551.000000;3.180025
2550.000000;3.530993
2549.000000;3.499172
2548.000000;3.026239
2547.000000;3.055662
2546.000000;3.295727
2545.000000;2.986444
2544.000000;2.785453
2543.000000;2.842156
2542.000000;3.145224
2541.000000;3.431019
2540.000000;3.180732
2539.000000;3.049655
2538.000000;3.047235
2537.000000;3.170085
2536.000000;3.302449
2535.000000;3.138830
2534.000000;3.020585
2533.000000;3.057295
2532.000000;3.375737
2531.000000;3.606320
2530.000000;3.175433
2529.000000;3.007870
2528.000000;2.911767
2527.000000;2.852751
2526.000000;2.893424
2525.000000;2.995036
2524.000000;3.132718
2523.000000;3.164593
2522.000000;2.962644
2521.000000;2.843438
2520.000000;2.899732
2519.000000;3.098854
2518.000000;3.331575
2517.000000;3.321942
2516.000000;3.065330
2515.000000;2.854030
2514.000000;2.762719
2513.000000;2.773850
2512.000000;2.859208
2511.000000;3.045421
2510.000000;3.514059
2509.000000;3.973925
2508.000000;3.833449
2507.000000;3.588007
2506.000000;3.315716
2505.000000;3.305142
2504.000000;3.258797
2503.000000;3.110529
2502.000000;3.144457
2501.000000;3.513765
2500.000000;4.107637
2499.000000;3.825524
2498.000000;3.651189
2497.000000;3.615068
2496.000000;3.837079
2495.000000;3.380598
2494.000000;3.017279
2493.000000;2.891847
2492.000000;2.900610
2491.000000;3.314487
2490.000000;3.612435
2489.000000;3.012371
2488.000000;2.922619
2487.000000;3.003018
2486.000000;3.256256
2485.000000;3.923176
2484.000000;3.565592
2483.000000;3.157517
2482.000000;2.993672
2481.000000;2.953401
2480.000000;2.989376
2479.000000;3.094848
2478.000000;3.311400
2477.000000;3.266687
2476.000000;3.092317
2475.000000;3.091216
2474.000000;3.239547
2473.000000;3.431741
2472.000000;3.222746
2471.000000;3.006201
2470.000000;2.974488
2469.000000;3.063641
2468.000000;3.246755
2467.000000;3.529893
2466.000000;3.792210
2465.000000;3.655970
2464.000000;3.294945
2463.000000;3.128577
2462.000000;3.120924
2461.000000;3.056653
2460.000000;2.935524
2459.000000;2.874444
2458.000000;2.904915
2457.000000;2.981199
2456.000000;3.012353
2455.000000;3.007006
2454.000000;2.993570
2453.000000;2.997679
2452.000000;3.054481
2451.000000;3.175483
2450.000000;3.273883
2449.000000;3.278011
2448.000000;3.352109
2447.000000;3.289661
2446.000000;3.064570
2445.000000;2.969277
2444.000000;2.976256
2443.000000;3.029094
2442.000000;3.081768
2441.000000;3.117415
2440.000000;3.157218
2439.000000;3.190107
2438.000000;3.498205
2437.000000;3.937557
2436.000000;3.579502
2435.000000;3.559430
2434.000000;3.350405
2433.000000;3.403849
2432.000000;3.756616
2431.000000;3.357956
2430.000000;3.242445
2429.000000;3.310853
2428.000000;3.236656
2427.000000;3.158523
2426.000000;3.111225
2425.000000;3.303371
2424.000000;3.526950
2423.000000;3.153610
2422.000000;3.065650
2421.000000;3.163454
2420.000000;3.256375
2419.000000;3.332976
2418.000000;3.551393
2417.000000;3.424863
2416.000000;3.019964
2415.000000;2.860650
2414.000000;2.820830
2413.000000;2.861503
2412.000000;2.944394
2411.000000;2.998824
2410.000000;3.030413
2409.000000;3.060701
2408.000000;3.090161
2407.000000;3.063759
2406.000000;3.088017
2405.000000;3.223085
2404.000000;3.426955
2403.000000;3.830160
2402.000000;3.449168
2401.000000;3.195006
2400.000000;3.503125
2399.000000;3.532092
2398.000000;3.183973
2397.000000;3.379190
2396.000000;3.515921
2395.000000;3.154375
2394.000000;3.144357
2393.000000;3.246239
2392.000000;3.122723
2391.000000;2.951145
2390.000000;2.874717
2389.000000;2.912127
2388.000000;3.045880
2387.000000;3.231669
2386.000000;3.326895
2385.000000;3.413446
2384.000000;3.527824
2383.000000;3.365914
2382.000000;3.311263
2381.000000;3.458166
2380.000000;3.461147
2379.000000;3.531471
2378.000000;3.931676
2377.000000;3.638084
2376.000000;3.305188
2375.000000;3.191429
2374.000000;3.210842
2373.000000;3.428280
2372.000000;3.541775
2371.000000;3.370241
2370.000000;3.366311
2369.000000;3.394261
2368.000000;3.473503
2367.000000;3.487108
2366.000000;3.190232
2365.000000;3.069072
2364.000000;3.134104
2363.000000;3.310198
2362.000000;3.545593
2361.000000;3.728236
2360.000000;3.863768
2359.000000;3.886986
2358.000000;3.677495
2357.000000;3.476619
2356.000000;3.413739
2355.000000;3.435280
2354.000000;3.423419
2353.000000;3.356353
2352.000000;3.300452
2351.000000;3.269699
2350.000000;3.339026
2349.000000;3.669455
2348.000000;4.047250
2347.000000;3.836283
2346.000000;3.711698
2345.000000;3.711843
2344.000000;3.697209
2343.000000;3.789170
2342.000000;4.246765
2341.000000;3.733415
2340.000000;3.408996
2339.000000;3.337451
2338.000000;3.342775
2337.000000;3.450055
2336.000000;3.595205
2335.000000;3.334132
2334.000000;3.090090
2333.000000;3.087583
2332.000000;3.275998
2331.000000;3.865778
2330.000000;4.284276
2329.000000;3.680969
2328.000000;3.592853
2327.000000;3.403151
2326.000000;3.205840
2325.000000;3.185499
2324.000000;3.475603
2323.000000;3.803760
2322.000000;3.449133
2321.000000;3.365505
2320.000000;3.499083
2319.000000;3.787231
2318.000000;3.972336
2317.000000;3.329939
2316.000000;2.955184
2315.000000;2.806183
2314.000000;2.854135
2313.000000;3.152974
2312.000000;3.231332
2311.000000;2.984419
2310.000000;2.966718
2309.000000;3.153952
2308.000000;3.492733
2307.000000;3.480919
2306.000000;3.374621
2305.000000;3.391778
2304.000000;3.390520
2303.000000;3.454311
2302.000000;3.364260
2301.000000;3.173540
2300.000000;3.149976
2299.000000;3.479253
2298.000000;3.886840
2297.000000;3.481500
2296.000000;3.318851
2295.000000;3.230935
2294.000000;3.264387
2293.000000;3.516742
2292.000000;3.621897
2291.000000;3.795462
2290.000000;3.548481
2289.000000;3.231738
2288.000000;3.175336
2287.000000;3.384977
2286.000000;3.677133
2285.000000;3.273425
2284.000000;3.095791
2283.000000;3.316849
2282.000000;3.514237
2281.000000;3.079550
2280.000000;2.982778
2279.000000;3.035790
2278.000000;3.079914
2277.000000;3.118442
2276.000000;3.177312
2275.000000;3.227339
2274.000000;3.006326
2273.000000;2.854939
2272.000000;2.880017
2271.000000;3.057532
2270.000000;3.342865
2269.000000;3.645211
2268.000000;3.503345
2267.000000;3.458925
2266.000000;3.826249
2265.000000;3.541259
2264.000000;3.555849
2263.000000;3.699025
2262.000000;3.328428
2261.000000;3.222765
2260.000000;3.180665
2259.000000;3.130867
2258.000000;3.132035
2257.000000;3.156477
2256.000000;3.357451
2255.000000;3.579209
2254.000000;3.294706
2253.000000;3.189343
2252.000000;3.186414
2251.000000;3.194381
2250.000000;3.307470
2249.000000;3.415441
2248.000000;3.325016
2247.000000;3.167286
2246.000000;3.160980
2245.000000;3.283681
2244.000000;3.297199
2243.000000;3.177423
2242.000000;3.297168
2241.000000;3.652055
2240.000000;3.208476
2239.000000;2.930049
2238.000000;2.851421
2237.000000;2.879838
2236.000000;3.053712
2235.000000;3.472188
2234.000000;4.536281
2233.000000;3.549728
2232.000000;3.127316
2231.000000;2.987812
2230.000000;3.031938
2229.000000;3.425764
2228.000000;3.658961
2227.000000;3.219004
2226.000000;3.513846
2225.000000;3.465484
2224.000000;2.857412
2223.000000;2.694318
2222.000000;2.680256
2221.000000;2.847565
2220.000000;3.429767
2219.000000;3.265308
2218.000000;2.942239
2217.000000;2.950821
2216.000000;3.030100
2215.000000;3.238771
2214.000000;3.281350
2213.000000;3.132636
2212.000000;3.138194
2211.000000;3.343148
2210.000000;3.463534
2209.000000;3.156082
2208.000000;3.285007
2207.000000;3.553775
2206.000000;3.030257
2205.000000;2.874747
2204.000000;2.908797
2203.000000;2.996496
2202.000000;3.070430
2201.000000;3.085593
2200.000000;3.113226
2199.000000;3.048207
2198.000000;2.936056
2197.000000;2.885388
2196.000000;2.927579
2195.000000;3.152017
2194.000000;3.665770
2193.000000;3.403516
2192.000000;3.177170
2191.000000;3.407567
2190.000000;3.678922
2189.000000;3.405412
2188.000000;3.295518
2187.000000;3.332654
2186.000000;3.264289
2185.000000;3.279141
2184.000000;3.569694
2183.000000;3.373338
2182.000000;3.012840
2181.000000;2.928452
2180.000000;3.005815
2179.000000;3.040407
2178.000000;2.974865
2177.000000;3.078003
2176.000000;3.292657
2175.000000;3.111777
2174.000000;3.004068
2173.000000;3.184751
2172.000000;3.502371
2171.000000;3.601964
2170.000000;3.386164
2169.000000;3.105177
2168.000000;3.099091
2167.000000;3.190357
2166.000000;3.200731
2165.000000;3.209078
2164.000000;3.309362
2163.000000;3.939147
2162.000000;3.899068
2161.000000;3.643817
2160.000000;3.615804
2159.000000;3.336118
2158.000000;3.355823
2157.000000;3.506435
2156.000000;3.445941
2155.000000;3.443900
2154.000000;3.559981
2153.000000;3.726282
2152.000000;3.779228
2151.000000;3.679607
2150.000000;3.430263
2149.000000;3.097904
2148.000000;2.981796
2147.000000;3.069658
2146.000000;3.285641
2145.000000;3.569112
2144.000000;3.780166
2143.000000;3.421933
2142.000000;3.090421
2141.000000;2.963172
2140.000000;2.935869
2139.000000;2.983428
2138.000000;3.140448
2137.000000;3.485427
2136.000000;3.656992
2135.000000;3.344911
2134.000000;3.127760
2133.000000;2.992228
2132.000000;3.020069
2131.000000;3.251050
2130.000000;3.655046
2129.000000;3.788419
2128.000000;3.293265
2127.000000;3.007518
2126.000000;2.911818
2125.000000;2.923474
2124.000000;3.109667
2123.000000;3.475263
2122.000000;3.318838
2121.000000;3.113463
2120.000000;3.049230
2119.000000;3.052634
2118.000000;3.119830
2117.000000;3.197225
2116.000000;3.338302
2115.000000;3.335819
2114.000000;3.162873
2113.000000;3.121273
2112.000000;3.200015
2111.000000;3.345355
2110.000000;3.500635
2109.000000;3.320072
2108.000000;3.132252
2107.000000;3.093446
2106.000000;3.295614
2105.000000;3.409356
2104.000000;3.393923
2103.000000;4.145278
2102.000000;3.502945
2101.000000;3.155795
2100.000000;3.118158
2099.000000;3.155469
2098.000000;3.435440
2097.000000;3.405318
2096.000000;3.170723
2095.000000;3.419417
2094.000000;3.306813
2093.000000;2.901748
2092.000000;2.833725
2091.000000;2.960771
2090.000000;3.365372
2089.000000;3.340500
2088.000000;3.011812
2087.000000;3.005439
2086.000000;3.324915
2085.000000;3.520207
2084.000000;3.047572
2083.000000;2.915757
2082.000000;2.990207
2081.000000;3.251096
2080.000000;3.252834
2079.000000;3.261917
2078.000000;3.915335
2077.000000;3.441983
2076.000000;3.126722
2075.000000;2.944253
2074.000000;2.808662
2073.000000;2.825444
2072.000000;2.956028
2071.000000;3.158056
2070.000000;3.356716
2069.000000;3.287889
2068.000000;3.031136
2067.000000;2.939781
2066.000000;3.011917
2065.000000;3.156011
2064.000000;3.199925
2063.000000;3.280277
2062.000000;3.502906
2061.000000;3.217890
2060.000000;3.039053
2059.000000;3.204730
2058.000000;3.234033
2057.000000;3.063367
2056.000000;3.032814
2055.000000;3.125530
2054.000000;3.506420
2053.000000;3.598050
2052.000000;3.192692
2051.000000;3.189338
2050.000000;3.410432
2049.000000;3.298308
2048.000000;3.136855
2047.000000;3.298934
2046.000000;3.519227
2045.000000;3.154551
2044.000000;2.964990
2043.000000;2.976237
2042.000000;3.221235
2041.000000;3.285109
2040.000000;3.009094
2039.000000;2.976562
2038.000000;3.355672
2037.000000;4.054868
2036.000000;3.346229
2035.000000;3.371434
2034.000000;3.468752
2033.000000;3.433298
2032.000000;3.601287
2031.000000;3.640549
2030.000000;3.611343
2029.000000;3.502130
2028.000000;3.179574
2027.000000;3.043513
2026.000000;3.150488
2025.000000;3.381314
2024.000000;3.676425
2023.000000;3.523929
2022.000000;3.357319
2021.000000;3.380104
2020.000000;3.278597
2019.000000;3.154302
2018.000000;3.098020
2017.000000;3.066134
2016.000000;3.064661
2015.000000;3.233157
2014.000000;3.340145
2013.000000;3.057594
2012.000000;2.949390
2011.000000;2.957605
2010.000000;3.020382
2009.000000;3.087585
2008.000000;3.081833
2007.000000;3.159421
2006.000000;3.212219
2005.000000;3.128330
2004.000000;3.142248
2003.000000;3.424062
2002.000000;3.956053
2001.000000;3.584147
2000.000000;3.378472
1999.000000;3.299723
1998.000000;3.185258
1997.000000;3.076028
1996.000000;2.961378
1995.000000;2.822272
1994.000000;2.841904
1993.000000;3.180023
1992.000000;3.103430
1991.000000;2.807536
1990.000000;2.750163
1989.000000;2.801702
1988.000000;2.948837
1987.000000;3.086594
1986.000000;3.081311
1985.000000;3.172518
1984.000000;3.488380
1983.000000;3.458991
1982.000000;3.239824
1981.000000;3.089292
1980.000000;2.953167
1979.000000;2.931811
1978.000000;3.014493
1977.000000;3.289230
1976.000000;3.470045
1975.000000;3.166096
1974.000000;3.024335
1973.000000;3.099061
1972.000000;3.399611
1971.000000;3.258613
1970.000000;3.039509
1969.000000;3.018553
1968.000000;3.105869
1967.000000;3.427265
1966.000000;3.535423
1965.000000;3.186860
1964.000000;3.208649
1963.000000;3.616001
1962.000000;3.436600
1961.000000;3.284090
1960.000000;3.254905
1959.000000;3.029343
1958.000000;2.894195
1957.000000;2.998946
1956.000000;3.331491
1955.000000;3.230610
1954.000000;3.108685
1953.000000;3.248778
1952.000000;3.284637
1951.000000;3.200647
1950.000000;3.223131
1949.000000;3.369103
1948.000000;3.405170
1947.000000;3.278290
1946.000000;3.250625
1945.000000;3.317792
1944.000000;3.290562
1943.000000;3.209849
1942.000000;3.106475
1941.000000;2.973129
1940.000000;2.932216
1939.000000;3.076940
1938.000000;3.210842
1937.000000;3.032366
1936.000000;2.927816
1935.000000;2.990977
1934.000000;3.129406
1933.000000;3.136101
1932.000000;3.117246
1931.000000;3.034230
1930.000000;2.880182
1929.000000;2.858365
1928.000000;3.022567
1927.000000;3.467344
1926.000000;3.508396
1925.000000;3.164970
1924.000000;3.010263
1923.000000;2.902750
1922.000000;2.910907
1921.000000;2.988057
1920.000000;3.104833
1919.000000;3.266428
1918.000000;3.248277
1917.000000;3.257352
1916.000000;3.270258
1915.000000;3.448758
1914.000000;3.730449
1913.000000;3.257393
1912.000000;3.149806
1911.000000;3.252151
1910.000000;3.259804
1909.000000;3.222583
1908.000000;3.188427
1907.000000;3.266583
1906.000000;3.516517
1905.000000;3.230725
1904.000000;2.893302
1903.000000;2.847491
1902.000000;3.065241
1901.000000;3.184574
1900.000000;2.994870
1899.000000;3.066607
1898.000000;3.472963
1897.000000;3.318376
1896.000000;2.974154
1895.000000;2.879470
1894.000000;2.877995
1893.000000;2.896015
1892.000000;2.970896
1891.000000;3.314168
1890.000000;3.558533
1889.000000;3.257226
1888.000000;3.301817
1887.000000;3.488996
1886.000000;3.505541
1885.000000;3.553966
1884.000000;3.844434
1883.000000;3.896187
1882.000000;3.421295
1881.000000;3.152001
1880.000000;3.097867
1879.000000;3.223052
1878.000000;3.311800
1877.000000;3.136446
1876.000000;2.921992
1875.000000;2.791586
1874.000000;2.749897
1873.000000;2.857009
1872.000000;3.231825
1871.000000;3.101798
1870.000000;2.788303
1869.000000;2.759601
1868.000000;2.823192
1867.000000;2.955187
1866.000000;3.334771
1865.000000;3.576317
1864.000000;3.189424
1863.000000;3.069653
1862.000000;3.006592
1861.000000;2.969014
1860.000000;2.996346
1859.000000;2.978070
1858.000000;2.964174
1857.000000;3.117256
1856.000000;3.325787
1855.000000;3.115934
1854.000000;3.178887
1853.000000;3.410062
1852.000000;3.115947
1851.000000;3.019974
1850.000000;3.143655
1849.000000;3.377739
1848.000000;3.312219
1847.000000;3.117636
1846.000000;3.258798
1845.000000;3.531309
1844.000000;3.392824
1843.000000;3.237307
1842.000000;3.101262
1841.000000;3.109275
1840.000000;3.173398
1839.000000;3.391967
1838.000000;3.563947
1837.000000;3.085907
1836.000000;2.901075
1835.000000;2.963301
1834.000000;3.159896
1833.000000;3.510127
1832.000000;4.139981
1831.000000;3.256690
1830.000000;2.904576
1829.000000;2.799594
1828.000000;2.788013
1827.000000;2.848826
1826.000000;2.983694
1825.000000;3.221639
1824.000000;3.217701
1823.000000;3.002962
1822.000000;2.924217
1821.000000;2.921189
1820.000000;3.008813
1819.000000;3.377788
1818.000000;3.285827
1817.000000;2.938690
1816.000000;3.033547
1815.000000;3.425837
1814.000000;3.139357
1813.000000;2.856916
1812.000000;2.831977
1811.000000;2.932429
1810.000000;3.217086
1809.000000;3.904562
1808.000000;3.659330
1807.000000;3.323083
1806.000000;3.270921
1805.000000;3.422548
1804.000000;3.681448
1803.000000;3.698430
1802.000000;3.583985
1801.000000;3.286961
1800.000000;3.097000
1799.000000;3.032031
1798.000000;3.196875
1797.000000;3.723632
1796.000000;3.616517
1795.000000;3.439238
1794.000000;3.557142
1793.000000;3.723355
1792.000000;3.490394
1791.000000;3.216288
1790.000000;3.278020
1789.000000;3.366887
1788.000000;3.144812
1787.000000;2.972352
1786.000000;2.984335
1785.000000;3.279447
1784.000000;3.128276
1783.000000;2.731614
1782.000000;2.620382
1781.000000;2.665661
1780.000000;2.953998
1779.000000;3.318597
1778.000000;2.953265
1777.000000;2.804154
1776.000000;3.015471
1775.000000;3.757210
1774.000000;3.006519
1773.000000;2.834667
1772.000000;2.896386
1771.000000;3.006630
1770.000000;3.439909
1769.000000;3.198267
1768.000000;2.938018
1767.000000;2.953520
1766.000000;3.011094
1765.000000;2.966810
1764.000000;3.123643
1763.000000;3.538349
1762.000000;3.396575
1761.000000;3.460845
1760.000000;3.368986
1759.000000;3.049802
1758.000000;3.055522
1757.000000;3.093203
1756.000000;3.026155
1755.000000;2.987106
1754.000000;3.153811
1753.000000;3.835912
1752.000000;3.392555
1751.000000;3.010898
1750.000000;2.908480
1749.000000;2.913798
1748.000000;3.157857
1747.000000;3.615377
1746.000000;3.307348
1745.000000;3.145545
1744.000000;3.143298
1743.000000;3.151016
1742.000000;3.127090
1741.000000;2.980044
1740.000000;2.823739
1739.000000;2.725518
1738.000000;2.707184
1737.000000;2.767841
1736.000000;2.954267
1735.000000;3.116643
1734.000000;2.929961
1733.000000;2.754738
1732.000000;2.699819
1731.000000;2.737948
1730.000000;2.848968
1729.000000;3.001024
1728.000000;3.154143
1727.000000;3.257224
1726.000000;3.253671
1725.000000;3.286871
1724.000000;3.403631
1723.000000;3.344190
1722.000000;3.342175
1721.000000;3.096364
1720.000000;2.711184
1719.000000;2.518481
1718.000000;2.490107
1717.000000;2.572051
1716.000000;2.706950
1715.000000;2.838673
1714.000000;2.930530
1713.000000;2.950031
1712.000000;3.013759
1711.000000;3.216196
1710.000000;3.009755
1709.000000;2.689589
1708.000000;2.541460
1707.000000;2.479571
1706.000000;2.518544
1705.000000;2.647581
1704.000000;2.825761
1703.000000;3.144849
1702.000000;3.039447
1701.000000;2.678133
1700.000000;2.523532
1699.000000;2.447438
1698.000000;2.442126
1697.000000;2.539387
1696.000000;2.778815
1695.000000;3.113289
1694.000000;3.012291
1693.000000;2.917408
1692.000000;3.018767
1691.000000;3.050797
1690.000000;2.938831
1689.000000;2.856712
1688.000000;2.847379
1687.000000;2.958536
1686.000000;3.325612
1685.000000;3.250568
1684.000000;3.086274
1683.000000;3.537896
1682.000000;3.803068
1681.000000;3.376201
1680.000000;3.585371
1679.000000;3.652571
1678.000000;3.308458
1677.000000;3.005800
1676.000000;2.839220
1675.000000;2.854910
1674.000000;2.943101
1673.000000;2.926198
1672.000000;2.911624
1671.000000;2.972505
1670.000000;2.938385
1669.000000;2.817914
1668.000000;2.883885
1667.000000;3.172410
1666.000000;2.962295
1665.000000;2.706155
1664.000000;2.633435
1663.000000;2.660617
1662.000000;2.821737
1661.000000;3.244681
1660.000000;3.369476
1659.000000;3.038991
1658.000000;3.013979
1657.000000;3.190537
1656.000000;3.314466
1655.000000;2.908747
1654.000000;2.764922
1653.000000;2.857336
1652.000000;2.803225
1651.000000;2.665633
1650.000000;2.612308
1649.000000;2.742452
1648.000000;3.168381
1647.000000;3.055316
1646.000000;2.808438
1645.000000;2.784866
1644.000000;2.844068
1643.000000;2.978445
1642.000000;2.921329
1641.000000;2.784462
1640.000000;2.769221
1639.000000;2.978975
1638.000000;3.193294
1637.000000;2.887443
1636.000000;2.805983
1635.000000;2.908669
1634.000000;3.069337
1633.000000;3.212361
1632.000000;3.177022
1631.000000;2.876054
1630.000000;2.686330
1629.000000;2.680518
1628.000000;2.846699
1627.000000;3.412458
1626.000000;3.127556
1625.000000;2.769785
1624.000000;2.795895
1623.000000;2.880118
1622.000000;2.904792
1621.000000;2.887940
1620.000000;2.897075
1619.000000;2.955771
1618.000000;2.917944
1617.000000;2.860766
1616.000000;2.872353
1615.000000;2.939558
1614.000000;3.093140
1613.000000;3.016582
1612.000000;2.799321
1611.000000;2.737957
1610.000000;2.782760
1609.000000;2.854678
1608.000000;2.902876
1607.000000;3.032734
1606.000000;3.256112
1605.000000;3.107514
1604.000000;2.867923
1603.000000;2.800702
1602.000000;2.902158
1601.000000;3.134641
1600.000000;3.364386
1599.000000;3.211364
1598.000000;2.884890
1597.000000;2.722689
1596.000000;2.712044
1595.000000;2.812868
1594.000000;2.928479
1593.000000;3.045341
1592.000000;3.273264
1591.000000;3.358628
1590.000000;3.184323
1589.000000;2.941058
1588.000000;2.801585
1587.000000;2.748886
1586.000000;2.693380
1585.000000;2.654630
1584.000000;2.684243
1583.000000;2.817651
1582.000000;3.065011
1581.000000;3.330585
1580.000000;3.279914
1579.000000;3.426413
1578.000000;3.136738
1577.000000;2.646846
1576.000000;2.434469
1575.000000;2.378101
1574.000000;2.410855
1573.000000;2.538496
1572.000000;3.065751
1571.000000;3.033966
1570.000000;2.630189
1569.000000;2.669220
1568.000000;2.786855
1567.000000;2.848961
1566.000000;2.837715
1565.000000;2.813869
1564.000000;2.722944
1563.000000;2.564045
1562.000000;2.441779
1561.000000;2.422471
1560.000000;2.760501
1559.000000;2.893536
1558.000000;2.516919
1557.000000;2.430268
1556.000000;2.468627
1555.000000;2.547265
1554.000000;2.577915
1553.000000;2.583075
1552.000000;2.599026
1551.000000;2.616511
1550.000000;2.673669
1549.000000;2.997896
1548.000000;3.234162
1547.000000;2.685388
1546.000000;2.464407
1545.000000;2.392394
1544.000000;2.396316
1543.000000;2.438660
1542.000000;2.509776
1541.000000;2.629534
1540.000000;2.838981
1539.000000;3.235433
1538.000000;3.248704
1537.000000;3.251488
1536.000000;3.089619
1535.000000;2.743679
1534.000000;2.616577
1533.000000;2.629270
1532.000000;2.716383
1531.000000;2.886193
1530.000000;3.000942
1529.000000;2.812685
1528.000000;2.662506
1527.000000;2.670378
1526.000000;2.806956
1525.000000;2.958108
1524.000000;2.956391
1523.000000;2.844810
1522.000000;2.750129
1521.000000;2.820294
1520.000000;3.214534
1519.000000;3.226541
1518.000000;3.061636
1517.000000;3.266563
1516.000000;3.119939
1515.000000;2.923322
1514.000000;3.086446
1513.000000;3.186257
1512.000000;2.832502
1511.000000;2.660801
1510.000000;2.719107
1509.000000;3.161927
1508.000000;3.076729
1507.000000;2.804974
1506.000000;2.833827
1505.000000;2.873686
1504.000000;2.911601
1503.000000;2.943833
1502.000000;2.907062
1501.000000;2.800558
1500.000000;2.739235
1499.000000;2.871474
1498.000000;3.024517
1497.000000;2.818617
1496.000000;2.701111
1495.000000;2.675151
1494.000000;2.684138
1493.000000;2.715326
1492.000000;2.734112
1491.000000;2.811894
1490.000000;3.077155
1489.000000;3.368598
1488.000000;3.121491
1487.000000;2.997937
1486.000000;2.913002
1485.000000;2.738065
1484.000000;2.650515
1483.000000;2.727466
1482.000000;2.971509
1481.000000;3.456636
1480.000000;4.174524
1479.000000;4.029429
1478.000000;3.833265
1477.000000;2.960794
1476.000000;2.597536
1475.000000;2.461832
1474.000000;2.520611
1473.000000;2.633504
1472.000000;2.543534
1471.000000;2.503349
1470.000000;2.739550
1469.000000;3.131436
1468.000000;2.772378
1467.000000;2.555672
1466.000000;2.502464
1465.000000;2.511460
1464.000000;2.593330
1463.000000;2.749204
1462.000000;2.841204
1461.000000;2.701104
1460.000000;2.481414
1459.000000;2.406145
1458.000000;2.721394
1457.000000;2.778441
1456.000000;2.339655
1455.000000;2.163779
1454.000000;2.098886
1453.000000;2.108000
1452.000000;2.213249
1451.000000;2.522057
1450.000000;2.567060
1449.000000;2.188450
1448.000000;2.054467
1447.000000;2.048040
1446.000000;2.132234
1445.000000;2.335854
1444.000000;2.573691
1443.000000;2.512961
1442.000000;2.323705
1441.000000;2.195191
1440.000000;2.082908
1439.000000;1.999452
1438.000000;1.971437
1437.000000;2.041268
1436.000000;2.212357
1435.000000;2.491185
1434.000000;2.758885
1433.000000;2.564603
1432.000000;2.401588
1431.000000;2.399191
1430.000000;2.469011
1429.000000;2.551781
1428.000000;2.587980
1427.000000;2.640974
1426.000000;2.778072
1425.000000;3.105495
1424.000000;3.416306
1423.000000;2.942309
1422.000000;2.753251
1421.000000;2.721105
1420.000000;2.981573
1419.000000;3.464800
1418.000000;2.903581
1417.000000;2.643922
1416.000000;2.531787
1415.000000;2.533114
1414.000000;2.653512
1413.000000;2.851215
1412.000000;3.035301
1411.000000;2.957899
1410.000000;2.752721
1409.000000;2.642357
1408.000000;2.695998
1407.000000;2.973935
1406.000000;3.312184
1405.000000;3.060232
1404.000000;2.870230
1403.000000;2.817651
1402.000000;3.035129
1401.000000;3.588374
1400.000000;3.060214
1399.000000;2.991440
1398.000000;3.170613
1397.000000;3.080557
1396.000000;2.913072
1395.000000;2.915083
1394.000000;3.137050
1393.000000;3.270164
1392.000000;3.009455
1391.000000;2.897145
1390.000000;3.008648
1389.000000;3.230107
1388.000000;3.285294
1387.000000;3.406253
1386.000000;3.923019
1385.000000;3.744488
1384.000000;3.368416
1383.000000;3.137930
1382.000000;3.059614
1381.000000;3.205281
1380.000000;3.100145
1379.000000;2.951472
1378.000000;3.030363
1377.000000;3.154195
1376.000000;3.154024
1375.000000;3.074156
1374.000000;3.043003
1373.000000;3.114480
1372.000000;3.283855
1371.000000;3.424588
1370.000000;3.448741
1369.000000;3.718179
1368.000000;3.569485
1367.000000;3.077775
1366.000000;2.853076
1365.000000;2.773411
1364.000000;3.068162
1363.000000;3.333056
1362.000000;2.857936
1361.000000;2.821184
1360.000000;2.963475
1359.000000;3.042675
1358.000000;3.008801
1357.000000;2.939721
1356.000000;2.997406
1355.000000;3.468491
1354.000000;3.197882
1353.000000;3.004705
1352.000000;3.113993
1351.000000;2.869028
1350.000000;2.757179
1349.000000;2.895771
1348.000000;3.246192
1347.000000;3.251451
1346.000000;3.178630
1345.000000;3.520861
1344.000000;3.624104
1343.000000;3.253171
1342.000000;3.370066
1341.000000;3.759087
1340.000000;3.704691
1339.000000;3.596524
1338.000000;3.196186
1337.000000;2.957833
1336.000000;2.888080
1335.000000;3.035228
1334.000000;3.188556
1333.000000;2.946520
1332.000000;2.839190
1331.000000;3.000008
1330.000000;3.340205
1329.000000;3.068437
1328.000000;2.839400
1327.000000;2.821431
1326.000000;2.882989
1325.000000;2.968910
1324.000000;3.029904
1323.000000;3.295692
1322.000000;3.271358
1321.000000;2.845399
1320.000000;2.756919
1319.000000;2.953882
1318.000000;3.085483
1317.000000;2.935229
1316.000000;2.974837
1315.000000;3.265354
1314.000000;3.505340
1313.000000;3.358278
1312.000000;3.269777
1311.000000;3.156568
1310.000000;2.946911
1309.000000;2.732001
1308.000000;2.635958
1307.000000;2.676723
1306.000000;3.051008
1305.000000;3.347198
1304.000000;2.884553
1303.000000;2.825196
1302.000000;3.053198
1301.000000;3.299109
1300.000000;3.041811
1299.000000;2.824897
1298.000000;2.622614
1297.000000;2.507145
1296.000000;2.555098
1295.000000;2.737619
1294.000000;3.041332
1293.000000;3.464529
1292.000000;3.111009
1291.000000;2.750055
1290.000000;2.631855
1289.000000;2.679806
1288.000000;2.829213
1287.000000;2.899251
1286.000000;2.879441
1285.000000;2.963954
1284.000000;3.129096
1283.000000;3.026236
1282.000000;2.953714
1281.000000;3.244964
1280.000000;3.775186
1279.000000;3.339507
1278.000000;3.012820
1277.000000;2.894590
1276.000000;2.981848
1275.000000;3.138219
1274.000000;3.041345
1273.000000;2.925986
1272.000000;2.970793
1271.000000;3.034777
1270.000000;2.956569
1269.000000;3.146882
1268.000000;3.248174
1267.000000;2.802030
1266.000000;2.680018
1265.000000;2.735872
1264.000000;2.870510
1263.000000;3.086653
1262.000000;3.170429
1261.000000;2.998706
1260.000000;2.910426
1259.000000;2.915372
1258.000000;2.925385
1257.000000;2.951603
1256.000000;3.046377
1255.000000;3.194021
1254.000000;3.248134
1253.000000;3.136446
1252.000000;3.101669
1251.000000;3.221500
1250.000000;2.911095
1249.000000;2.646216
1248.000000;2.603852
1247.000000;2.718633
1246.000000;3.191752
1245.000000;3.232164
1244.000000;2.811117
1243.000000;2.728182
1242.000000;2.917145
1241.000000;3.147899
1240.000000;2.787443
1239.000000;2.628209
1238.000000;2.651788
1237.000000;2.802048
1236.000000;2.978519
1235.000000;2.922561
1234.000000;3.023625
1233.000000;3.476677
1232.000000;3.183402
1231.000000;2.882347
1230.000000;2.875073
1229.000000;3.162856
1228.000000;3.148446
1227.000000;2.755085
1226.000000;2.619125
1225.000000;2.581154
1224.000000;2.666482
1223.000000;3.007275
1222.000000;3.216652
1221.000000;3.033888
1220.000000;3.174674
1219.000000;3.274626
1218.000000;3.092286
1217.000000;3.257840
1216.000000;3.534817
1215.000000;3.193636
1214.000000;3.190143
1213.000000;3.358295
1212.000000;3.158486
1211.000000;2.909387
1210.000000;2.857312
1209.000000;3.031530
1208.000000;3.088018
1207.000000;2.831251
1206.000000;2.740665
1205.000000;2.858452
1204.000000;3.188896
1203.000000;3.122544
1202.000000;2.990704
1201.000000;3.224889
1200.000000;3.466619
