Criado como novo conjunto de dados;"0307_DANIEL.spp","72005.5 Secs"
cm-1;Abs
10000.000000;0.587234
9999.000000;0.586419
9998.000000;0.585378
9997.000000;0.584164
9996.000000;0.582931
9995.000000;0.581778
9994.000000;0.580732
9993.000000;0.579826
9992.000000;0.579129
9991.000000;0.578665
9990.000000;0.578331
9989.000000;0.577934
9988.000000;0.577378
9987.000000;0.576765
9986.000000;0.576212
9985.000000;0.575591
9984.000000;0.574600
9983.000000;0.573160
9982.000000;0.571589
9981.000000;0.570303
9980.000000;0.569457
9979.000000;0.568980
9978.000000;0.568798
9977.000000;0.568830
9976.000000;0.568839
9975.000000;0.568497
9974.000000;0.567630
9973.000000;0.566332
9972.000000;0.564855
9971.000000;0.563461
9970.000000;0.562286
9969.000000;0.561262
9968.000000;0.560255
9967.000000;0.559335
9966.000000;0.558764
9965.000000;0.558584
9964.000000;0.558394
9963.000000;0.557747
9962.000000;0.556700
9961.000000;0.555718
9960.000000;0.555078
9959.000000;0.554594
9958.000000;0.553903
9957.000000;0.552833
9956.000000;0.551502
9955.000000;0.550246
9954.000000;0.549437
9953.000000;0.549160
9952.000000;0.549024
9951.000000;0.548476
9950.000000;0.547317
9949.000000;0.545797
9948.000000;0.544234
9947.000000;0.542792
9946.000000;0.541567
9945.000000;0.540602
9944.000000;0.539739
9943.000000;0.538715
9942.000000;0.537520
9941.000000;0.536452
9940.000000;0.535697
9939.000000;0.535083
9938.000000;0.534359
9937.000000;0.533542
9936.000000;0.532819
9935.000000;0.532249
9934.000000;0.531700
9933.000000;0.530994
9932.000000;0.530015
9931.000000;0.528793
9930.000000;0.527563
9929.000000;0.526610
9928.000000;0.525955
9927.000000;0.525321
9926.000000;0.524499
9925.000000;0.523604
9924.000000;0.522870
9923.000000;0.522321
9922.000000;0.521765
9921.000000;0.520977
9920.000000;0.519799
9919.000000;0.518206
9918.000000;0.516415
9917.000000;0.514812
9916.000000;0.513617
9915.000000;0.512712
9914.000000;0.511889
9913.000000;0.511112
9912.000000;0.510420
9911.000000;0.509755
9910.000000;0.509078
9909.000000;0.508531
9908.000000;0.508236
9907.000000;0.507965
9906.000000;0.507253
9905.000000;0.505888
9904.000000;0.504147
9903.000000;0.502534
9902.000000;0.501381
9901.000000;0.500677
9900.000000;0.500133
9899.000000;0.499425
9898.000000;0.498476
9897.000000;0.497480
9896.000000;0.496597
9895.000000;0.495700
9894.000000;0.494560
9893.000000;0.493216
9892.000000;0.491974
9891.000000;0.491063
9890.000000;0.490410
9889.000000;0.489754
9888.000000;0.488857
9887.000000;0.487623
9886.000000;0.486152
9885.000000;0.484710
9884.000000;0.483531
9883.000000;0.482636
9882.000000;0.481876
9881.000000;0.481149
9880.000000;0.480461
9879.000000;0.479793
9878.000000;0.479022
9877.000000;0.478013
9876.000000;0.476728
9875.000000;0.475274
9874.000000;0.473872
9873.000000;0.472753
9872.000000;0.471976
9871.000000;0.471337
9870.000000;0.470523
9869.000000;0.469356
9868.000000;0.467869
9867.000000;0.466252
9866.000000;0.464785
9865.000000;0.463717
9864.000000;0.463024
9863.000000;0.462347
9862.000000;0.461330
9861.000000;0.460035
9860.000000;0.458854
9859.000000;0.457996
9858.000000;0.457227
9857.000000;0.456176
9856.000000;0.454768
9855.000000;0.453275
9854.000000;0.452029
9853.000000;0.451179
9852.000000;0.450643
9851.000000;0.450189
9850.000000;0.449563
9849.000000;0.448564
9848.000000;0.447098
9847.000000;0.445238
9846.000000;0.443315
9845.000000;0.441810
9844.000000;0.440963
9843.000000;0.440491
9842.000000;0.439828
9841.000000;0.438703
9840.000000;0.437369
9839.000000;0.436215
9838.000000;0.435306
9837.000000;0.434395
9836.000000;0.433275
9835.000000;0.431966
9834.000000;0.430588
9833.000000;0.429199
9832.000000;0.427815
9831.000000;0.426525
9830.000000;0.425467
9829.000000;0.424647
9828.000000;0.423844
9827.000000;0.422782
9826.000000;0.421439
9825.000000;0.420071
9824.000000;0.418910
9823.000000;0.417902
9822.000000;0.416841
9821.000000;0.415656
9820.000000;0.414453
9819.000000;0.413325
9818.000000;0.412264
9817.000000;0.411242
9816.000000;0.410244
9815.000000;0.409225
9814.000000;0.408132
9813.000000;0.406963
9812.000000;0.405709
9811.000000;0.404295
9810.000000;0.402692
9809.000000;0.401069
9808.000000;0.399636
9807.000000;0.398384
9806.000000;0.397126
9805.000000;0.395827
9804.000000;0.394660
9803.000000;0.393712
9802.000000;0.392817
9801.000000;0.391776
9800.000000;0.390566
9799.000000;0.389235
9798.000000;0.387799
9797.000000;0.386338
9796.000000;0.385019
9795.000000;0.383861
9794.000000;0.382634
9793.000000;0.381170
9792.000000;0.379631
9791.000000;0.378283
9790.000000;0.377124
9789.000000;0.375949
9788.000000;0.374680
9787.000000;0.373407
9786.000000;0.372157
9785.000000;0.370893
9784.000000;0.369707
9783.000000;0.368766
9782.000000;0.368001
9781.000000;0.367089
9780.000000;0.365835
9779.000000;0.364401
9778.000000;0.363044
9777.000000;0.361791
9776.000000;0.360488
9775.000000;0.359021
9774.000000;0.357403
9773.000000;0.355741
9772.000000;0.354231
9771.000000;0.353072
9770.000000;0.352257
9769.000000;0.351505
9768.000000;0.350516
9767.000000;0.349237
9766.000000;0.347800
9765.000000;0.346285
9764.000000;0.344667
9763.000000;0.342944
9762.000000;0.341175
9761.000000;0.339417
9760.000000;0.337716
9759.000000;0.336142
9758.000000;0.334729
9757.000000;0.333423
9756.000000;0.332172
9755.000000;0.331037
9754.000000;0.330090
9753.000000;0.329228
9752.000000;0.328225
9751.000000;0.326993
9750.000000;0.325644
9749.000000;0.324273
9748.000000;0.322818
9747.000000;0.321182
9746.000000;0.319367
9745.000000;0.317431
9744.000000;0.315436
9743.000000;0.313538
9742.000000;0.311962
9741.000000;0.310757
9740.000000;0.309666
9739.000000;0.308416
9738.000000;0.307062
9737.000000;0.305855
9736.000000;0.304813
9735.000000;0.303641
9734.000000;0.302143
9733.000000;0.300479
9732.000000;0.298904
9731.000000;0.297420
9730.000000;0.295876
9729.000000;0.294301
9728.000000;0.292909
9727.000000;0.291766
9726.000000;0.290632
9725.000000;0.289220
9724.000000;0.287506
9723.000000;0.285695
9722.000000;0.283959
9721.000000;0.282317
9720.000000;0.280737
9719.000000;0.279229
9718.000000;0.277803
9717.000000;0.276407
9716.000000;0.274953
9715.000000;0.273369
9714.000000;0.271602
9713.000000;0.269647
9712.000000;0.267621
9711.000000;0.265758
9710.000000;0.264189
9709.000000;0.262738
9708.000000;0.261061
9707.000000;0.259053
9706.000000;0.257045
9705.000000;0.255482
9704.000000;0.254456
9703.000000;0.253648
9702.000000;0.252684
9701.000000;0.251439
9700.000000;0.250023
9699.000000;0.248596
9698.000000;0.247249
9697.000000;0.245926
9696.000000;0.244393
9695.000000;0.242407
9694.000000;0.240028
9693.000000;0.237694
9692.000000;0.235855
9691.000000;0.234559
9690.000000;0.233488
9689.000000;0.232330
9688.000000;0.230995
9687.000000;0.229478
9686.000000;0.227710
9685.000000;0.225664
9684.000000;0.223496
9683.000000;0.221438
9682.000000;0.219579
9681.000000;0.217838
9680.000000;0.216137
9679.000000;0.214491
9678.000000;0.212920
9677.000000;0.211373
9676.000000;0.209798
9675.000000;0.208224
9674.000000;0.206715
9673.000000;0.205248
9672.000000;0.203710
9671.000000;0.202018
9670.000000;0.200204
9669.000000;0.198356
9668.000000;0.196520
9667.000000;0.194704
9666.000000;0.192948
9665.000000;0.191311
9664.000000;0.189749
9663.000000;0.188066
9662.000000;0.186093
9661.000000;0.183927
9660.000000;0.181895
9659.000000;0.180212
9658.000000;0.178731
9657.000000;0.177123
9656.000000;0.175264
9655.000000;0.173324
9654.000000;0.171469
9653.000000;0.169622
9652.000000;0.167639
9651.000000;0.165607
9650.000000;0.163805
9649.000000;0.162355
9648.000000;0.161052
9647.000000;0.159585
9646.000000;0.157858
9645.000000;0.155985
9644.000000;0.154056
9643.000000;0.152013
9642.000000;0.149770
9641.000000;0.147406
9640.000000;0.145188
9639.000000;0.143350
9638.000000;0.141840
9637.000000;0.140298
9636.000000;0.138396
9635.000000;0.136217
9634.000000;0.134202
9633.000000;0.132681
9632.000000;0.131528
9631.000000;0.130335
9630.000000;0.128820
9629.000000;0.126953
9628.000000;0.124778
9627.000000;0.122315
9626.000000;0.119679
9625.000000;0.117125
9624.000000;0.114842
9623.000000;0.112762
9622.000000;0.110652
9621.000000;0.108420
9620.000000;0.106282
9619.000000;0.104576
9618.000000;0.103374
9617.000000;0.102300
9616.000000;0.100791
9615.000000;0.098596
9614.000000;0.095995
9613.000000;0.093477
9612.000000;0.091285
9611.000000;0.089349
9610.000000;0.087551
9609.000000;0.085897
9608.000000;0.084420
9607.000000;0.083044
9606.000000;0.081591
9605.000000;0.079848
9604.000000;0.077624
9603.000000;0.074903
9602.000000;0.071972
9601.000000;0.069295
9600.000000;0.067142
9599.000000;0.065391
9598.000000;0.063727
9597.000000;0.061970
9596.000000;0.060161
9595.000000;0.058399
9594.000000;0.056686
9593.000000;0.054908
9592.000000;0.052933
9591.000000;0.050740
9590.000000;0.048470
9589.000000;0.046330
9588.000000;0.044422
9587.000000;0.042672
9586.000000;0.040893
9585.000000;0.038887
9584.000000;0.036548
9583.000000;0.034032
9582.000000;0.031762
9581.000000;0.030070
9580.000000;0.028773
9579.000000;0.027284
9578.000000;0.025229
9577.000000;0.022784
9576.000000;0.020322
9575.000000;0.017973
9574.000000;0.015718
9573.000000;0.013697
9572.000000;0.012096
9571.000000;0.010780
9570.000000;0.009332
9569.000000;0.007462
9568.000000;0.005217
9567.000000;0.002773
9566.000000;0.000255
9565.000000;-0.002226
9564.000000;-0.004566
9563.000000;-0.006776
9562.000000;-0.008949
9561.000000;-0.011089
9560.000000;-0.013094
9559.000000;-0.014936
9558.000000;-0.016678
9557.000000;-0.018323
9556.000000;-0.019844
9555.000000;-0.021388
9554.000000;-0.023214
9553.000000;-0.025326
9552.000000;-0.027390
9551.000000;-0.029190
9550.000000;-0.030945
9549.000000;-0.033006
9548.000000;-0.035382
9547.000000;-0.037790
9546.000000;-0.040042
9545.000000;-0.042130
9544.000000;-0.044037
9543.000000;-0.045723
9542.000000;-0.047313
9541.000000;-0.049030
9540.000000;-0.050889
9539.000000;-0.052673
9538.000000;-0.054311
9537.000000;-0.056085
9536.000000;-0.058340
9535.000000;-0.061069
9534.000000;-0.063919
9533.000000;-0.066496
9532.000000;-0.068568
9531.000000;-0.070061
9530.000000;-0.071073
9529.000000;-0.071913
9528.000000;-0.072993
9527.000000;-0.074540
9526.000000;-0.076425
9525.000000;-0.078333
9524.000000;-0.080086
9523.000000;-0.081784
9522.000000;-0.083614
9521.000000;-0.085582
9520.000000;-0.087486
9519.000000;-0.089154
9518.000000;-0.090622
9517.000000;-0.092018
9516.000000;-0.093343
9515.000000;-0.094481
9514.000000;-0.095444
9513.000000;-0.096495
9512.000000;-0.097936
9511.000000;-0.099807
9510.000000;-0.101880
9509.000000;-0.103910
9508.000000;-0.105823
9507.000000;-0.107637
9506.000000;-0.109314
9505.000000;-0.110777
9504.000000;-0.112060
9503.000000;-0.113329
9502.000000;-0.114718
9501.000000;-0.116198
9500.000000;-0.117693
9499.000000;-0.119288
9498.000000;-0.121160
9497.000000;-0.123259
9496.000000;-0.125185
9495.000000;-0.126551
9494.000000;-0.127423
9493.000000;-0.128242
9492.000000;-0.129274
9491.000000;-0.130328
9490.000000;-0.131115
9489.000000;-0.131731
9488.000000;-0.132581
9487.000000;-0.133888
9486.000000;-0.135451
9485.000000;-0.136905
9484.000000;-0.138062
9483.000000;-0.138952
9482.000000;-0.139680
9481.000000;-0.140366
9480.000000;-0.141126
9479.000000;-0.141968
9478.000000;-0.142753
9477.000000;-0.143347
9476.000000;-0.143844
9475.000000;-0.144510
9474.000000;-0.145483
9473.000000;-0.146560
9472.000000;-0.147363
9471.000000;-0.147724
9470.000000;-0.147874
9469.000000;-0.148244
9468.000000;-0.149079
9467.000000;-0.150272
9466.000000;-0.151535
9465.000000;-0.152641
9464.000000;-0.153464
9463.000000;-0.153887
9462.000000;-0.153829
9461.000000;-0.153396
9460.000000;-0.152886
9459.000000;-0.152606
9458.000000;-0.152731
9457.000000;-0.153315
9456.000000;-0.154274
9455.000000;-0.155273
9454.000000;-0.155804
9453.000000;-0.155596
9452.000000;-0.154949
9451.000000;-0.154509
9450.000000;-0.154652
9449.000000;-0.155174
9448.000000;-0.155573
9447.000000;-0.155528
9446.000000;-0.155090
9445.000000;-0.154528
9444.000000;-0.154092
9443.000000;-0.153867
9442.000000;-0.153751
9441.000000;-0.153535
9440.000000;-0.153046
9439.000000;-0.152271
9438.000000;-0.151433
9437.000000;-0.150899
9436.000000;-0.150894
9435.000000;-0.151249
9434.000000;-0.151490
9433.000000;-0.151276
9432.000000;-0.150703
9431.000000;-0.150115
9430.000000;-0.149692
9429.000000;-0.149350
9428.000000;-0.148985
9427.000000;-0.148629
9426.000000;-0.148323
9425.000000;-0.147974
9424.000000;-0.147428
9423.000000;-0.146603
9422.000000;-0.145547
9421.000000;-0.144407
9420.000000;-0.143380
9419.000000;-0.142596
9418.000000;-0.142027
9417.000000;-0.141573
9416.000000;-0.141199
9415.000000;-0.140898
9414.000000;-0.140514
9413.000000;-0.139780
9412.000000;-0.138624
9411.000000;-0.137317
9410.000000;-0.136195
9409.000000;-0.135289
9408.000000;-0.134349
9407.000000;-0.133184
9406.000000;-0.131871
9405.000000;-0.130650
9404.000000;-0.129690
9403.000000;-0.128959
9402.000000;-0.128259
9401.000000;-0.127361
9400.000000;-0.126137
9399.000000;-0.124601
9398.000000;-0.122885
9397.000000;-0.121224
9396.000000;-0.119898
9395.000000;-0.119083
9394.000000;-0.118666
9393.000000;-0.118300
9392.000000;-0.117657
9391.000000;-0.116624
9390.000000;-0.115278
9389.000000;-0.113777
9388.000000;-0.112301
9387.000000;-0.110964
9386.000000;-0.109705
9385.000000;-0.108371
9384.000000;-0.106966
9383.000000;-0.105696
9382.000000;-0.104653
9381.000000;-0.103605
9380.000000;-0.102252
9379.000000;-0.100624
9378.000000;-0.099028
9377.000000;-0.097612
9376.000000;-0.096193
9375.000000;-0.094575
9374.000000;-0.092848
9373.000000;-0.091269
9372.000000;-0.089956
9371.000000;-0.088815
9370.000000;-0.087722
9369.000000;-0.086659
9368.000000;-0.085676
9367.000000;-0.084795
9366.000000;-0.083937
9365.000000;-0.082932
9364.000000;-0.081602
9363.000000;-0.079908
9362.000000;-0.078011
9361.000000;-0.076154
9360.000000;-0.074481
9359.000000;-0.072964
9358.000000;-0.071515
9357.000000;-0.070094
9356.000000;-0.068682
9355.000000;-0.067194
9354.000000;-0.065477
9353.000000;-0.063466
9352.000000;-0.061331
9351.000000;-0.059417
9350.000000;-0.057990
9349.000000;-0.057025
9348.000000;-0.056236
9347.000000;-0.055305
9346.000000;-0.054088
9345.000000;-0.052659
9344.000000;-0.051213
9343.000000;-0.049926
9342.000000;-0.048825
9341.000000;-0.047762
9340.000000;-0.046523
9339.000000;-0.045000
9338.000000;-0.043292
9337.000000;-0.041646
9336.000000;-0.040294
9335.000000;-0.039280
9334.000000;-0.038421
9333.000000;-0.037435
9332.000000;-0.036140
9331.000000;-0.034546
9330.000000;-0.032773
9329.000000;-0.030933
9328.000000;-0.029118
9327.000000;-0.027443
9326.000000;-0.026005
9325.000000;-0.024779
9324.000000;-0.023610
9323.000000;-0.022353
9322.000000;-0.021015
9321.000000;-0.019708
9320.000000;-0.018495
9319.000000;-0.017298
9318.000000;-0.015997
9317.000000;-0.014586
9316.000000;-0.013188
9315.000000;-0.011884
9314.000000;-0.010578
9313.000000;-0.009104
9312.000000;-0.007475
9311.000000;-0.005934
9310.000000;-0.004677
9309.000000;-0.003594
9308.000000;-0.002368
9307.000000;-0.000811
9306.000000;0.000988
9305.000000;0.002806
9304.000000;0.004464
9303.000000;0.005828
9302.000000;0.006816
9301.000000;0.007529
9300.000000;0.008299
9299.000000;0.009450
9298.000000;0.010968
9297.000000;0.012511
9296.000000;0.013783
9295.000000;0.014842
9294.000000;0.015964
9293.000000;0.017277
9292.000000;0.018645
9291.000000;0.019884
9290.000000;0.021011
9289.000000;0.022210
9288.000000;0.023592
9287.000000;0.025063
9286.000000;0.026423
9285.000000;0.027587
9284.000000;0.028686
9283.000000;0.029945
9282.000000;0.031450
9281.000000;0.033072
9280.000000;0.034612
9279.000000;0.035989
9278.000000;0.037224
9277.000000;0.038283
9276.000000;0.039073
9275.000000;0.039621
9274.000000;0.040180
9273.000000;0.041007
9272.000000;0.042126
9271.000000;0.043404
9270.000000;0.044809
9269.000000;0.046436
9268.000000;0.048255
9267.000000;0.050013
9266.000000;0.051495
9265.000000;0.052741
9264.000000;0.053893
9263.000000;0.054931
9262.000000;0.055736
9261.000000;0.056367
9260.000000;0.057078
9259.000000;0.058035
9258.000000;0.059140
9257.000000;0.060213
9256.000000;0.061223
9255.000000;0.062255
9254.000000;0.063324
9253.000000;0.064361
9252.000000;0.065381
9251.000000;0.066540
9250.000000;0.067958
9249.000000;0.069550
9248.000000;0.071092
9247.000000;0.072443
9246.000000;0.073649
9245.000000;0.074801
9244.000000;0.075881
9243.000000;0.076825
9242.000000;0.077699
9241.000000;0.078697
9240.000000;0.079895
9239.000000;0.081101
9238.000000;0.082048
9237.000000;0.082728
9236.000000;0.083428
9235.000000;0.084412
9234.000000;0.085646
9233.000000;0.086875
9232.000000;0.087909
9231.000000;0.088771
9230.000000;0.089627
9229.000000;0.090622
9228.000000;0.091781
9227.000000;0.093014
9226.000000;0.094178
9225.000000;0.095170
9224.000000;0.095984
9223.000000;0.096706
9222.000000;0.097463
9221.000000;0.098352
9220.000000;0.099351
9219.000000;0.100320
9218.000000;0.101135
9217.000000;0.101876
9216.000000;0.102799
9215.000000;0.104061
9214.000000;0.105488
9213.000000;0.106716
9212.000000;0.107565
9211.000000;0.108194
9210.000000;0.108881
9209.000000;0.109759
9208.000000;0.110806
9207.000000;0.111978
9206.000000;0.113217
9205.000000;0.114379
9204.000000;0.115318
9203.000000;0.116062
9202.000000;0.116820
9201.000000;0.117736
9200.000000;0.118727
9199.000000;0.119600
9198.000000;0.120280
9197.000000;0.120858
9196.000000;0.121474
9195.000000;0.122214
9194.000000;0.123084
9193.000000;0.124018
9192.000000;0.124911
9191.000000;0.125702
9190.000000;0.126423
9189.000000;0.127150
9188.000000;0.127929
9187.000000;0.128792
9186.000000;0.129797
9185.000000;0.130969
9184.000000;0.132222
9183.000000;0.133395
9182.000000;0.134383
9181.000000;0.135165
9180.000000;0.135751
9179.000000;0.136196
9178.000000;0.136672
9177.000000;0.137426
9176.000000;0.138580
9175.000000;0.140000
9174.000000;0.141375
9173.000000;0.142406
9172.000000;0.142956
9171.000000;0.143140
9170.000000;0.143290
9169.000000;0.143749
9168.000000;0.144617
9167.000000;0.145710
9166.000000;0.146746
9165.000000;0.147532
9164.000000;0.148005
9163.000000;0.148223
9162.000000;0.148401
9161.000000;0.148846
9160.000000;0.149736
9159.000000;0.150954
9158.000000;0.152187
9157.000000;0.153184
9156.000000;0.153901
9155.000000;0.154484
9154.000000;0.155146
9153.000000;0.155997
9152.000000;0.156922
9151.000000;0.157667
9150.000000;0.158118
9149.000000;0.158445
9148.000000;0.158920
9147.000000;0.159647
9146.000000;0.160544
9145.000000;0.161523
9144.000000;0.162579
9143.000000;0.163697
9142.000000;0.164759
9141.000000;0.165564
9140.000000;0.165947
9139.000000;0.165922
9138.000000;0.165776
9137.000000;0.165943
9136.000000;0.166689
9135.000000;0.167889
9134.000000;0.169162
9133.000000;0.170198
9132.000000;0.170925
9131.000000;0.171412
9130.000000;0.171756
9129.000000;0.172074
9128.000000;0.172515
9127.000000;0.173196
9126.000000;0.174113
9125.000000;0.175113
9124.000000;0.175963
9123.000000;0.176523
9122.000000;0.176868
9121.000000;0.177224
9120.000000;0.177743
9119.000000;0.178385
9118.000000;0.179030
9117.000000;0.179608
9116.000000;0.180069
9115.000000;0.180329
9114.000000;0.180363
9113.000000;0.180323
9112.000000;0.180452
9111.000000;0.180927
9110.000000;0.181794
9109.000000;0.182984
9108.000000;0.184271
9107.000000;0.185337
9106.000000;0.186017
9105.000000;0.186461
9104.000000;0.186933
9103.000000;0.187493
9102.000000;0.188011
9101.000000;0.188442
9100.000000;0.188905
9099.000000;0.189500
9098.000000;0.190179
9097.000000;0.190821
9096.000000;0.191320
9095.000000;0.191595
9094.000000;0.191686
9093.000000;0.191846
9092.000000;0.192397
9091.000000;0.193420
9090.000000;0.194694
9089.000000;0.195919
9088.000000;0.196904
9087.000000;0.197534
9086.000000;0.197779
9085.000000;0.197793
9084.000000;0.197850
9083.000000;0.198106
9082.000000;0.198505
9081.000000;0.198964
9080.000000;0.199477
9079.000000;0.200018
9078.000000;0.200490
9077.000000;0.200879
9076.000000;0.201306
9075.000000;0.201834
9074.000000;0.202353
9073.000000;0.202772
9072.000000;0.203169
9071.000000;0.203621
9070.000000;0.204031
9069.000000;0.204298
9068.000000;0.204567
9067.000000;0.205107
9066.000000;0.205962
9065.000000;0.206891
9064.000000;0.207618
9063.000000;0.208022
9062.000000;0.208113
9061.000000;0.208029
9060.000000;0.208030
9059.000000;0.208351
9058.000000;0.208951
9057.000000;0.209532
9056.000000;0.209867
9055.000000;0.210054
9054.000000;0.210388
9053.000000;0.211026
9052.000000;0.211836
9051.000000;0.212564
9050.000000;0.213086
9049.000000;0.213471
9048.000000;0.213806
9047.000000;0.214039
9046.000000;0.214084
9045.000000;0.214040
9044.000000;0.214177
9043.000000;0.214626
9042.000000;0.215195
9041.000000;0.215604
9040.000000;0.215813
9039.000000;0.216014
9038.000000;0.216332
9037.000000;0.216700
9036.000000;0.217017
9035.000000;0.217331
9034.000000;0.217788
9033.000000;0.218463
9032.000000;0.219273
9031.000000;0.220004
9030.000000;0.220441
9029.000000;0.220537
9028.000000;0.220487
9027.000000;0.220592
9026.000000;0.220986
9025.000000;0.221538
9024.000000;0.222016
9023.000000;0.222305
9022.000000;0.222443
9021.000000;0.222490
9020.000000;0.222461
9019.000000;0.222401
9018.000000;0.222454
9017.000000;0.222764
9016.000000;0.223314
9015.000000;0.223932
9014.000000;0.224467
9013.000000;0.224907
9012.000000;0.225287
9011.000000;0.225561
9010.000000;0.225650
9009.000000;0.225603
9008.000000;0.225627
9007.000000;0.225944
9006.000000;0.226626
9005.000000;0.227503
9004.000000;0.228201
9003.000000;0.228387
9002.000000;0.228098
9001.000000;0.227781
9000.000000;0.227864
8999.000000;0.228318
8998.000000;0.228793
8997.000000;0.229117
8996.000000;0.229434
8995.000000;0.229828
8994.000000;0.230085
8993.000000;0.230003
8992.000000;0.229762
8991.000000;0.229768
8990.000000;0.230207
8989.000000;0.230898
8988.000000;0.231534
8987.000000;0.231915
8986.000000;0.231988
8985.000000;0.231838
8984.000000;0.231668
8983.000000;0.231687
8982.000000;0.231973
8981.000000;0.232461
8980.000000;0.233050
8979.000000;0.233623
8978.000000;0.234025
8977.000000;0.234151
8976.000000;0.234076
8975.000000;0.234039
8974.000000;0.234211
8973.000000;0.234530
8972.000000;0.234772
8971.000000;0.234801
8970.000000;0.234731
8969.000000;0.234835
8968.000000;0.235276
8967.000000;0.235934
8966.000000;0.236532
8965.000000;0.236899
8964.000000;0.237043
8963.000000;0.237006
8962.000000;0.236771
8961.000000;0.236402
8960.000000;0.236127
8959.000000;0.236185
8958.000000;0.236594
8957.000000;0.237129
8956.000000;0.237528
8955.000000;0.237692
8954.000000;0.237746
8953.000000;0.237916
8952.000000;0.238291
8951.000000;0.238691
8950.000000;0.238851
8949.000000;0.238767
8948.000000;0.238725
8947.000000;0.238910
8946.000000;0.239149
8945.000000;0.239164
8944.000000;0.238975
8943.000000;0.238852
8942.000000;0.238927
8941.000000;0.239028
8940.000000;0.238950
8939.000000;0.238744
8938.000000;0.238673
8937.000000;0.238943
8936.000000;0.239523
8935.000000;0.240196
8934.000000;0.240742
8933.000000;0.241075
8932.000000;0.241226
8931.000000;0.241226
8930.000000;0.241104
8929.000000;0.240971
8928.000000;0.240993
8927.000000;0.241196
8926.000000;0.241385
8925.000000;0.241353
8924.000000;0.241138
8923.000000;0.240978
8922.000000;0.241049
8921.000000;0.241317
8920.000000;0.241606
8919.000000;0.241747
8918.000000;0.241682
8917.000000;0.241519
8916.000000;0.241459
8915.000000;0.241612
8914.000000;0.241900
8913.000000;0.242170
8912.000000;0.242349
8911.000000;0.242445
8910.000000;0.242457
8909.000000;0.242375
8908.000000;0.242239
8907.000000;0.242134
8906.000000;0.242115
8905.000000;0.242197
8904.000000;0.242356
8903.000000;0.242531
8902.000000;0.242665
8901.000000;0.242803
8900.000000;0.243093
8899.000000;0.243590
8898.000000;0.244130
8897.000000;0.244462
8896.000000;0.244471
8895.000000;0.244237
8894.000000;0.243913
8893.000000;0.243610
8892.000000;0.243340
8891.000000;0.243017
8890.000000;0.242600
8889.000000;0.242261
8888.000000;0.242332
8887.000000;0.242944
8886.000000;0.243805
8885.000000;0.244418
8884.000000;0.244502
8883.000000;0.244157
8882.000000;0.243703
8881.000000;0.243475
8880.000000;0.243649
8879.000000;0.244116
8878.000000;0.244548
8877.000000;0.244677
8876.000000;0.244477
8875.000000;0.244067
8874.000000;0.243565
8873.000000;0.243135
8872.000000;0.242995
8871.000000;0.243205
8870.000000;0.243558
8869.000000;0.243843
8868.000000;0.244122
8867.000000;0.244503
8866.000000;0.244803
8865.000000;0.244706
8864.000000;0.244238
8863.000000;0.243789
8862.000000;0.243651
8861.000000;0.243778
8860.000000;0.244019
8859.000000;0.244302
8858.000000;0.244528
8857.000000;0.244547
8856.000000;0.244394
8855.000000;0.244335
8854.000000;0.244527
8853.000000;0.244786
8852.000000;0.244837
8851.000000;0.244648
8850.000000;0.244380
8849.000000;0.244142
8848.000000;0.243939
8847.000000;0.243748
8846.000000;0.243533
8845.000000;0.243235
8844.000000;0.242878
8843.000000;0.242612
8842.000000;0.242577
8841.000000;0.242750
8840.000000;0.243023
8839.000000;0.243321
8838.000000;0.243565
8837.000000;0.243607
8836.000000;0.243347
8835.000000;0.242875
8834.000000;0.242404
8833.000000;0.242084
8832.000000;0.241944
8831.000000;0.241953
8830.000000;0.242051
8829.000000;0.242143
8828.000000;0.242175
8827.000000;0.242174
8826.000000;0.242183
8825.000000;0.242185
8824.000000;0.242177
8823.000000;0.242231
8822.000000;0.242399
8821.000000;0.242591
8820.000000;0.242656
8819.000000;0.242569
8818.000000;0.242442
8817.000000;0.242354
8816.000000;0.242296
8815.000000;0.242290
8814.000000;0.242418
8813.000000;0.242654
8812.000000;0.242773
8811.000000;0.242558
8810.000000;0.242065
8809.000000;0.241587
8808.000000;0.241338
8807.000000;0.241275
8806.000000;0.241234
8805.000000;0.241134
8804.000000;0.240971
8803.000000;0.240710
8802.000000;0.240337
8801.000000;0.239994
8800.000000;0.239930
8799.000000;0.240213
8798.000000;0.240571
8797.000000;0.240620
8796.000000;0.240230
8795.000000;0.239628
8794.000000;0.239160
8793.000000;0.239002
8792.000000;0.239072
8791.000000;0.239151
8790.000000;0.239090
8789.000000;0.238912
8788.000000;0.238732
8787.000000;0.238607
8786.000000;0.238516
8785.000000;0.238442
8784.000000;0.238380
8783.000000;0.238234
8782.000000;0.237860
8781.000000;0.237297
8780.000000;0.236853
8779.000000;0.236824
8778.000000;0.237184
8777.000000;0.237651
8776.000000;0.237983
8775.000000;0.238095
8774.000000;0.237962
8773.000000;0.237597
8772.000000;0.237130
8771.000000;0.236743
8770.000000;0.236496
8769.000000;0.236293
8768.000000;0.236062
8767.000000;0.235846
8766.000000;0.235710
8765.000000;0.235656
8764.000000;0.235660
8763.000000;0.235691
8762.000000;0.235640
8761.000000;0.235354
8760.000000;0.234810
8759.000000;0.234195
8758.000000;0.233747
8757.000000;0.233568
8756.000000;0.233611
8755.000000;0.233790
8754.000000;0.234033
8753.000000;0.234254
8752.000000;0.234339
8751.000000;0.234213
8750.000000;0.233898
8749.000000;0.233523
8748.000000;0.233226
8747.000000;0.233035
8746.000000;0.232872
8745.000000;0.232673
8744.000000;0.232486
8743.000000;0.232412
8742.000000;0.232509
8741.000000;0.232761
8740.000000;0.233041
8739.000000;0.233079
8738.000000;0.232609
8737.000000;0.231701
8736.000000;0.230857
8735.000000;0.230574
8734.000000;0.230825
8733.000000;0.231100
8732.000000;0.230973
8731.000000;0.230494
8730.000000;0.229997
8729.000000;0.229694
8728.000000;0.229548
8727.000000;0.229427
8726.000000;0.229280
8725.000000;0.229173
8724.000000;0.229177
8723.000000;0.229235
8722.000000;0.229142
8721.000000;0.228753
8720.000000;0.228160
8719.000000;0.227607
8718.000000;0.227252
8717.000000;0.227111
8716.000000;0.227170
8715.000000;0.227389
8714.000000;0.227629
8713.000000;0.227734
8712.000000;0.227730
8711.000000;0.227761
8710.000000;0.227799
8709.000000;0.227591
8708.000000;0.226995
8707.000000;0.226224
8706.000000;0.225631
8705.000000;0.225350
8704.000000;0.225220
8703.000000;0.225010
8702.000000;0.224617
8701.000000;0.224143
8700.000000;0.223839
8699.000000;0.223891
8698.000000;0.224183
8697.000000;0.224328
8696.000000;0.224025
8695.000000;0.223353
8694.000000;0.222659
8693.000000;0.222240
8692.000000;0.222187
8691.000000;0.222413
8690.000000;0.222696
8689.000000;0.222767
8688.000000;0.222478
8687.000000;0.221916
8686.000000;0.221278
8685.000000;0.220676
8684.000000;0.220129
8683.000000;0.219668
8682.000000;0.219324
8681.000000;0.219029
8680.000000;0.218674
8679.000000;0.218302
8678.000000;0.218138
8677.000000;0.218338
8676.000000;0.218764
8675.000000;0.219059
8674.000000;0.218967
8673.000000;0.218524
8672.000000;0.217965
8671.000000;0.217476
8670.000000;0.217076
8669.000000;0.216710
8668.000000;0.216377
8667.000000;0.216128
8666.000000;0.215973
8665.000000;0.215865
8664.000000;0.215786
8663.000000;0.215786
8662.000000;0.215898
8661.000000;0.216036
8660.000000;0.215998
8659.000000;0.215627
8658.000000;0.214972
8657.000000;0.214303
8656.000000;0.213924
8655.000000;0.213921
8654.000000;0.214077
8653.000000;0.214044
8652.000000;0.213605
8651.000000;0.212812
8650.000000;0.211932
8649.000000;0.211274
8648.000000;0.210979
8647.000000;0.210905
8646.000000;0.210762
8645.000000;0.210406
8644.000000;0.209946
8643.000000;0.209554
8642.000000;0.209267
8641.000000;0.209087
8640.000000;0.209126
8639.000000;0.209450
8638.000000;0.209827
8637.000000;0.209854
8636.000000;0.209399
8635.000000;0.208743
8634.000000;0.208223
8633.000000;0.207888
8632.000000;0.207597
8631.000000;0.207313
8630.000000;0.207124
8629.000000;0.207045
8628.000000;0.206930
8627.000000;0.206640
8626.000000;0.206226
8625.000000;0.205891
8624.000000;0.205764
8623.000000;0.205735
8622.000000;0.205564
8621.000000;0.205183
8620.000000;0.204796
8619.000000;0.204615
8618.000000;0.204550
8617.000000;0.204322
8616.000000;0.203823
8615.000000;0.203227
8614.000000;0.202726
8613.000000;0.202331
8612.000000;0.201981
8611.000000;0.201698
8610.000000;0.201523
8609.000000;0.201409
8608.000000;0.201277
8607.000000;0.201111
8606.000000;0.200909
8605.000000;0.200636
8604.000000;0.200293
8603.000000;0.199962
8602.000000;0.199687
8601.000000;0.199368
8600.000000;0.198891
8599.000000;0.198313
8598.000000;0.197815
8597.000000;0.197490
8596.000000;0.197278
8595.000000;0.197100
8594.000000;0.196937
8593.000000;0.196756
8592.000000;0.196469
8591.000000;0.196051
8590.000000;0.195652
8589.000000;0.195489
8588.000000;0.195587
8587.000000;0.195704
8586.000000;0.195583
8585.000000;0.195248
8584.000000;0.194951
8583.000000;0.194815
8582.000000;0.194657
8581.000000;0.194251
8580.000000;0.193657
8579.000000;0.193145
8578.000000;0.192832
8577.000000;0.192589
8576.000000;0.192277
8575.000000;0.191918
8574.000000;0.191562
8573.000000;0.191161
8572.000000;0.190669
8571.000000;0.190164
8570.000000;0.189782
8569.000000;0.189566
8568.000000;0.189472
8567.000000;0.189438
8566.000000;0.189379
8565.000000;0.189194
8564.000000;0.188868
8563.000000;0.188497
8562.000000;0.188143
8561.000000;0.187722
8560.000000;0.187140
8559.000000;0.186514
8558.000000;0.186103
8557.000000;0.186016
8556.000000;0.186057
8555.000000;0.185929
8554.000000;0.185543
8553.000000;0.185075
8552.000000;0.184744
8551.000000;0.184585
8550.000000;0.184453
8549.000000;0.184238
8548.000000;0.183968
8547.000000;0.183696
8546.000000;0.183364
8545.000000;0.182885
8544.000000;0.182347
8543.000000;0.181970
8542.000000;0.181836
8541.000000;0.181761
8540.000000;0.181501
8539.000000;0.181021
8538.000000;0.180491
8537.000000;0.180073
8536.000000;0.179785
8535.000000;0.179528
8534.000000;0.179199
8533.000000;0.178765
8532.000000;0.178292
8531.000000;0.177883
8530.000000;0.177596
8529.000000;0.177425
8528.000000;0.177347
8527.000000;0.177322
8526.000000;0.177250
8525.000000;0.177021
8524.000000;0.176652
8523.000000;0.176291
8522.000000;0.176041
8521.000000;0.175836
8520.000000;0.175548
8519.000000;0.175154
8518.000000;0.174738
8517.000000;0.174368
8516.000000;0.174048
8515.000000;0.173750
8514.000000;0.173453
8513.000000;0.173157
8512.000000;0.172922
8511.000000;0.172849
8510.000000;0.172954
8509.000000;0.173088
8508.000000;0.173035
8507.000000;0.172685
8506.000000;0.172102
8505.000000;0.171429
8504.000000;0.170789
8503.000000;0.170248
8502.000000;0.169827
8501.000000;0.169520
8500.000000;0.169292
8499.000000;0.169073
8498.000000;0.168787
8497.000000;0.168432
8496.000000;0.168104
8495.000000;0.167899
8494.000000;0.167777
8493.000000;0.167588
8492.000000;0.167239
8491.000000;0.166767
8490.000000;0.166238
8489.000000;0.165661
8488.000000;0.165063
8487.000000;0.164577
8486.000000;0.164342
8485.000000;0.164333
8484.000000;0.164342
8483.000000;0.164183
8482.000000;0.163866
8481.000000;0.163580
8480.000000;0.163497
8479.000000;0.163598
8478.000000;0.163676
8477.000000;0.163516
8476.000000;0.163056
8475.000000;0.162396
8474.000000;0.161685
8473.000000;0.161054
8472.000000;0.160611
8471.000000;0.160391
8470.000000;0.160269
8469.000000;0.160011
8468.000000;0.159487
8467.000000;0.158839
8466.000000;0.158383
8465.000000;0.158325
8464.000000;0.158570
8463.000000;0.158780
8462.000000;0.158633
8461.000000;0.158060
8460.000000;0.157272
8459.000000;0.156578
8458.000000;0.156176
8457.000000;0.156076
8456.000000;0.156138
8455.000000;0.156133
8454.000000;0.155866
8453.000000;0.155333
8452.000000;0.154741
8451.000000;0.154300
8450.000000;0.154005
8449.000000;0.153701
8448.000000;0.153331
8447.000000;0.152997
8446.000000;0.152795
8445.000000;0.152695
8444.000000;0.152592
8443.000000;0.152386
8442.000000;0.152009
8441.000000;0.151482
8440.000000;0.150976
8439.000000;0.150703
8438.000000;0.150689
8437.000000;0.150736
8436.000000;0.150648
8435.000000;0.150410
8434.000000;0.150103
8433.000000;0.149764
8432.000000;0.149388
8431.000000;0.149004
8430.000000;0.148628
8429.000000;0.148212
8428.000000;0.147712
8427.000000;0.147191
8426.000000;0.146775
8425.000000;0.146556
8424.000000;0.146525
8423.000000;0.146566
8422.000000;0.146493
8421.000000;0.146172
8420.000000;0.145664
8419.000000;0.145177
8418.000000;0.144849
8417.000000;0.144632
8416.000000;0.144421
8415.000000;0.144182
8414.000000;0.143905
8413.000000;0.143529
8412.000000;0.143047
8411.000000;0.142612
8410.000000;0.142409
8409.000000;0.142433
8408.000000;0.142474
8407.000000;0.142322
8406.000000;0.141929
8405.000000;0.141409
8404.000000;0.140948
8403.000000;0.140690
8402.000000;0.140635
8401.000000;0.140629
8400.000000;0.140489
8399.000000;0.140154
8398.000000;0.139699
8397.000000;0.139268
8396.000000;0.138976
8395.000000;0.138846
8394.000000;0.138778
8393.000000;0.138639
8392.000000;0.138421
8391.000000;0.138247
8390.000000;0.138183
8389.000000;0.138132
8388.000000;0.137962
8387.000000;0.137668
8386.000000;0.137312
8385.000000;0.136875
8384.000000;0.136288
8383.000000;0.135598
8382.000000;0.134983
8381.000000;0.134589
8380.000000;0.134417
8379.000000;0.134367
8378.000000;0.134340
8377.000000;0.134289
8376.000000;0.134215
8375.000000;0.134120
8374.000000;0.133961
8373.000000;0.133677
8372.000000;0.133287
8371.000000;0.132907
8370.000000;0.132611
8369.000000;0.132330
8368.000000;0.131944
8367.000000;0.131457
8366.000000;0.130994
8365.000000;0.130667
8364.000000;0.130500
8363.000000;0.130452
8362.000000;0.130428
8361.000000;0.130290
8360.000000;0.129958
8359.000000;0.129514
8358.000000;0.129139
8357.000000;0.128943
8356.000000;0.128897
8355.000000;0.128924
8354.000000;0.128957
8353.000000;0.128906
8352.000000;0.128651
8351.000000;0.128127
8350.000000;0.127408
8349.000000;0.126676
8348.000000;0.126103
8347.000000;0.125758
8346.000000;0.125596
8345.000000;0.125529
8344.000000;0.125507
8343.000000;0.125528
8342.000000;0.125558
8341.000000;0.125497
8340.000000;0.125275
8339.000000;0.124945
8338.000000;0.124634
8337.000000;0.124412
8336.000000;0.124246
8335.000000;0.124051
8334.000000;0.123750
8333.000000;0.123327
8332.000000;0.122876
8331.000000;0.122591
8330.000000;0.122599
8329.000000;0.122799
8328.000000;0.122941
8327.000000;0.122862
8326.000000;0.122598
8325.000000;0.122259
8324.000000;0.121888
8323.000000;0.121487
8322.000000;0.121100
8321.000000;0.120799
8320.000000;0.120607
8319.000000;0.120475
8318.000000;0.120329
8317.000000;0.120095
8316.000000;0.119727
8315.000000;0.119247
8314.000000;0.118757
8313.000000;0.118370
8312.000000;0.118114
8311.000000;0.117929
8310.000000;0.117765
8309.000000;0.117657
8308.000000;0.117661
8307.000000;0.117731
8306.000000;0.117718
8305.000000;0.117522
8304.000000;0.117218
8303.000000;0.116972
8302.000000;0.116846
8301.000000;0.116757
8300.000000;0.116619
8299.000000;0.116446
8298.000000;0.116277
8297.000000;0.116059
8296.000000;0.115708
8295.000000;0.115239
8294.000000;0.114777
8293.000000;0.114452
8292.000000;0.114325
8291.000000;0.114408
8290.000000;0.114638
8289.000000;0.114837
8288.000000;0.114784
8287.000000;0.114407
8286.000000;0.113866
8285.000000;0.113388
8284.000000;0.113036
8283.000000;0.112679
8282.000000;0.112209
8281.000000;0.111693
8280.000000;0.111290
8279.000000;0.111060
8278.000000;0.110921
8277.000000;0.110792
8276.000000;0.110693
8275.000000;0.110680
8274.000000;0.110729
8273.000000;0.110767
8272.000000;0.110769
8271.000000;0.110760
8270.000000;0.110716
8269.000000;0.110553
8268.000000;0.110235
8267.000000;0.109839
8266.000000;0.109474
8265.000000;0.109194
8264.000000;0.109004
8263.000000;0.108904
8262.000000;0.108863
8261.000000;0.108802
8260.000000;0.108656
8259.000000;0.108441
8258.000000;0.108220
8257.000000;0.108037
8256.000000;0.107914
8255.000000;0.107866
8254.000000;0.107867
8253.000000;0.107819
8252.000000;0.107631
8251.000000;0.107319
8250.000000;0.107003
8249.000000;0.106785
8248.000000;0.106693
8247.000000;0.106688
8246.000000;0.106693
8245.000000;0.106604
8244.000000;0.106342
8243.000000;0.105933
8242.000000;0.105503
8241.000000;0.105173
8240.000000;0.104981
8239.000000;0.104893
8238.000000;0.104835
8237.000000;0.104698
8236.000000;0.104400
8235.000000;0.103980
8234.000000;0.103619
8233.000000;0.103494
8232.000000;0.103592
8231.000000;0.103710
8230.000000;0.103643
8229.000000;0.103376
8228.000000;0.103077
8227.000000;0.102929
8226.000000;0.102977
8225.000000;0.103096
8224.000000;0.103098
8223.000000;0.102890
8222.000000;0.102556
8221.000000;0.102275
8220.000000;0.102111
8219.000000;0.101948
8218.000000;0.101659
8217.000000;0.101338
8216.000000;0.101239
8215.000000;0.101450
8214.000000;0.101712
8213.000000;0.101670
8212.000000;0.101268
8211.000000;0.100802
8210.000000;0.100590
8209.000000;0.100674
8208.000000;0.100842
8207.000000;0.100849
8206.000000;0.100604
8205.000000;0.100206
8204.000000;0.099862
8203.000000;0.099722
8202.000000;0.099753
8201.000000;0.099788
8200.000000;0.099693
8199.000000;0.099469
8198.000000;0.099195
8197.000000;0.098943
8196.000000;0.098762
8195.000000;0.098674
8194.000000;0.098624
8193.000000;0.098495
8192.000000;0.098230
8191.000000;0.097916
8190.000000;0.097718
8189.000000;0.097730
8188.000000;0.097907
8187.000000;0.098098
8186.000000;0.098124
8185.000000;0.097888
8184.000000;0.097466
8183.000000;0.097077
8182.000000;0.096898
8181.000000;0.096919
8180.000000;0.096990
8179.000000;0.097003
8178.000000;0.096975
8177.000000;0.096967
8176.000000;0.096968
8175.000000;0.096881
8174.000000;0.096640
8173.000000;0.096305
8172.000000;0.096033
8171.000000;0.095920
8170.000000;0.095912
8169.000000;0.095887
8168.000000;0.095800
8167.000000;0.095682
8166.000000;0.095524
8165.000000;0.095274
8164.000000;0.094969
8163.000000;0.094771
8162.000000;0.094798
8161.000000;0.094972
8160.000000;0.095092
8159.000000;0.095020
8158.000000;0.094759
8157.000000;0.094399
8156.000000;0.094060
8155.000000;0.093839
8154.000000;0.093724
8153.000000;0.093604
8152.000000;0.093404
8151.000000;0.093180
8150.000000;0.093026
8149.000000;0.092951
8148.000000;0.092903
8147.000000;0.092887
8146.000000;0.092952
8145.000000;0.093085
8144.000000;0.093213
8143.000000;0.093304
8142.000000;0.093374
8141.000000;0.093381
8140.000000;0.093232
8139.000000;0.092920
8138.000000;0.092572
8137.000000;0.092319
8136.000000;0.092177
8135.000000;0.092085
8134.000000;0.092013
8133.000000;0.091973
8132.000000;0.091971
8131.000000;0.092005
8130.000000;0.092056
8129.000000;0.092076
8128.000000;0.092013
8127.000000;0.091874
8126.000000;0.091722
8125.000000;0.091575
8124.000000;0.091378
8123.000000;0.091115
8122.000000;0.090911
8121.000000;0.090931
8120.000000;0.091187
8119.000000;0.091514
8118.000000;0.091716
8117.000000;0.091705
8116.000000;0.091502
8115.000000;0.091196
8114.000000;0.090917
8113.000000;0.090769
8112.000000;0.090731
8111.000000;0.090662
8110.000000;0.090464
8109.000000;0.090191
8108.000000;0.089988
8107.000000;0.089923
8106.000000;0.089944
8105.000000;0.089968
8104.000000;0.089940
8103.000000;0.089820
8102.000000;0.089581
8101.000000;0.089286
8100.000000;0.089088
8099.000000;0.089102
8098.000000;0.089279
8097.000000;0.089455
8096.000000;0.089510
8095.000000;0.089436
8094.000000;0.089286
8093.000000;0.089120
8092.000000;0.089004
8091.000000;0.088993
8090.000000;0.089066
8089.000000;0.089126
8088.000000;0.089098
8087.000000;0.089007
8086.000000;0.088934
8085.000000;0.088920
8084.000000;0.088948
8083.000000;0.088987
8082.000000;0.089016
8081.000000;0.089003
8080.000000;0.088915
8079.000000;0.088758
8078.000000;0.088574
8077.000000;0.088391
8076.000000;0.088206
8075.000000;0.088028
8074.000000;0.087917
8073.000000;0.087935
8072.000000;0.088079
8071.000000;0.088270
8070.000000;0.088413
8069.000000;0.088450
8068.000000;0.088374
8067.000000;0.088206
8066.000000;0.088008
8065.000000;0.087866
8064.000000;0.087838
8063.000000;0.087898
8062.000000;0.087972
8061.000000;0.088010
8060.000000;0.087996
8059.000000;0.087895
8058.000000;0.087639
8057.000000;0.087229
8056.000000;0.086806
8055.000000;0.086566
8054.000000;0.086600
8053.000000;0.086841
8052.000000;0.087148
8051.000000;0.087404
8050.000000;0.087544
8049.000000;0.087547
8048.000000;0.087431
8047.000000;0.087240
8046.000000;0.087000
8045.000000;0.086734
8044.000000;0.086497
8043.000000;0.086361
8042.000000;0.086351
8041.000000;0.086422
8040.000000;0.086505
8039.000000;0.086568
8038.000000;0.086614
8037.000000;0.086643
8036.000000;0.086632
8035.000000;0.086542
8034.000000;0.086355
8033.000000;0.086126
8032.000000;0.085972
8031.000000;0.085976
8030.000000;0.086088
8029.000000;0.086158
8028.000000;0.086096
8027.000000;0.085956
8026.000000;0.085862
8025.000000;0.085860
8024.000000;0.085889
8023.000000;0.085853
8022.000000;0.085717
8021.000000;0.085545
8020.000000;0.085459
8019.000000;0.085536
8018.000000;0.085722
8017.000000;0.085883
8016.000000;0.085939
8015.000000;0.085935
8014.000000;0.085955
8013.000000;0.086006
8012.000000;0.086018
8011.000000;0.085935
8010.000000;0.085760
8009.000000;0.085531
8008.000000;0.085301
8007.000000;0.085130
8006.000000;0.085054
8005.000000;0.085046
8004.000000;0.085040
8003.000000;0.084996
8002.000000;0.084935
8001.000000;0.084891
8000.000000;0.084863
7999.000000;0.084841
7998.000000;0.084855
7997.000000;0.084955
7996.000000;0.085123
7995.000000;0.085250
7994.000000;0.085217
7993.000000;0.085022
7992.000000;0.084780
7991.000000;0.084617
7990.000000;0.084574
7989.000000;0.084614
7988.000000;0.084678
7987.000000;0.084719
7986.000000;0.084697
7985.000000;0.084590
7984.000000;0.084414
7983.000000;0.084213
7982.000000;0.084044
7981.000000;0.083962
7980.000000;0.083991
7979.000000;0.084099
7978.000000;0.084216
7977.000000;0.084311
7976.000000;0.084412
7975.000000;0.084522
7974.000000;0.084556
7973.000000;0.084424
7972.000000;0.084167
7971.000000;0.083953
7970.000000;0.083925
7969.000000;0.084060
7968.000000;0.084202
7967.000000;0.084178
7966.000000;0.083921
7965.000000;0.083509
7964.000000;0.083114
7963.000000;0.082903
7962.000000;0.082957
7961.000000;0.083247
7960.000000;0.083644
7959.000000;0.083937
7958.000000;0.083948
7957.000000;0.083686
7956.000000;0.083350
7955.000000;0.083118
7954.000000;0.082979
7953.000000;0.082826
7952.000000;0.082676
7951.000000;0.082667
7950.000000;0.082854
7949.000000;0.083132
7948.000000;0.083377
7947.000000;0.083557
7946.000000;0.083681
7945.000000;0.083734
7944.000000;0.083722
7943.000000;0.083695
7942.000000;0.083675
7941.000000;0.083620
7940.000000;0.083514
7939.000000;0.083412
7938.000000;0.083360
7937.000000;0.083319
7936.000000;0.083226
7935.000000;0.083097
7934.000000;0.082995
7933.000000;0.082938
7932.000000;0.082906
7931.000000;0.082890
7930.000000;0.082894
7929.000000;0.082897
7928.000000;0.082859
7927.000000;0.082771
7926.000000;0.082659
7925.000000;0.082559
7924.000000;0.082498
7923.000000;0.082490
7922.000000;0.082529
7921.000000;0.082596
7920.000000;0.082679
7919.000000;0.082752
7918.000000;0.082752
7917.000000;0.082644
7916.000000;0.082495
7915.000000;0.082424
7914.000000;0.082443
7913.000000;0.082431
7912.000000;0.082306
7911.000000;0.082135
7910.000000;0.082026
7909.000000;0.081992
7908.000000;0.081991
7907.000000;0.082027
7906.000000;0.082117
7905.000000;0.082188
7904.000000;0.082149
7903.000000;0.082025
7902.000000;0.081944
7901.000000;0.081976
7900.000000;0.082073
7899.000000;0.082151
7898.000000;0.082170
7897.000000;0.082124
7896.000000;0.082041
7895.000000;0.081998
7894.000000;0.082069
7893.000000;0.082224
7892.000000;0.082332
7891.000000;0.082287
7890.000000;0.082111
7889.000000;0.081904
7888.000000;0.081750
7887.000000;0.081673
7886.000000;0.081661
7885.000000;0.081685
7884.000000;0.081720
7883.000000;0.081752
7882.000000;0.081769
7881.000000;0.081753
7880.000000;0.081712
7879.000000;0.081699
7878.000000;0.081749
7877.000000;0.081806
7876.000000;0.081764
7875.000000;0.081604
7874.000000;0.081426
7873.000000;0.081326
7872.000000;0.081281
7871.000000;0.081197
7870.000000;0.081045
7869.000000;0.080894
7868.000000;0.080819
7867.000000;0.080835
7866.000000;0.080910
7865.000000;0.081020
7864.000000;0.081151
7863.000000;0.081272
7862.000000;0.081344
7861.000000;0.081350
7860.000000;0.081311
7859.000000;0.081265
7858.000000;0.081224
7857.000000;0.081188
7856.000000;0.081171
7855.000000;0.081188
7854.000000;0.081228
7853.000000;0.081242
7852.000000;0.081194
7851.000000;0.081097
7850.000000;0.080996
7849.000000;0.080931
7848.000000;0.080910
7847.000000;0.080908
7846.000000;0.080887
7845.000000;0.080830
7844.000000;0.080765
7843.000000;0.080731
7842.000000;0.080741
7841.000000;0.080801
7840.000000;0.080921
7839.000000;0.081086
7838.000000;0.081206
7837.000000;0.081178
7836.000000;0.081014
7835.000000;0.080861
7834.000000;0.080842
7833.000000;0.080910
7832.000000;0.080910
7831.000000;0.080747
7830.000000;0.080485
7829.000000;0.080284
7828.000000;0.080268
7827.000000;0.080437
7826.000000;0.080659
7825.000000;0.080781
7824.000000;0.080757
7823.000000;0.080643
7822.000000;0.080490
7821.000000;0.080290
7820.000000;0.080062
7819.000000;0.079911
7818.000000;0.079924
7817.000000;0.080037
7816.000000;0.080085
7815.000000;0.079978
7814.000000;0.079793
7813.000000;0.079699
7812.000000;0.079812
7811.000000;0.080116
7810.000000;0.080459
7809.000000;0.080648
7808.000000;0.080588
7807.000000;0.080345
7806.000000;0.080055
7805.000000;0.079807
7804.000000;0.079623
7803.000000;0.079518
7802.000000;0.079504
7801.000000;0.079544
7800.000000;0.079560
7799.000000;0.079513
7798.000000;0.079424
7797.000000;0.079320
7796.000000;0.079195
7795.000000;0.079055
7794.000000;0.078970
7793.000000;0.079022
7792.000000;0.079215
7791.000000;0.079448
7790.000000;0.079589
7789.000000;0.079595
7788.000000;0.079527
7787.000000;0.079469
7786.000000;0.079440
7785.000000;0.079408
7784.000000;0.079357
7783.000000;0.079294
7782.000000;0.079216
7781.000000;0.079125
7780.000000;0.079076
7779.000000;0.079139
7778.000000;0.079286
7777.000000;0.079384
7776.000000;0.079348
7775.000000;0.079246
7774.000000;0.079195
7773.000000;0.079226
7772.000000;0.079275
7771.000000;0.079281
7770.000000;0.079226
7769.000000;0.079130
7768.000000;0.079065
7767.000000;0.079134
7766.000000;0.079350
7765.000000;0.079581
7764.000000;0.079677
7763.000000;0.079629
7762.000000;0.079538
7761.000000;0.079460
7760.000000;0.079378
7759.000000;0.079287
7758.000000;0.079211
7757.000000;0.079148
7756.000000;0.079083
7755.000000;0.079059
7754.000000;0.079118
7753.000000;0.079197
7752.000000;0.079166
7751.000000;0.078999
7750.000000;0.078812
7749.000000;0.078706
7748.000000;0.078672
7747.000000;0.078673
7746.000000;0.078728
7745.000000;0.078834
7744.000000;0.078899
7743.000000;0.078840
7742.000000;0.078700
7741.000000;0.078601
7740.000000;0.078605
7739.000000;0.078673
7738.000000;0.078722
7737.000000;0.078689
7736.000000;0.078572
7735.000000;0.078450
7734.000000;0.078430
7733.000000;0.078537
7732.000000;0.078686
7731.000000;0.078798
7730.000000;0.078881
7729.000000;0.078966
7728.000000;0.079006
7727.000000;0.078925
7726.000000;0.078740
7725.000000;0.078543
7724.000000;0.078403
7723.000000;0.078319
7722.000000;0.078277
7721.000000;0.078273
7720.000000;0.078291
7719.000000;0.078302
7718.000000;0.078314
7717.000000;0.078353
7716.000000;0.078399
7715.000000;0.078391
7714.000000;0.078306
7713.000000;0.078197
7712.000000;0.078135
7711.000000;0.078144
7710.000000;0.078200
7709.000000;0.078257
7708.000000;0.078269
7707.000000;0.078209
7706.000000;0.078094
7705.000000;0.077979
7704.000000;0.077892
7703.000000;0.077824
7702.000000;0.077765
7701.000000;0.077735
7700.000000;0.077739
7699.000000;0.077742
7698.000000;0.077723
7697.000000;0.077712
7696.000000;0.077749
7695.000000;0.077794
7694.000000;0.077762
7693.000000;0.077638
7692.000000;0.077514
7691.000000;0.077493
7690.000000;0.077581
7689.000000;0.077694
7688.000000;0.077759
7687.000000;0.077758
7686.000000;0.077709
7685.000000;0.077635
7684.000000;0.077561
7683.000000;0.077502
7682.000000;0.077453
7681.000000;0.077399
7680.000000;0.077354
7679.000000;0.077348
7678.000000;0.077395
7677.000000;0.077472
7676.000000;0.077544
7675.000000;0.077588
7674.000000;0.077589
7673.000000;0.077540
7672.000000;0.077459
7671.000000;0.077387
7670.000000;0.077340
7669.000000;0.077298
7668.000000;0.077246
7667.000000;0.077223
7666.000000;0.077280
7665.000000;0.077418
7664.000000;0.077571
7663.000000;0.077653
7662.000000;0.077610
7661.000000;0.077448
7660.000000;0.077240
7659.000000;0.077104
7658.000000;0.077120
7657.000000;0.077251
7656.000000;0.077373
7655.000000;0.077378
7654.000000;0.077256
7653.000000;0.077074
7652.000000;0.076907
7651.000000;0.076789
7650.000000;0.076701
7649.000000;0.076601
7648.000000;0.076487
7647.000000;0.076421
7646.000000;0.076490
7645.000000;0.076707
7644.000000;0.076965
7643.000000;0.077107
7642.000000;0.077059
7641.000000;0.076895
7640.000000;0.076758
7639.000000;0.076721
7638.000000;0.076720
7637.000000;0.076650
7636.000000;0.076496
7635.000000;0.076350
7634.000000;0.076306
7633.000000;0.076362
7632.000000;0.076458
7631.000000;0.076549
7630.000000;0.076624
7629.000000;0.076664
7628.000000;0.076637
7627.000000;0.076538
7626.000000;0.076397
7625.000000;0.076256
7624.000000;0.076144
7623.000000;0.076084
7622.000000;0.076087
7621.000000;0.076148
7620.000000;0.076250
7619.000000;0.076365
7618.000000;0.076440
7617.000000;0.076421
7616.000000;0.076307
7615.000000;0.076174
7614.000000;0.076095
7613.000000;0.076060
7612.000000;0.076009
7611.000000;0.075922
7610.000000;0.075851
7609.000000;0.075858
7608.000000;0.075955
7607.000000;0.076113
7606.000000;0.076284
7605.000000;0.076416
7604.000000;0.076464
7603.000000;0.076413
7602.000000;0.076279
7601.000000;0.076103
7600.000000;0.075945
7599.000000;0.075863
7598.000000;0.075862
7597.000000;0.075867
7596.000000;0.075809
7595.000000;0.075706
7594.000000;0.075633
7593.000000;0.075623
7592.000000;0.075646
7591.000000;0.075670
7590.000000;0.075692
7589.000000;0.075689
7588.000000;0.075629
7587.000000;0.075539
7586.000000;0.075497
7585.000000;0.075522
7584.000000;0.075528
7583.000000;0.075433
7582.000000;0.075273
7581.000000;0.075162
7580.000000;0.075157
7579.000000;0.075216
7578.000000;0.075276
7577.000000;0.075317
7576.000000;0.075339
7575.000000;0.075329
7574.000000;0.075282
7573.000000;0.075221
7572.000000;0.075186
7571.000000;0.075190
7570.000000;0.075209
7569.000000;0.075210
7568.000000;0.075185
7567.000000;0.075151
7566.000000;0.075119
7565.000000;0.075075
7564.000000;0.075020
7563.000000;0.074984
7562.000000;0.074992
7561.000000;0.075008
7560.000000;0.074971
7559.000000;0.074868
7558.000000;0.074759
7557.000000;0.074707
7556.000000;0.074734
7555.000000;0.074817
7554.000000;0.074917
7553.000000;0.074982
7552.000000;0.074963
7551.000000;0.074868
7550.000000;0.074759
7549.000000;0.074693
7548.000000;0.074662
7547.000000;0.074622
7546.000000;0.074561
7545.000000;0.074517
7544.000000;0.074527
7543.000000;0.074584
7542.000000;0.074635
7541.000000;0.074627
7540.000000;0.074554
7539.000000;0.074457
7538.000000;0.074377
7537.000000;0.074325
7536.000000;0.074302
7535.000000;0.074327
7534.000000;0.074417
7533.000000;0.074533
7532.000000;0.074593
7531.000000;0.074547
7530.000000;0.074421
7529.000000;0.074284
7528.000000;0.074195
7527.000000;0.074179
7526.000000;0.074230
7525.000000;0.074306
7524.000000;0.074355
7523.000000;0.074353
7522.000000;0.074315
7521.000000;0.074255
7520.000000;0.074152
7519.000000;0.073991
7518.000000;0.073819
7517.000000;0.073733
7516.000000;0.073797
7515.000000;0.073980
7514.000000;0.074170
7513.000000;0.074260
7512.000000;0.074222
7511.000000;0.074104
7510.000000;0.073978
7509.000000;0.073887
7508.000000;0.073849
7507.000000;0.073855
7506.000000;0.073869
7505.000000;0.073840
7504.000000;0.073757
7503.000000;0.073664
7502.000000;0.073611
7501.000000;0.073594
7500.000000;0.073583
7499.000000;0.073572
7498.000000;0.073574
7497.000000;0.073532
7496.000000;0.073516
7495.000000;0.073489
7494.000000;0.073474
7493.000000;0.073483
7492.000000;0.073496
7491.000000;0.073487
7490.000000;0.073443
7489.000000;0.073366
7488.000000;0.073291
7487.000000;0.073272
7486.000000;0.073306
7485.000000;0.073310
7484.000000;0.073208
7483.000000;0.073042
7482.000000;0.072934
7481.000000;0.072944
7480.000000;0.073022
7479.000000;0.073102
7478.000000;0.073158
7477.000000;0.073180
7476.000000;0.073153
7475.000000;0.073088
7474.000000;0.073035
7473.000000;0.073021
7472.000000;0.073026
7471.000000;0.073032
7470.000000;0.073039
7469.000000;0.073033
7468.000000;0.072979
7467.000000;0.072867
7466.000000;0.072743
7465.000000;0.072657
7464.000000;0.072635
7463.000000;0.072682
7462.000000;0.072792
7461.000000;0.072912
7460.000000;0.072953
7459.000000;0.072866
7458.000000;0.072690
7457.000000;0.072511
7456.000000;0.072390
7455.000000;0.072334
7454.000000;0.072307
7453.000000;0.072281
7452.000000;0.072266
7451.000000;0.072308
7450.000000;0.072409
7449.000000;0.072487
7448.000000;0.072456
7447.000000;0.072332
7446.000000;0.072197
7445.000000;0.072090
7444.000000;0.071997
7443.000000;0.071932
7442.000000;0.071952
7441.000000;0.072052
7440.000000;0.072138
7439.000000;0.072136
7438.000000;0.072070
7437.000000;0.072012
7436.000000;0.071996
7435.000000;0.072015
7434.000000;0.072046
7433.000000;0.072062
7432.000000;0.072045
7431.000000;0.072001
7430.000000;0.071944
7429.000000;0.071868
7428.000000;0.071784
7427.000000;0.071750
7426.000000;0.071805
7425.000000;0.071872
7424.000000;0.071831
7423.000000;0.071693
7422.000000;0.071612
7421.000000;0.071687
7420.000000;0.071825
7419.000000;0.071873
7418.000000;0.071793
7417.000000;0.071654
7416.000000;0.071523
7415.000000;0.071421
7414.000000;0.071350
7413.000000;0.071308
7412.000000;0.071297
7411.000000;0.071323
7410.000000;0.071358
7409.000000;0.071338
7408.000000;0.071248
7407.000000;0.071178
7406.000000;0.071210
7405.000000;0.071288
7404.000000;0.071297
7403.000000;0.071224
7402.000000;0.071154
7401.000000;0.071138
7400.000000;0.071165
7399.000000;0.071203
7398.000000;0.071200
7397.000000;0.071134
7396.000000;0.071091
7395.000000;0.071169
7394.000000;0.071243
7393.000000;0.071033
7392.000000;0.070496
7391.000000;0.069977
7390.000000;0.069824
7389.000000;0.069999
7388.000000;0.070269
7387.000000;0.070566
7386.000000;0.070904
7385.000000;0.071092
7384.000000;0.070948
7383.000000;0.070738
7382.000000;0.070934
7381.000000;0.071444
7380.000000;0.071590
7379.000000;0.071095
7378.000000;0.070606
7377.000000;0.070820
7376.000000;0.071516
7375.000000;0.071883
7374.000000;0.071561
7373.000000;0.070918
7372.000000;0.070449
7371.000000;0.070327
7370.000000;0.070439
7369.000000;0.070534
7368.000000;0.070393
7367.000000;0.070083
7366.000000;0.069921
7365.000000;0.070019
7364.000000;0.070100
7363.000000;0.069985
7362.000000;0.069931
7361.000000;0.070138
7360.000000;0.070243
7359.000000;0.069909
7358.000000;0.069543
7357.000000;0.069770
7356.000000;0.070437
7355.000000;0.070803
7354.000000;0.070605
7353.000000;0.070240
7352.000000;0.070032
7351.000000;0.069984
7350.000000;0.070131
7349.000000;0.070426
7348.000000;0.070422
7347.000000;0.069817
7346.000000;0.069129
7345.000000;0.069072
7344.000000;0.069450
7343.000000;0.069614
7342.000000;0.069758
7341.000000;0.070634
7340.000000;0.071940
7339.000000;0.072282
7338.000000;0.071203
7337.000000;0.069940
7336.000000;0.069649
7335.000000;0.070055
7334.000000;0.070331
7333.000000;0.070236
7332.000000;0.069861
7331.000000;0.069256
7330.000000;0.068871
7329.000000;0.069342
7328.000000;0.070329
7327.000000;0.070560
7326.000000;0.069659
7325.000000;0.068841
7324.000000;0.069085
7323.000000;0.069733
7322.000000;0.069678
7321.000000;0.069056
7320.000000;0.068829
7319.000000;0.069238
7318.000000;0.069719
7317.000000;0.069939
7316.000000;0.069940
7315.000000;0.069662
7314.000000;0.069211
7313.000000;0.069223
7312.000000;0.069980
7311.000000;0.070604
7310.000000;0.070188
7309.000000;0.069287
7308.000000;0.069135
7307.000000;0.069744
7306.000000;0.069956
7305.000000;0.069301
7304.000000;0.068579
7303.000000;0.068416
7302.000000;0.068503
7301.000000;0.068498
7300.000000;0.068584
7299.000000;0.068739
7298.000000;0.068462
7297.000000;0.067824
7296.000000;0.067756
7295.000000;0.068657
7294.000000;0.069561
7293.000000;0.069429
7292.000000;0.068674
7291.000000;0.068514
7290.000000;0.069325
7289.000000;0.070410
7288.000000;0.071010
7287.000000;0.070946
7286.000000;0.070409
7285.000000;0.069682
7284.000000;0.069118
7283.000000;0.068951
7282.000000;0.069071
7281.000000;0.069187
7280.000000;0.069211
7279.000000;0.069264
7278.000000;0.069363
7277.000000;0.069408
7276.000000;0.069414
7275.000000;0.069505
7274.000000;0.069697
7273.000000;0.069835
7272.000000;0.069785
7271.000000;0.069605
7270.000000;0.069497
7269.000000;0.069603
7268.000000;0.069840
7267.000000;0.069947
7266.000000;0.069802
7265.000000;0.069680
7264.000000;0.069992
7263.000000;0.070715
7262.000000;0.071289
7261.000000;0.071249
7260.000000;0.070770
7259.000000;0.070371
7258.000000;0.070256
7257.000000;0.070247
7256.000000;0.070281
7255.000000;0.070551
7254.000000;0.071095
7253.000000;0.071589
7252.000000;0.071671
7251.000000;0.071369
7250.000000;0.071100
7249.000000;0.071217
7248.000000;0.071553
7247.000000;0.071570
7246.000000;0.071136
7245.000000;0.070911
7244.000000;0.071564
7243.000000;0.072754
7242.000000;0.073359
7241.000000;0.072869
7240.000000;0.072056
7239.000000;0.071911
7238.000000;0.072387
7237.000000;0.072606
7236.000000;0.072141
7235.000000;0.071640
7234.000000;0.072008
7233.000000;0.073238
7232.000000;0.074226
7231.000000;0.073895
7230.000000;0.072472
7229.000000;0.071291
7228.000000;0.071322
7227.000000;0.072201
7226.000000;0.072843
7225.000000;0.072642
7224.000000;0.071855
7223.000000;0.071130
7222.000000;0.070911
7221.000000;0.071189
7220.000000;0.071552
7219.000000;0.071534
7218.000000;0.071091
7217.000000;0.070645
7216.000000;0.070565
7215.000000;0.070718
7214.000000;0.070675
7213.000000;0.070322
7212.000000;0.070012
7211.000000;0.070031
7210.000000;0.070223
7209.000000;0.070306
7208.000000;0.070318
7207.000000;0.070532
7206.000000;0.071057
7205.000000;0.071670
7204.000000;0.071985
7203.000000;0.071790
7202.000000;0.071230
7201.000000;0.070678
7200.000000;0.070379
7199.000000;0.070229
7198.000000;0.070002
7197.000000;0.069724
7196.000000;0.069641
7195.000000;0.069776
7194.000000;0.069804
7193.000000;0.069532
7192.000000;0.069223
7191.000000;0.069193
7190.000000;0.069328
7189.000000;0.069344
7188.000000;0.069291
7187.000000;0.069349
7186.000000;0.069323
7185.000000;0.068883
7184.000000;0.068266
7183.000000;0.068118
7182.000000;0.068543
7181.000000;0.068877
7180.000000;0.068650
7179.000000;0.068256
7178.000000;0.068305
7177.000000;0.068754
7176.000000;0.069111
7175.000000;0.069134
7174.000000;0.068940
7173.000000;0.068665
7172.000000;0.068429
7171.000000;0.068485
7170.000000;0.068933
7169.000000;0.069449
7168.000000;0.069644
7167.000000;0.069499
7166.000000;0.069128
7165.000000;0.068442
7164.000000;0.067509
7163.000000;0.066860
7162.000000;0.066912
7161.000000;0.067307
7160.000000;0.067359
7159.000000;0.067082
7158.000000;0.067142
7157.000000;0.067751
7156.000000;0.068305
7155.000000;0.068272
7154.000000;0.067863
7153.000000;0.067605
7152.000000;0.067645
7151.000000;0.067758
7150.000000;0.067724
7149.000000;0.067508
7148.000000;0.067222
7147.000000;0.067054
7146.000000;0.067163
7145.000000;0.067471
7144.000000;0.067653
7143.000000;0.067508
7142.000000;0.067305
7141.000000;0.067453
7140.000000;0.067842
7139.000000;0.067873
7138.000000;0.067298
7137.000000;0.066667
7136.000000;0.066609
7135.000000;0.067001
7134.000000;0.067190
7133.000000;0.066910
7132.000000;0.066536
7131.000000;0.066423
7130.000000;0.066428
7129.000000;0.066281
7128.000000;0.066057
7127.000000;0.065973
7126.000000;0.066015
7125.000000;0.066093
7124.000000;0.066295
7123.000000;0.066619
7122.000000;0.066672
7121.000000;0.066113
7120.000000;0.065302
7119.000000;0.064990
7118.000000;0.065322
7117.000000;0.065632
7116.000000;0.065423
7115.000000;0.065082
7114.000000;0.065219
7113.000000;0.065759
7112.000000;0.066132
7111.000000;0.066085
7110.000000;0.065874
7109.000000;0.065744
7108.000000;0.065675
7107.000000;0.065615
7106.000000;0.065578
7105.000000;0.065493
7104.000000;0.065249
7103.000000;0.064938
7102.000000;0.064808
7101.000000;0.064944
7100.000000;0.065111
7099.000000;0.065013
7098.000000;0.064663
7097.000000;0.064363
7096.000000;0.064320
7095.000000;0.064412
7094.000000;0.064412
7093.000000;0.064312
7092.000000;0.064309
7091.000000;0.064493
7090.000000;0.064695
7089.000000;0.064700
7088.000000;0.064513
7087.000000;0.064316
7086.000000;0.064201
7085.000000;0.064068
7084.000000;0.063838
7083.000000;0.063605
7082.000000;0.063532
7081.000000;0.063629
7080.000000;0.063731
7079.000000;0.063714
7078.000000;0.063653
7077.000000;0.063676
7076.000000;0.063718
7075.000000;0.063594
7074.000000;0.063288
7073.000000;0.063002
7072.000000;0.062895
7071.000000;0.062922
7070.000000;0.062964
7069.000000;0.063004
7068.000000;0.063078
7067.000000;0.063152
7066.000000;0.063148
7065.000000;0.063065
7064.000000;0.062967
7063.000000;0.062866
7062.000000;0.062715
7061.000000;0.062520
7060.000000;0.062355
7059.000000;0.062236
7058.000000;0.062116
7057.000000;0.062001
7056.000000;0.061972
7055.000000;0.062072
7054.000000;0.062234
7053.000000;0.062326
7052.000000;0.062259
7051.000000;0.062053
7050.000000;0.061823
7049.000000;0.061684
7048.000000;0.061655
7047.000000;0.061651
7046.000000;0.061600
7045.000000;0.061540
7044.000000;0.061539
7043.000000;0.061560
7042.000000;0.061498
7041.000000;0.061352
7040.000000;0.061241
7039.000000;0.061215
7038.000000;0.061191
7037.000000;0.061093
7036.000000;0.060970
7035.000000;0.060895
7034.000000;0.060852
7033.000000;0.060775
7032.000000;0.060650
7031.000000;0.060515
7030.000000;0.060396
7029.000000;0.060311
7028.000000;0.060278
7027.000000;0.060276
7026.000000;0.060249
7025.000000;0.060199
7024.000000;0.060189
7023.000000;0.060234
7022.000000;0.060234
7021.000000;0.060104
7020.000000;0.059889
7019.000000;0.059697
7018.000000;0.059558
7017.000000;0.059432
7016.000000;0.059324
7015.000000;0.059283
7014.000000;0.059308
7013.000000;0.059336
7012.000000;0.059323
7011.000000;0.059265
7010.000000;0.059167
7009.000000;0.059050
7008.000000;0.058977
7007.000000;0.058977
7006.000000;0.058994
7005.000000;0.058959
7004.000000;0.058887
7003.000000;0.058840
7002.000000;0.058811
7001.000000;0.058752
7000.000000;0.058670
6999.000000;0.058616
6998.000000;0.058564
6997.000000;0.058439
6996.000000;0.058251
6995.000000;0.058111
6994.000000;0.058081
6993.000000;0.058092
6992.000000;0.058061
6991.000000;0.058007
6990.000000;0.058004
6989.000000;0.058062
6988.000000;0.058125
6987.000000;0.058142
6986.000000;0.058081
6985.000000;0.057937
6984.000000;0.057763
6983.000000;0.057644
6982.000000;0.057596
6981.000000;0.057531
6980.000000;0.057368
6979.000000;0.057161
6978.000000;0.057043
6977.000000;0.057044
6976.000000;0.057051
6975.000000;0.056960
6974.000000;0.056814
6973.000000;0.056731
6972.000000;0.056730
6971.000000;0.056725
6970.000000;0.056666
6969.000000;0.056598
6968.000000;0.056556
6967.000000;0.056496
6966.000000;0.056363
6965.000000;0.056190
6964.000000;0.056054
6963.000000;0.055965
6962.000000;0.055870
6961.000000;0.055760
6960.000000;0.055674
6959.000000;0.055618
6958.000000;0.055568
6957.000000;0.055545
6956.000000;0.055590
6955.000000;0.055659
6954.000000;0.055644
6953.000000;0.055518
6952.000000;0.055363
6951.000000;0.055237
6950.000000;0.055096
6949.000000;0.054907
6948.000000;0.054729
6947.000000;0.054627
6946.000000;0.054574
6945.000000;0.054516
6944.000000;0.054472
6943.000000;0.054472
6942.000000;0.054475
6941.000000;0.054430
6940.000000;0.054391
6939.000000;0.054436
6938.000000;0.054517
6937.000000;0.054490
6936.000000;0.054316
6935.000000;0.054110
6934.000000;0.053994
6933.000000;0.053983
6932.000000;0.054012
6931.000000;0.054010
6930.000000;0.053923
6929.000000;0.053740
6928.000000;0.053526
6927.000000;0.053379
6926.000000;0.053325
6925.000000;0.053299
6924.000000;0.053253
6923.000000;0.053205
6922.000000;0.053172
6921.000000;0.053135
6920.000000;0.053114
6919.000000;0.053173
6918.000000;0.053315
6917.000000;0.053425
6916.000000;0.053393
6915.000000;0.053235
6914.000000;0.053064
6913.000000;0.052959
6912.000000;0.052914
6911.000000;0.052871
6910.000000;0.052769
6909.000000;0.052584
6908.000000;0.052352
6907.000000;0.052160
6906.000000;0.052067
6905.000000;0.052040
6904.000000;0.052002
6903.000000;0.051929
6902.000000;0.051854
6901.000000;0.051811
6900.000000;0.051804
6899.000000;0.051820
6898.000000;0.051845
6897.000000;0.051867
6896.000000;0.051875
6895.000000;0.051847
6894.000000;0.051759
6893.000000;0.051619
6892.000000;0.051471
6891.000000;0.051343
6890.000000;0.051213
6889.000000;0.051069
6888.000000;0.050961
6887.000000;0.050944
6886.000000;0.050988
6885.000000;0.050999
6884.000000;0.050927
6883.000000;0.050811
6882.000000;0.050698
6881.000000;0.050599
6880.000000;0.050513
6879.000000;0.050445
6878.000000;0.050385
6877.000000;0.050309
6876.000000;0.050218
6875.000000;0.050148
6874.000000;0.050123
6873.000000;0.050118
6872.000000;0.050091
6871.000000;0.050029
6870.000000;0.049947
6869.000000;0.049864
6868.000000;0.049790
6867.000000;0.049722
6866.000000;0.049653
6865.000000;0.049586
6864.000000;0.049532
6863.000000;0.049481
6862.000000;0.049406
6861.000000;0.049303
6860.000000;0.049214
6859.000000;0.049173
6858.000000;0.049152
6857.000000;0.049095
6856.000000;0.048985
6855.000000;0.048858
6854.000000;0.048743
6853.000000;0.048636
6852.000000;0.048541
6851.000000;0.048503
6850.000000;0.048551
6849.000000;0.048641
6848.000000;0.048681
6847.000000;0.048633
6846.000000;0.048545
6845.000000;0.048483
6844.000000;0.048453
6843.000000;0.048403
6842.000000;0.048286
6841.000000;0.048119
6840.000000;0.047959
6839.000000;0.047839
6838.000000;0.047751
6837.000000;0.047697
6836.000000;0.047703
6835.000000;0.047763
6834.000000;0.047812
6833.000000;0.047786
6832.000000;0.047717
6831.000000;0.047690
6830.000000;0.047721
6829.000000;0.047731
6828.000000;0.047655
6827.000000;0.047525
6826.000000;0.047405
6825.000000;0.047300
6824.000000;0.047178
6823.000000;0.047051
6822.000000;0.046972
6821.000000;0.046965
6820.000000;0.046988
6819.000000;0.046980
6818.000000;0.046908
6817.000000;0.046775
6816.000000;0.046608
6815.000000;0.046449
6814.000000;0.046333
6813.000000;0.046265
6812.000000;0.046225
6811.000000;0.046194
6810.000000;0.046159
6809.000000;0.046109
6808.000000;0.046049
6807.000000;0.046009
6806.000000;0.046014
6805.000000;0.046041
6804.000000;0.046031
6803.000000;0.045967
6802.000000;0.045903
6801.000000;0.045892
6800.000000;0.045913
6799.000000;0.045894
6798.000000;0.045811
6797.000000;0.045709
6796.000000;0.045641
6795.000000;0.045606
6794.000000;0.045572
6793.000000;0.045521
6792.000000;0.045444
6791.000000;0.045331
6790.000000;0.045190
6789.000000;0.045062
6788.000000;0.044991
6787.000000;0.044975
6786.000000;0.044970
6785.000000;0.044942
6784.000000;0.044882
6783.000000;0.044778
6782.000000;0.044628
6781.000000;0.044471
6780.000000;0.044378
6779.000000;0.044380
6778.000000;0.044432
6777.000000;0.044453
6776.000000;0.044396
6775.000000;0.044270
6774.000000;0.044127
6773.000000;0.044041
6772.000000;0.044050
6771.000000;0.044106
6770.000000;0.044100
6769.000000;0.043988
6768.000000;0.043834
6767.000000;0.043724
6766.000000;0.043670
6765.000000;0.043637
6764.000000;0.043615
6763.000000;0.043618
6762.000000;0.043629
6761.000000;0.043608
6760.000000;0.043539
6759.000000;0.043437
6758.000000;0.043321
6757.000000;0.043217
6756.000000;0.043164
6755.000000;0.043174
6754.000000;0.043199
6753.000000;0.043183
6752.000000;0.043122
6751.000000;0.043045
6750.000000;0.042948
6749.000000;0.042813
6748.000000;0.042666
6747.000000;0.042565
6746.000000;0.042530
6745.000000;0.042528
6744.000000;0.042527
6743.000000;0.042525
6742.000000;0.042515
6741.000000;0.042476
6740.000000;0.042408
6739.000000;0.042342
6738.000000;0.042291
6737.000000;0.042225
6736.000000;0.042119
6735.000000;0.041999
6734.000000;0.041910
6733.000000;0.041873
6732.000000;0.041881
6731.000000;0.041901
6730.000000;0.041900
6729.000000;0.041864
6728.000000;0.041820
6727.000000;0.041793
6726.000000;0.041761
6725.000000;0.041672
6724.000000;0.041518
6723.000000;0.041360
6722.000000;0.041263
6721.000000;0.041237
6720.000000;0.041248
6719.000000;0.041263
6718.000000;0.041255
6717.000000;0.041206
6716.000000;0.041126
6715.000000;0.041051
6714.000000;0.040998
6713.000000;0.040969
6712.000000;0.040949
6711.000000;0.040941
6710.000000;0.040933
6709.000000;0.040868
6708.000000;0.040726
6707.000000;0.040574
6706.000000;0.040482
6705.000000;0.040445
6704.000000;0.040422
6703.000000;0.040476
6702.000000;0.040411
6701.000000;0.040359
6700.000000;0.040329
6699.000000;0.040306
6698.000000;0.040287
6697.000000;0.040295
6696.000000;0.040350
6695.000000;0.040419
6694.000000;0.040433
6693.000000;0.040354
6692.000000;0.040218
6691.000000;0.040090
6690.000000;0.039990
6689.000000;0.039889
6688.000000;0.039774
6687.000000;0.039675
6686.000000;0.039614
6685.000000;0.039578
6684.000000;0.039540
6683.000000;0.039497
6682.000000;0.039460
6681.000000;0.039430
6680.000000;0.039408
6679.000000;0.039408
6678.000000;0.039441
6677.000000;0.039491
6676.000000;0.039523
6675.000000;0.039503
6674.000000;0.039422
6673.000000;0.039295
6672.000000;0.039152
6671.000000;0.039027
6670.000000;0.038941
6669.000000;0.038897
6668.000000;0.038886
6667.000000;0.038889
6666.000000;0.038887
6665.000000;0.038867
6664.000000;0.038831
6663.000000;0.038785
6662.000000;0.038727
6661.000000;0.038656
6660.000000;0.038587
6659.000000;0.038547
6658.000000;0.038546
6657.000000;0.038558
6656.000000;0.038542
6655.000000;0.038471
6654.000000;0.038352
6653.000000;0.038224
6652.000000;0.038132
6651.000000;0.038082
6650.000000;0.038032
6649.000000;0.037946
6648.000000;0.037841
6647.000000;0.037771
6646.000000;0.037759
6645.000000;0.037775
6644.000000;0.037774
6643.000000;0.037734
6642.000000;0.037668
6641.000000;0.037599
6640.000000;0.037538
6639.000000;0.037478
6638.000000;0.037416
6637.000000;0.037380
6636.000000;0.037408
6635.000000;0.037485
6634.000000;0.037530
6633.000000;0.037478
6632.000000;0.037357
6631.000000;0.037253
6630.000000;0.037207
6629.000000;0.037185
6628.000000;0.037149
6627.000000;0.037106
6626.000000;0.037082
6625.000000;0.037083
6624.000000;0.037111
6623.000000;0.037171
6622.000000;0.037242
6621.000000;0.037267
6620.000000;0.037202
6619.000000;0.037067
6618.000000;0.036926
6617.000000;0.036826
6616.000000;0.036769
6615.000000;0.036741
6614.000000;0.036729
6613.000000;0.036721
6612.000000;0.036696
6611.000000;0.036636
6610.000000;0.036534
6609.000000;0.036406
6608.000000;0.036292
6607.000000;0.036233
6606.000000;0.036225
6605.000000;0.036213
6604.000000;0.036141
6603.000000;0.036011
6602.000000;0.035876
6601.000000;0.035784
6600.000000;0.035744
6599.000000;0.035739
6598.000000;0.035760
6597.000000;0.035797
6596.000000;0.035831
6595.000000;0.035847
6594.000000;0.035853
6593.000000;0.035872
6592.000000;0.035902
6591.000000;0.035910
6590.000000;0.035873
6589.000000;0.035816
6588.000000;0.035780
6587.000000;0.035778
6586.000000;0.035780
6585.000000;0.035755
6584.000000;0.035705
6583.000000;0.035640
6582.000000;0.035569
6581.000000;0.035499
6580.000000;0.035437
6579.000000;0.035382
6578.000000;0.035322
6577.000000;0.035248
6576.000000;0.035163
6575.000000;0.035062
6574.000000;0.034937
6573.000000;0.034810
6572.000000;0.034741
6571.000000;0.034773
6570.000000;0.034873
6569.000000;0.034957
6568.000000;0.034966
6567.000000;0.034915
6566.000000;0.034852
6565.000000;0.034810
6564.000000;0.034795
6563.000000;0.034794
6562.000000;0.034794
6561.000000;0.034789
6560.000000;0.034773
6559.000000;0.034740
6558.000000;0.034683
6557.000000;0.034608
6556.000000;0.034531
6555.000000;0.034471
6554.000000;0.034437
6553.000000;0.034429
6552.000000;0.034431
6551.000000;0.034418
6550.000000;0.034368
6549.000000;0.034293
6548.000000;0.034234
6547.000000;0.034211
6546.000000;0.034208
6545.000000;0.034199
6544.000000;0.034182
6543.000000;0.034169
6542.000000;0.034153
6541.000000;0.034120
6540.000000;0.034072
6539.000000;0.034030
6538.000000;0.034004
6537.000000;0.033996
6536.000000;0.033997
6535.000000;0.033997
6534.000000;0.033976
6533.000000;0.033923
6532.000000;0.033848
6531.000000;0.033771
6530.000000;0.033697
6529.000000;0.033622
6528.000000;0.033538
6527.000000;0.033449
6526.000000;0.033366
6525.000000;0.033306
6524.000000;0.033273
6523.000000;0.033243
6522.000000;0.033183
6521.000000;0.033101
6520.000000;0.033041
6519.000000;0.033022
6518.000000;0.033011
6517.000000;0.032972
6516.000000;0.032919
6515.000000;0.032884
6514.000000;0.032874
6513.000000;0.032874
6512.000000;0.032883
6511.000000;0.032901
6510.000000;0.032902
6509.000000;0.032863
6508.000000;0.032812
6507.000000;0.032803
6506.000000;0.032840
6505.000000;0.032868
6504.000000;0.032846
6503.000000;0.032797
6502.000000;0.032761
6501.000000;0.032744
6500.000000;0.032726
6499.000000;0.032698
6498.000000;0.032672
6497.000000;0.032652
6496.000000;0.032629
6495.000000;0.032601
6494.000000;0.032583
6493.000000;0.032596
6492.000000;0.032639
6491.000000;0.032673
6490.000000;0.032652
6489.000000;0.032561
6488.000000;0.032428
6487.000000;0.032295
6486.000000;0.032181
6485.000000;0.032093
6484.000000;0.032043
6483.000000;0.032035
6482.000000;0.032049
6481.000000;0.032055
6480.000000;0.032049
6479.000000;0.032040
6478.000000;0.032026
6477.000000;0.031992
6476.000000;0.031939
6475.000000;0.031888
6474.000000;0.031849
6473.000000;0.031819
6472.000000;0.031800
6471.000000;0.031806
6470.000000;0.031842
6469.000000;0.031889
6468.000000;0.031925
6467.000000;0.031943
6466.000000;0.031946
6465.000000;0.031935
6464.000000;0.031908
6463.000000;0.031862
6462.000000;0.031798
6461.000000;0.031729
6460.000000;0.031679
6459.000000;0.031659
6458.000000;0.031649
6457.000000;0.031617
6456.000000;0.031558
6455.000000;0.031498
6454.000000;0.031453
6453.000000;0.031414
6452.000000;0.031364
6451.000000;0.031298
6450.000000;0.031229
6449.000000;0.031170
6448.000000;0.031133
6447.000000;0.031114
6446.000000;0.031100
6445.000000;0.031083
6444.000000;0.031067
6443.000000;0.031054
6442.000000;0.031032
6441.000000;0.030993
6440.000000;0.030951
6439.000000;0.030925
6438.000000;0.030916
6437.000000;0.030914
6436.000000;0.030917
6435.000000;0.030930
6434.000000;0.030941
6433.000000;0.030937
6432.000000;0.030916
6431.000000;0.030891
6430.000000;0.030865
6429.000000;0.030830
6428.000000;0.030794
6427.000000;0.030774
6426.000000;0.030780
6425.000000;0.030803
6424.000000;0.030828
6423.000000;0.030841
6422.000000;0.030830
6421.000000;0.030796
6420.000000;0.030763
6419.000000;0.030759
6418.000000;0.030786
6417.000000;0.030810
6416.000000;0.030809
6415.000000;0.030790
6414.000000;0.030770
6413.000000;0.030738
6412.000000;0.030665
6411.000000;0.030541
6410.000000;0.030405
6409.000000;0.030316
6408.000000;0.030302
6407.000000;0.030331
6406.000000;0.030347
6405.000000;0.030330
6404.000000;0.030303
6403.000000;0.030292
6402.000000;0.030296
6401.000000;0.030302
6400.000000;0.030307
6399.000000;0.030307
6398.000000;0.030283
6397.000000;0.030219
6396.000000;0.030127
6395.000000;0.030053
6394.000000;0.030033
6393.000000;0.030072
6392.000000;0.030145
6391.000000;0.030222
6390.000000;0.030278
6389.000000;0.030314
6388.000000;0.030341
6387.000000;0.030363
6386.000000;0.030360
6385.000000;0.030314
6384.000000;0.030228
6383.000000;0.030129
6382.000000;0.030044
6381.000000;0.029992
6380.000000;0.029979
6379.000000;0.029995
6378.000000;0.030023
6377.000000;0.030046
6376.000000;0.030058
6375.000000;0.030056
6374.000000;0.030031
6373.000000;0.029983
6372.000000;0.029922
6371.000000;0.029863
6370.000000;0.029813
6369.000000;0.029770
6368.000000;0.029735
6367.000000;0.029707
6366.000000;0.029690
6365.000000;0.029688
6364.000000;0.029695
6363.000000;0.029680
6362.000000;0.029613
6361.000000;0.029501
6360.000000;0.029396
6359.000000;0.029337
6358.000000;0.029319
6357.000000;0.029319
6356.000000;0.029325
6355.000000;0.029329
6354.000000;0.029317
6353.000000;0.029291
6352.000000;0.029278
6351.000000;0.029299
6350.000000;0.029332
6349.000000;0.029344
6348.000000;0.029335
6347.000000;0.029326
6346.000000;0.029321
6345.000000;0.029310
6344.000000;0.029297
6343.000000;0.029303
6342.000000;0.029336
6341.000000;0.029379
6340.000000;0.029413
6339.000000;0.029436
6338.000000;0.029450
6337.000000;0.029454
6336.000000;0.029435
6335.000000;0.029380
6334.000000;0.029287
6333.000000;0.029181
6332.000000;0.029092
6331.000000;0.029028
6330.000000;0.028971
6329.000000;0.028912
6328.000000;0.028875
6327.000000;0.028884
6326.000000;0.028937
6325.000000;0.029006
6324.000000;0.029069
6323.000000;0.029111
6322.000000;0.029119
6321.000000;0.029091
6320.000000;0.029031
6319.000000;0.028939
6318.000000;0.028822
6317.000000;0.028715
6316.000000;0.028657
6315.000000;0.028653
6314.000000;0.028667
6313.000000;0.028665
6312.000000;0.028654
6311.000000;0.028640
6310.000000;0.028604
6309.000000;0.028531
6308.000000;0.028450
6307.000000;0.028405
6306.000000;0.028398
6305.000000;0.028403
6304.000000;0.028403
6303.000000;0.028404
6302.000000;0.028418
6301.000000;0.028454
6300.000000;0.028518
6299.000000;0.028592
6298.000000;0.028628
6297.000000;0.028591
6296.000000;0.028506
6295.000000;0.028422
6294.000000;0.028366
6293.000000;0.028332
6292.000000;0.028316
6291.000000;0.028328
6290.000000;0.028358
6289.000000;0.028384
6288.000000;0.028395
6287.000000;0.028394
6286.000000;0.028381
6285.000000;0.028353
6284.000000;0.028317
6283.000000;0.028293
6282.000000;0.028286
6281.000000;0.028288
6280.000000;0.028291
6279.000000;0.028285
6278.000000;0.028254
6277.000000;0.028193
6276.000000;0.028125
6275.000000;0.028085
6274.000000;0.028088
6273.000000;0.028118
6272.000000;0.028142
6271.000000;0.028138
6270.000000;0.028096
6269.000000;0.028030
6268.000000;0.027965
6267.000000;0.027913
6266.000000;0.027871
6265.000000;0.027841
6264.000000;0.027847
6263.000000;0.027897
6262.000000;0.027965
6261.000000;0.028014
6260.000000;0.028032
6259.000000;0.028020
6258.000000;0.027976
6257.000000;0.027900
6256.000000;0.027816
6255.000000;0.027754
6254.000000;0.027718
6253.000000;0.027694
6252.000000;0.027680
6251.000000;0.027684
6250.000000;0.027703
6249.000000;0.027723
6248.000000;0.027741
6247.000000;0.027758
6246.000000;0.027768
6245.000000;0.027762
6244.000000;0.027743
6243.000000;0.027719
6242.000000;0.027685
6241.000000;0.027649
6240.000000;0.027638
6239.000000;0.027665
6238.000000;0.027698
6237.000000;0.027697
6236.000000;0.027656
6235.000000;0.027605
6234.000000;0.027560
6233.000000;0.027518
6232.000000;0.027485
6231.000000;0.027475
6230.000000;0.027488
6229.000000;0.027517
6228.000000;0.027562
6227.000000;0.027621
6226.000000;0.027659
6225.000000;0.027634
6224.000000;0.027549
6223.000000;0.027458
6222.000000;0.027412
6221.000000;0.027419
6220.000000;0.027447
6219.000000;0.027454
6218.000000;0.027413
6217.000000;0.027340
6216.000000;0.027278
6215.000000;0.027264
6214.000000;0.027286
6213.000000;0.027308
6212.000000;0.027312
6211.000000;0.027303
6210.000000;0.027282
6209.000000;0.027251
6208.000000;0.027223
6207.000000;0.027205
6206.000000;0.027179
6205.000000;0.027126
6204.000000;0.027060
6203.000000;0.027015
6202.000000;0.026999
6201.000000;0.026990
6200.000000;0.026967
6199.000000;0.026927
6198.000000;0.026872
6197.000000;0.026807
6196.000000;0.026759
6195.000000;0.026764
6194.000000;0.026827
6193.000000;0.026907
6192.000000;0.026951
6191.000000;0.026933
6190.000000;0.026868
6189.000000;0.026797
6188.000000;0.026758
6187.000000;0.026756
6186.000000;0.026762
6185.000000;0.026754
6184.000000;0.026744
6183.000000;0.026749
6182.000000;0.026760
6181.000000;0.026751
6180.000000;0.026717
6179.000000;0.026676
6178.000000;0.026646
6177.000000;0.026628
6176.000000;0.026617
6175.000000;0.026599
6174.000000;0.026548
6173.000000;0.026458
6172.000000;0.026359
6171.000000;0.026299
6170.000000;0.026302
6169.000000;0.026351
6168.000000;0.026419
6167.000000;0.026475
6166.000000;0.026497
6165.000000;0.026477
6164.000000;0.026430
6163.000000;0.026383
6162.000000;0.026348
6161.000000;0.026326
6160.000000;0.026317
6159.000000;0.026310
6158.000000;0.026283
6157.000000;0.026232
6156.000000;0.026176
6155.000000;0.026132
6154.000000;0.026095
6153.000000;0.026067
6152.000000;0.026065
6151.000000;0.026100
6150.000000;0.026148
6149.000000;0.026174
6148.000000;0.026168
6147.000000;0.026136
6146.000000;0.026073
6145.000000;0.025989
6144.000000;0.025930
6143.000000;0.025932
6142.000000;0.025973
6141.000000;0.026000
6140.000000;0.025986
6139.000000;0.025946
6138.000000;0.025895
6137.000000;0.025842
6136.000000;0.025807
6135.000000;0.025808
6134.000000;0.025831
6133.000000;0.025838
6132.000000;0.025814
6131.000000;0.025775
6130.000000;0.025725
6129.000000;0.025656
6128.000000;0.025579
6127.000000;0.025524
6126.000000;0.025502
6125.000000;0.025492
6124.000000;0.025470
6123.000000;0.025434
6122.000000;0.025387
6121.000000;0.025328
6120.000000;0.025273
6119.000000;0.025248
6118.000000;0.025265
6117.000000;0.025304
6116.000000;0.025339
6115.000000;0.025357
6114.000000;0.025358
6113.000000;0.025345
6112.000000;0.025323
6111.000000;0.025293
6110.000000;0.025254
6109.000000;0.025213
6108.000000;0.025188
6107.000000;0.025187
6106.000000;0.025194
6105.000000;0.025181
6104.000000;0.025144
6103.000000;0.025095
6102.000000;0.025050
6101.000000;0.025024
6100.000000;0.025033
6099.000000;0.025079
6098.000000;0.025131
6097.000000;0.025147
6096.000000;0.025107
6095.000000;0.025025
6094.000000;0.024923
6093.000000;0.024821
6092.000000;0.024743
6091.000000;0.024701
6090.000000;0.024689
6089.000000;0.024694
6088.000000;0.024705
6087.000000;0.024702
6086.000000;0.024657
6085.000000;0.024562
6084.000000;0.024454
6083.000000;0.024381
6082.000000;0.024360
6081.000000;0.024376
6080.000000;0.024409
6079.000000;0.024437
6078.000000;0.024433
6077.000000;0.024388
6076.000000;0.024330
6075.000000;0.024290
6074.000000;0.024265
6073.000000;0.024236
6072.000000;0.024205
6071.000000;0.024187
6070.000000;0.024174
6069.000000;0.024144
6068.000000;0.024103
6067.000000;0.024080
6066.000000;0.024083
6065.000000;0.024090
6064.000000;0.024079
6063.000000;0.024049
6062.000000;0.024015
6061.000000;0.023991
6060.000000;0.023992
6059.000000;0.024020
6058.000000;0.024054
6057.000000;0.024061
6056.000000;0.024026
6055.000000;0.023959
6054.000000;0.023880
6053.000000;0.023806
6052.000000;0.023751
6051.000000;0.023710
6050.000000;0.023661
6049.000000;0.023591
6048.000000;0.023513
6047.000000;0.023448
6046.000000;0.023396
6045.000000;0.023354
6044.000000;0.023336
6043.000000;0.023350
6042.000000;0.023374
6041.000000;0.023376
6040.000000;0.023358
6039.000000;0.023339
6038.000000;0.023315
6037.000000;0.023264
6036.000000;0.023183
6035.000000;0.023097
6034.000000;0.023028
6033.000000;0.022987
6032.000000;0.022979
6031.000000;0.022992
6030.000000;0.022995
6029.000000;0.022963
6028.000000;0.022912
6027.000000;0.022873
6026.000000;0.022851
6025.000000;0.022827
6024.000000;0.022792
6023.000000;0.022753
6022.000000;0.022712
6021.000000;0.022659
6020.000000;0.022599
6019.000000;0.022542
6018.000000;0.022496
6017.000000;0.022467
6016.000000;0.022473
6015.000000;0.022516
6014.000000;0.022560
6013.000000;0.022562
6012.000000;0.022513
6011.000000;0.022443
6010.000000;0.022375
6009.000000;0.022320
6008.000000;0.022285
6007.000000;0.022269
6006.000000;0.022251
6005.000000;0.022212
6004.000000;0.022164
6003.000000;0.022131
6002.000000;0.022113
6001.000000;0.022088
6000.000000;0.022049
5999.000000;0.022001
5998.000000;0.021945
5997.000000;0.021876
5996.000000;0.021806
5995.000000;0.021746
5994.000000;0.021690
5993.000000;0.021636
5992.000000;0.021601
5991.000000;0.021599
5990.000000;0.021605
5989.000000;0.021580
5988.000000;0.021522
5987.000000;0.021473
5986.000000;0.021460
5985.000000;0.021475
5984.000000;0.021494
5983.000000;0.021493
5982.000000;0.021454
5981.000000;0.021378
5980.000000;0.021296
5979.000000;0.021238
5978.000000;0.021198
5977.000000;0.021154
5976.000000;0.021108
5975.000000;0.021080
5974.000000;0.021077
5973.000000;0.021080
5972.000000;0.021070
5971.000000;0.021034
5970.000000;0.020963
5969.000000;0.020865
5968.000000;0.020774
5967.000000;0.020715
5966.000000;0.020670
5965.000000;0.020605
5964.000000;0.020518
5963.000000;0.020435
5962.000000;0.020358
5961.000000;0.020273
5960.000000;0.020183
5959.000000;0.020124
5958.000000;0.020123
5957.000000;0.020175
5956.000000;0.020249
5955.000000;0.020305
5954.000000;0.020307
5953.000000;0.020253
5952.000000;0.020178
5951.000000;0.020115
5950.000000;0.020050
5949.000000;0.019960
5948.000000;0.019853
5947.000000;0.019768
5946.000000;0.019719
5945.000000;0.019697
5944.000000;0.019694
5943.000000;0.019712
5942.000000;0.019729
5941.000000;0.019718
5940.000000;0.019675
5939.000000;0.019618
5938.000000;0.019561
5937.000000;0.019499
5936.000000;0.019430
5935.000000;0.019354
5934.000000;0.019269
5933.000000;0.019179
5932.000000;0.019107
5931.000000;0.019064
5930.000000;0.019031
5929.000000;0.018988
5928.000000;0.018953
5927.000000;0.018947
5926.000000;0.018943
5925.000000;0.018895
5924.000000;0.018801
5923.000000;0.018705
5922.000000;0.018636
5921.000000;0.018592
5920.000000;0.018562
5919.000000;0.018537
5918.000000;0.018497
5917.000000;0.018426
5916.000000;0.018342
5915.000000;0.018282
5914.000000;0.018256
5913.000000;0.018238
5912.000000;0.018213
5911.000000;0.018191
5910.000000;0.018169
5909.000000;0.018127
5908.000000;0.018052
5907.000000;0.017962
5906.000000;0.017885
5905.000000;0.017837
5904.000000;0.017817
5903.000000;0.017801
5902.000000;0.017751
5901.000000;0.017643
5900.000000;0.017501
5899.000000;0.017375
5898.000000;0.017290
5897.000000;0.017241
5896.000000;0.017207
5895.000000;0.017165
5894.000000;0.017096
5893.000000;0.017007
5892.000000;0.016936
5891.000000;0.016912
5890.000000;0.016911
5889.000000;0.016894
5888.000000;0.016857
5887.000000;0.016827
5886.000000;0.016803
5885.000000;0.016756
5884.000000;0.016680
5883.000000;0.016598
5882.000000;0.016533
5881.000000;0.016479
5880.000000;0.016425
5879.000000;0.016371
5878.000000;0.016322
5877.000000;0.016289
5876.000000;0.016279
5875.000000;0.016277
5874.000000;0.016242
5873.000000;0.016159
5872.000000;0.016062
5871.000000;0.015985
5870.000000;0.015909
5869.000000;0.015803
5868.000000;0.015676
5867.000000;0.015576
5866.000000;0.015519
5865.000000;0.015478
5864.000000;0.015434
5863.000000;0.015389
5862.000000;0.015346
5861.000000;0.015307
5860.000000;0.015287
5859.000000;0.015293
5858.000000;0.015295
5857.000000;0.015259
5856.000000;0.015192
5855.000000;0.015124
5854.000000;0.015055
5853.000000;0.014964
5852.000000;0.014859
5851.000000;0.014787
5850.000000;0.014766
5849.000000;0.014767
5848.000000;0.014750
5847.000000;0.014706
5846.000000;0.014635
5845.000000;0.014540
5844.000000;0.014438
5843.000000;0.014346
5842.000000;0.014253
5841.000000;0.014137
5840.000000;0.014004
5839.000000;0.013882
5838.000000;0.013785
5837.000000;0.013698
5836.000000;0.013617
5835.000000;0.013550
5834.000000;0.013498
5833.000000;0.013443
5832.000000;0.013370
5831.000000;0.013282
5830.000000;0.013177
5829.000000;0.013060
5828.000000;0.012942
5827.000000;0.012835
5826.000000;0.012736
5825.000000;0.012646
5824.000000;0.012590
5823.000000;0.012584
5822.000000;0.012593
5821.000000;0.012570
5820.000000;0.012512
5819.000000;0.012455
5818.000000;0.012413
5817.000000;0.012365
5816.000000;0.012309
5815.000000;0.012270
5814.000000;0.012256
5813.000000;0.012240
5812.000000;0.012200
5811.000000;0.012138
5810.000000;0.012054
5809.000000;0.011949
5808.000000;0.011834
5807.000000;0.011737
5806.000000;0.011665
5805.000000;0.011601
5804.000000;0.011535
5803.000000;0.011464
5802.000000;0.011382
5801.000000;0.011288
5800.000000;0.011203
5799.000000;0.011143
5798.000000;0.011085
5797.000000;0.010992
5796.000000;0.010868
5795.000000;0.010753
5794.000000;0.010669
5793.000000;0.010604
5792.000000;0.010538
5791.000000;0.010460
5790.000000;0.010355
5789.000000;0.010220
5788.000000;0.010091
5787.000000;0.010012
5786.000000;0.009974
5785.000000;0.009928
5784.000000;0.009849
5783.000000;0.009759
5782.000000;0.009677
5781.000000;0.009594
5780.000000;0.009502
5779.000000;0.009408
5778.000000;0.009317
5777.000000;0.009220
5776.000000;0.009117
5775.000000;0.009015
5774.000000;0.008916
5773.000000;0.008815
5772.000000;0.008720
5771.000000;0.008646
5770.000000;0.008589
5769.000000;0.008526
5768.000000;0.008455
5767.000000;0.008388
5766.000000;0.008317
5765.000000;0.008217
5764.000000;0.008080
5763.000000;0.007926
5762.000000;0.007777
5761.000000;0.007636
5760.000000;0.007506
5759.000000;0.007392
5758.000000;0.007294
5757.000000;0.007209
5756.000000;0.007143
5755.000000;0.007088
5754.000000;0.007015
5753.000000;0.006900
5752.000000;0.006768
5751.000000;0.006667
5750.000000;0.006613
5749.000000;0.006577
5748.000000;0.006538
5747.000000;0.006496
5746.000000;0.006452
5745.000000;0.006394
5744.000000;0.006311
5743.000000;0.006199
5742.000000;0.006064
5741.000000;0.005916
5740.000000;0.005774
5739.000000;0.005647
5738.000000;0.005520
5737.000000;0.005391
5736.000000;0.005282
5735.000000;0.005206
5734.000000;0.005144
5733.000000;0.005068
5732.000000;0.004987
5731.000000;0.004919
5730.000000;0.004840
5729.000000;0.004717
5728.000000;0.004555
5727.000000;0.004398
5726.000000;0.004268
5725.000000;0.004151
5724.000000;0.004034
5723.000000;0.003917
5722.000000;0.003803
5721.000000;0.003701
5720.000000;0.003624
5719.000000;0.003572
5718.000000;0.003512
5717.000000;0.003418
5716.000000;0.003310
5715.000000;0.003216
5714.000000;0.003127
5713.000000;0.003020
5712.000000;0.002910
5711.000000;0.002825
5710.000000;0.002757
5709.000000;0.002672
5708.000000;0.002556
5707.000000;0.002427
5706.000000;0.002289
5705.000000;0.002139
5704.000000;0.001989
5703.000000;0.001856
5702.000000;0.001728
5701.000000;0.001594
5700.000000;0.001478
5699.000000;0.001406
5698.000000;0.001323
5697.000000;0.001232
5696.000000;0.001108
5695.000000;0.000979
5694.000000;0.000846
5693.000000;0.000688
5692.000000;0.000516
5691.000000;0.000369
5690.000000;0.000256
5689.000000;0.000149
5688.000000;0.000041
5687.000000;-0.000050
5686.000000;-0.000122
5685.000000;-0.000201
5684.000000;-0.000296
5683.000000;-0.000388
5682.000000;-0.000473
5681.000000;-0.000570
5680.000000;-0.000686
5679.000000;-0.000813
5678.000000;-0.000954
5677.000000;-0.001115
5676.000000;-0.001280
5675.000000;-0.001419
5674.000000;-0.001528
5673.000000;-0.001623
5672.000000;-0.001707
5671.000000;-0.001779
5670.000000;-0.001862
5669.000000;-0.001987
5668.000000;-0.002143
5667.000000;-0.002298
5666.000000;-0.002436
5665.000000;-0.002567
5664.000000;-0.002687
5663.000000;-0.002790
5662.000000;-0.002893
5661.000000;-0.003014
5660.000000;-0.003138
5659.000000;-0.003245
5658.000000;-0.003358
5657.000000;-0.003505
5656.000000;-0.003660
5655.000000;-0.003771
5654.000000;-0.003834
5653.000000;-0.003892
5652.000000;-0.003972
5651.000000;-0.004069
5650.000000;-0.004190
5649.000000;-0.004351
5648.000000;-0.004524
5647.000000;-0.004663
5646.000000;-0.004764
5645.000000;-0.004872
5644.000000;-0.005010
5643.000000;-0.005155
5642.000000;-0.005276
5641.000000;-0.005364
5640.000000;-0.005421
5639.000000;-0.005463
5638.000000;-0.005535
5637.000000;-0.005674
5636.000000;-0.005859
5635.000000;-0.006039
5634.000000;-0.006202
5633.000000;-0.006373
5632.000000;-0.006550
5631.000000;-0.006705
5630.000000;-0.006835
5629.000000;-0.006966
5628.000000;-0.007097
5627.000000;-0.007202
5626.000000;-0.007283
5625.000000;-0.007368
5624.000000;-0.007462
5623.000000;-0.007540
5622.000000;-0.007605
5621.000000;-0.007687
5620.000000;-0.007799
5619.000000;-0.007933
5618.000000;-0.008090
5617.000000;-0.008282
5616.000000;-0.008489
5615.000000;-0.008669
5614.000000;-0.008811
5613.000000;-0.008929
5612.000000;-0.009018
5611.000000;-0.009064
5610.000000;-0.009093
5609.000000;-0.009162
5608.000000;-0.009297
5607.000000;-0.009470
5606.000000;-0.009640
5605.000000;-0.009776
5604.000000;-0.009864
5603.000000;-0.009922
5602.000000;-0.010000
5601.000000;-0.010134
5600.000000;-0.010299
5599.000000;-0.010451
5598.000000;-0.010588
5597.000000;-0.010736
5596.000000;-0.010891
5595.000000;-0.011038
5594.000000;-0.011183
5593.000000;-0.011333
5592.000000;-0.011457
5591.000000;-0.011535
5590.000000;-0.011611
5589.000000;-0.011742
5588.000000;-0.011908
5587.000000;-0.012051
5586.000000;-0.012164
5585.000000;-0.012279
5584.000000;-0.012391
5583.000000;-0.012473
5582.000000;-0.012546
5581.000000;-0.012653
5580.000000;-0.012785
5579.000000;-0.012906
5578.000000;-0.013042
5577.000000;-0.013241
5576.000000;-0.013471
5575.000000;-0.013643
5574.000000;-0.013734
5573.000000;-0.013809
5572.000000;-0.013918
5571.000000;-0.014047
5570.000000;-0.014190
5569.000000;-0.014366
5568.000000;-0.014556
5567.000000;-0.014703
5566.000000;-0.014799
5565.000000;-0.014898
5564.000000;-0.015023
5563.000000;-0.015146
5562.000000;-0.015260
5561.000000;-0.015401
5560.000000;-0.015574
5559.000000;-0.015739
5558.000000;-0.015890
5557.000000;-0.016074
5556.000000;-0.016306
5555.000000;-0.016527
5554.000000;-0.016688
5553.000000;-0.016811
5552.000000;-0.016929
5551.000000;-0.017037
5550.000000;-0.017125
5549.000000;-0.017213
5548.000000;-0.017317
5547.000000;-0.017433
5546.000000;-0.017564
5545.000000;-0.017722
5544.000000;-0.017879
5543.000000;-0.017992
5542.000000;-0.018065
5541.000000;-0.018150
5540.000000;-0.018270
5539.000000;-0.018391
5538.000000;-0.018507
5537.000000;-0.018675
5536.000000;-0.018913
5535.000000;-0.019155
5534.000000;-0.019332
5533.000000;-0.019456
5532.000000;-0.019580
5531.000000;-0.019724
5530.000000;-0.019869
5529.000000;-0.020001
5528.000000;-0.020110
5527.000000;-0.020211
5526.000000;-0.020353
5525.000000;-0.020561
5524.000000;-0.020788
5523.000000;-0.020960
5522.000000;-0.021073
5521.000000;-0.021201
5520.000000;-0.021368
5519.000000;-0.021508
5518.000000;-0.021599
5517.000000;-0.021711
5516.000000;-0.021912
5515.000000;-0.022159
5514.000000;-0.022354
5513.000000;-0.022481
5512.000000;-0.022616
5511.000000;-0.022793
5510.000000;-0.022969
5509.000000;-0.023103
5508.000000;-0.023234
5507.000000;-0.023432
5506.000000;-0.023681
5505.000000;-0.023855
5504.000000;-0.023899
5503.000000;-0.023947
5502.000000;-0.024157
5501.000000;-0.024498
5500.000000;-0.024750
5499.000000;-0.024793
5498.000000;-0.024816
5497.000000;-0.025033
5496.000000;-0.025328
5495.000000;-0.025420
5494.000000;-0.025287
5493.000000;-0.025240
5492.000000;-0.025477
5491.000000;-0.025785
5490.000000;-0.025878
5489.000000;-0.025822
5488.000000;-0.025912
5487.000000;-0.026249
5486.000000;-0.026644
5485.000000;-0.026898
5484.000000;-0.027040
5483.000000;-0.027200
5482.000000;-0.027333
5481.000000;-0.027369
5480.000000;-0.027435
5479.000000;-0.027688
5478.000000;-0.028032
5477.000000;-0.028175
5476.000000;-0.028039
5475.000000;-0.027954
5474.000000;-0.028205
5473.000000;-0.028587
5472.000000;-0.028745
5471.000000;-0.028714
5470.000000;-0.028820
5469.000000;-0.029179
5468.000000;-0.029536
5467.000000;-0.029663
5466.000000;-0.029703
5465.000000;-0.029880
5464.000000;-0.030141
5463.000000;-0.030320
5462.000000;-0.030390
5461.000000;-0.030457
5460.000000;-0.030611
5459.000000;-0.030838
5458.000000;-0.031067
5457.000000;-0.031237
5456.000000;-0.031328
5455.000000;-0.031447
5454.000000;-0.031750
5453.000000;-0.032134
5452.000000;-0.032281
5451.000000;-0.032130
5450.000000;-0.032028
5449.000000;-0.032257
5448.000000;-0.032567
5447.000000;-0.032528
5446.000000;-0.032305
5445.000000;-0.032446
5444.000000;-0.033008
5443.000000;-0.033470
5442.000000;-0.033486
5441.000000;-0.033307
5440.000000;-0.033425
5439.000000;-0.033907
5438.000000;-0.034338
5437.000000;-0.034403
5436.000000;-0.034195
5435.000000;-0.034058
5434.000000;-0.034296
5433.000000;-0.034838
5432.000000;-0.035279
5431.000000;-0.035357
5430.000000;-0.035236
5429.000000;-0.035295
5428.000000;-0.035697
5427.000000;-0.036220
5426.000000;-0.036592
5425.000000;-0.036780
5424.000000;-0.036930
5423.000000;-0.037200
5422.000000;-0.037610
5421.000000;-0.037926
5420.000000;-0.037916
5419.000000;-0.037743
5418.000000;-0.037759
5417.000000;-0.037960
5416.000000;-0.037968
5415.000000;-0.037646
5414.000000;-0.037430
5413.000000;-0.037712
5412.000000;-0.038212
5411.000000;-0.038444
5410.000000;-0.038481
5409.000000;-0.038779
5408.000000;-0.039385
5407.000000;-0.039906
5406.000000;-0.040138
5405.000000;-0.040318
5404.000000;-0.040651
5403.000000;-0.040945
5402.000000;-0.041079
5401.000000;-0.041207
5400.000000;-0.041317
5399.000000;-0.041276
5398.000000;-0.041175
5397.000000;-0.041264
5396.000000;-0.041537
5395.000000;-0.041673
5394.000000;-0.041627
5393.000000;-0.041741
5392.000000;-0.042117
5391.000000;-0.042441
5390.000000;-0.042560
5389.000000;-0.042714
5388.000000;-0.043071
5387.000000;-0.043403
5386.000000;-0.043504
5385.000000;-0.043631
5384.000000;-0.043976
5383.000000;-0.044180
5382.000000;-0.044027
5381.000000;-0.043929
5380.000000;-0.044220
5379.000000;-0.044587
5378.000000;-0.044591
5377.000000;-0.044440
5376.000000;-0.044649
5375.000000;-0.045134
5374.000000;-0.045409
5373.000000;-0.045458
5372.000000;-0.045687
5371.000000;-0.046176
5370.000000;-0.046571
5369.000000;-0.046720
5368.000000;-0.046908
5367.000000;-0.047262
5366.000000;-0.047524
5365.000000;-0.047591
5364.000000;-0.047707
5363.000000;-0.047979
5362.000000;-0.048232
5361.000000;-0.048324
5360.000000;-0.048323
5359.000000;-0.048339
5358.000000;-0.048413
5357.000000;-0.048591
5356.000000;-0.048859
5355.000000;-0.049011
5354.000000;-0.048898
5353.000000;-0.048801
5352.000000;-0.049042
5351.000000;-0.049312
5350.000000;-0.049161
5349.000000;-0.048872
5348.000000;-0.049068
5347.000000;-0.049666
5346.000000;-0.049894
5345.000000;-0.049473
5344.000000;-0.049132
5343.000000;-0.049449
5342.000000;-0.049913
5341.000000;-0.049859
5340.000000;-0.049519
5339.000000;-0.049543
5338.000000;-0.050045
5337.000000;-0.050607
5336.000000;-0.051007
5335.000000;-0.051340
5334.000000;-0.051555
5333.000000;-0.051593
5332.000000;-0.051736
5331.000000;-0.052191
5330.000000;-0.052660
5329.000000;-0.052756
5328.000000;-0.052591
5327.000000;-0.052655
5326.000000;-0.053072
5325.000000;-0.053443
5324.000000;-0.053537
5323.000000;-0.053580
5322.000000;-0.053790
5321.000000;-0.054105
5320.000000;-0.054396
5319.000000;-0.054643
5318.000000;-0.054851
5317.000000;-0.054982
5316.000000;-0.055053
5315.000000;-0.055152
5314.000000;-0.055248
5313.000000;-0.055258
5312.000000;-0.055286
5311.000000;-0.055484
5310.000000;-0.055753
5309.000000;-0.055851
5308.000000;-0.055771
5307.000000;-0.055778
5306.000000;-0.055989
5305.000000;-0.056226
5304.000000;-0.056355
5303.000000;-0.056498
5302.000000;-0.056776
5301.000000;-0.057081
5300.000000;-0.057242
5299.000000;-0.057294
5298.000000;-0.057395
5297.000000;-0.057517
5296.000000;-0.057532
5295.000000;-0.057533
5294.000000;-0.057700
5293.000000;-0.057977
5292.000000;-0.058096
5291.000000;-0.057960
5290.000000;-0.057842
5289.000000;-0.058010
5288.000000;-0.058333
5287.000000;-0.058481
5286.000000;-0.058404
5285.000000;-0.058389
5284.000000;-0.058626
5283.000000;-0.058941
5282.000000;-0.059101
5281.000000;-0.059163
5280.000000;-0.059329
5279.000000;-0.059606
5278.000000;-0.059835
5277.000000;-0.059962
5276.000000;-0.060062
5275.000000;-0.060184
5274.000000;-0.060289
5273.000000;-0.060351
5272.000000;-0.060416
5271.000000;-0.060436
5270.000000;-0.060308
5269.000000;-0.060133
5268.000000;-0.060131
5267.000000;-0.060264
5266.000000;-0.060272
5265.000000;-0.060099
5264.000000;-0.060018
5263.000000;-0.060250
5262.000000;-0.060612
5261.000000;-0.060787
5260.000000;-0.060824
5259.000000;-0.061009
5258.000000;-0.061357
5257.000000;-0.061599
5256.000000;-0.061591
5255.000000;-0.061504
5254.000000;-0.061556
5253.000000;-0.061735
5252.000000;-0.061910
5251.000000;-0.061967
5250.000000;-0.061853
5249.000000;-0.061704
5248.000000;-0.061768
5247.000000;-0.062089
5246.000000;-0.062394
5245.000000;-0.062428
5244.000000;-0.062358
5243.000000;-0.062605
5242.000000;-0.063218
5241.000000;-0.063731
5240.000000;-0.063828
5239.000000;-0.063765
5238.000000;-0.063879
5237.000000;-0.064076
5236.000000;-0.064120
5235.000000;-0.064089
5234.000000;-0.064202
5233.000000;-0.064394
5232.000000;-0.064398
5231.000000;-0.064234
5230.000000;-0.064230
5229.000000;-0.064475
5228.000000;-0.064648
5227.000000;-0.064544
5226.000000;-0.064384
5225.000000;-0.064454
5224.000000;-0.064708
5223.000000;-0.064927
5222.000000;-0.065077
5221.000000;-0.065257
5220.000000;-0.065478
5219.000000;-0.065695
5218.000000;-0.065898
5217.000000;-0.066095
5216.000000;-0.066226
5215.000000;-0.066239
5214.000000;-0.066232
5213.000000;-0.066317
5212.000000;-0.066423
5211.000000;-0.066437
5210.000000;-0.066388
5209.000000;-0.066342
5208.000000;-0.066255
5207.000000;-0.066104
5206.000000;-0.066059
5205.000000;-0.066298
5204.000000;-0.066688
5203.000000;-0.066930
5202.000000;-0.066999
5201.000000;-0.067144
5200.000000;-0.067448
5199.000000;-0.067675
5198.000000;-0.067654
5197.000000;-0.067595
5196.000000;-0.067753
5195.000000;-0.068019
5194.000000;-0.068147
5193.000000;-0.068142
5192.000000;-0.068165
5191.000000;-0.068250
5190.000000;-0.068321
5189.000000;-0.068405
5188.000000;-0.068575
5187.000000;-0.068724
5186.000000;-0.068679
5185.000000;-0.068539
5184.000000;-0.068594
5183.000000;-0.068878
5182.000000;-0.069129
5181.000000;-0.069203
5180.000000;-0.069260
5179.000000;-0.069441
5178.000000;-0.069631
5177.000000;-0.069692
5176.000000;-0.069705
5175.000000;-0.069816
5174.000000;-0.069981
5173.000000;-0.070073
5172.000000;-0.070099
5171.000000;-0.070147
5170.000000;-0.070236
5169.000000;-0.070343
5168.000000;-0.070497
5167.000000;-0.070692
5166.000000;-0.070826
5165.000000;-0.070833
5164.000000;-0.070806
5163.000000;-0.070854
5162.000000;-0.070929
5161.000000;-0.070932
5160.000000;-0.070901
5159.000000;-0.070941
5158.000000;-0.071041
5157.000000;-0.071102
5156.000000;-0.071114
5155.000000;-0.071169
5154.000000;-0.071282
5153.000000;-0.071380
5152.000000;-0.071450
5151.000000;-0.071567
5150.000000;-0.071746
5149.000000;-0.071900
5148.000000;-0.071967
5147.000000;-0.071993
5146.000000;-0.072050
5145.000000;-0.072144
5144.000000;-0.072233
5143.000000;-0.072295
5142.000000;-0.072337
5141.000000;-0.072385
5140.000000;-0.072459
5139.000000;-0.072565
5138.000000;-0.072694
5137.000000;-0.072846
5136.000000;-0.073031
5135.000000;-0.073226
5134.000000;-0.073372
5133.000000;-0.073439
5132.000000;-0.073466
5131.000000;-0.073495
5130.000000;-0.073528
5129.000000;-0.073561
5128.000000;-0.073619
5127.000000;-0.073707
5126.000000;-0.073768
5125.000000;-0.073762
5124.000000;-0.073744
5123.000000;-0.073797
5122.000000;-0.073924
5121.000000;-0.074072
5120.000000;-0.074217
5119.000000;-0.074359
5118.000000;-0.074476
5117.000000;-0.074541
5116.000000;-0.074579
5115.000000;-0.074646
5114.000000;-0.074754
5113.000000;-0.074885
5112.000000;-0.075035
5111.000000;-0.075202
5110.000000;-0.075341
5109.000000;-0.075408
5108.000000;-0.075428
5107.000000;-0.075468
5106.000000;-0.075548
5105.000000;-0.075634
5104.000000;-0.075717
5103.000000;-0.075811
5102.000000;-0.075915
5101.000000;-0.076007
5100.000000;-0.076088
5099.000000;-0.076175
5098.000000;-0.076260
5097.000000;-0.076317
5096.000000;-0.076344
5095.000000;-0.076358
5094.000000;-0.076364
5093.000000;-0.076370
5092.000000;-0.076405
5091.000000;-0.076482
5090.000000;-0.076560
5089.000000;-0.076593
5088.000000;-0.076591
5087.000000;-0.076593
5086.000000;-0.076611
5085.000000;-0.076634
5084.000000;-0.076690
5083.000000;-0.076816
5082.000000;-0.076992
5081.000000;-0.077150
5080.000000;-0.077257
5079.000000;-0.077334
5078.000000;-0.077414
5077.000000;-0.077509
5076.000000;-0.077629
5075.000000;-0.077771
5074.000000;-0.077903
5073.000000;-0.077992
5072.000000;-0.078049
5071.000000;-0.078109
5070.000000;-0.078182
5069.000000;-0.078248
5068.000000;-0.078308
5067.000000;-0.078385
5066.000000;-0.078476
5065.000000;-0.078548
5064.000000;-0.078585
5063.000000;-0.078598
5062.000000;-0.078600
5061.000000;-0.078602
5060.000000;-0.078621
5059.000000;-0.078670
5058.000000;-0.078731
5057.000000;-0.078769
5056.000000;-0.078782
5055.000000;-0.078797
5054.000000;-0.078830
5053.000000;-0.078887
5052.000000;-0.078978
5051.000000;-0.079102
5050.000000;-0.079227
5049.000000;-0.079316
5048.000000;-0.079375
5047.000000;-0.079438
5046.000000;-0.079522
5045.000000;-0.079622
5044.000000;-0.079740
5043.000000;-0.079877
5042.000000;-0.080001
5041.000000;-0.080078
5040.000000;-0.080115
5039.000000;-0.080150
5038.000000;-0.080204
5037.000000;-0.080270
5036.000000;-0.080340
5035.000000;-0.080410
5034.000000;-0.080469
5033.000000;-0.080514
5032.000000;-0.080572
5031.000000;-0.080678
5030.000000;-0.080825
5029.000000;-0.080965
5028.000000;-0.081061
5027.000000;-0.081112
5026.000000;-0.081139
5025.000000;-0.081168
5024.000000;-0.081215
5023.000000;-0.081275
5022.000000;-0.081326
5021.000000;-0.081368
5020.000000;-0.081440
5019.000000;-0.081567
5018.000000;-0.081709
5017.000000;-0.081802
5016.000000;-0.081834
5015.000000;-0.081856
5014.000000;-0.081923
5013.000000;-0.082047
5012.000000;-0.082202
5011.000000;-0.082341
5010.000000;-0.082422
5009.000000;-0.082441
5008.000000;-0.082431
5007.000000;-0.082430
5006.000000;-0.082448
5005.000000;-0.082489
5004.000000;-0.082564
5003.000000;-0.082669
5002.000000;-0.082742
5001.000000;-0.082800
5000.000000;-0.082836
4999.000000;-0.082888
4998.000000;-0.082961
4997.000000;-0.083030
4996.000000;-0.083088
4995.000000;-0.083145
4994.000000;-0.083196
4993.000000;-0.083234
4992.000000;-0.083277
4991.000000;-0.083354
4990.000000;-0.083461
4989.000000;-0.083569
4988.000000;-0.083670
4987.000000;-0.083777
4986.000000;-0.083893
4985.000000;-0.084016
4984.000000;-0.084146
4983.000000;-0.084276
4982.000000;-0.084375
4981.000000;-0.084420
4980.000000;-0.084431
4979.000000;-0.084458
4978.000000;-0.084529
4977.000000;-0.084639
4976.000000;-0.084772
4975.000000;-0.084914
4974.000000;-0.085041
4973.000000;-0.085135
4972.000000;-0.085203
4971.000000;-0.085258
4970.000000;-0.085297
4969.000000;-0.085325
4968.000000;-0.085375
4967.000000;-0.085478
4966.000000;-0.085614
4965.000000;-0.085726
4964.000000;-0.085783
4963.000000;-0.085807
4962.000000;-0.085840
4961.000000;-0.085912
4960.000000;-0.086028
4959.000000;-0.086153
4958.000000;-0.086237
4957.000000;-0.086266
4956.000000;-0.086285
4955.000000;-0.086345
4954.000000;-0.086448
4953.000000;-0.086568
4952.000000;-0.086694
4951.000000;-0.086825
4950.000000;-0.086935
4949.000000;-0.086994
4948.000000;-0.087007
4947.000000;-0.087010
4946.000000;-0.087032
4945.000000;-0.087088
4944.000000;-0.087188
4943.000000;-0.087332
4942.000000;-0.087485
4941.000000;-0.087614
4940.000000;-0.087725
4939.000000;-0.087854
4938.000000;-0.088004
4937.000000;-0.088139
4936.000000;-0.088226
4935.000000;-0.088269
4934.000000;-0.088293
4933.000000;-0.088324
4932.000000;-0.088382
4931.000000;-0.088472
4930.000000;-0.088582
4929.000000;-0.088698
4928.000000;-0.088821
4927.000000;-0.088944
4926.000000;-0.089046
4925.000000;-0.089122
4924.000000;-0.089203
4923.000000;-0.089324
4922.000000;-0.089479
4921.000000;-0.089635
4920.000000;-0.089770
4919.000000;-0.089877
4918.000000;-0.089945
4917.000000;-0.089974
4916.000000;-0.090001
4915.000000;-0.090075
4914.000000;-0.090209
4913.000000;-0.090378
4912.000000;-0.090545
4911.000000;-0.090676
4910.000000;-0.090743
4909.000000;-0.090755
4908.000000;-0.090773
4907.000000;-0.090861
4906.000000;-0.091017
4905.000000;-0.091193
4904.000000;-0.091358
4903.000000;-0.091517
4902.000000;-0.091678
4901.000000;-0.091835
4900.000000;-0.091989
4899.000000;-0.092141
4898.000000;-0.092276
4897.000000;-0.092368
4896.000000;-0.092417
4895.000000;-0.092454
4894.000000;-0.092511
4893.000000;-0.092600
4892.000000;-0.092726
4891.000000;-0.092883
4890.000000;-0.093047
4889.000000;-0.093192
4888.000000;-0.093315
4887.000000;-0.093429
4886.000000;-0.093530
4885.000000;-0.093609
4884.000000;-0.093677
4883.000000;-0.093763
4882.000000;-0.093876
4881.000000;-0.093994
4880.000000;-0.094099
4879.000000;-0.094186
4878.000000;-0.094260
4877.000000;-0.094334
4876.000000;-0.094423
4875.000000;-0.094525
4874.000000;-0.094617
4873.000000;-0.094678
4872.000000;-0.094722
4871.000000;-0.094780
4870.000000;-0.094859
4869.000000;-0.094952
4868.000000;-0.095064
4867.000000;-0.095204
4866.000000;-0.095354
4865.000000;-0.095476
4864.000000;-0.095559
4863.000000;-0.095638
4862.000000;-0.095755
4861.000000;-0.095910
4860.000000;-0.096067
4859.000000;-0.096181
4858.000000;-0.096241
4857.000000;-0.096278
4856.000000;-0.096345
4855.000000;-0.096470
4854.000000;-0.096633
4853.000000;-0.096799
4852.000000;-0.096954
4851.000000;-0.097094
4850.000000;-0.097197
4849.000000;-0.097249
4848.000000;-0.097266
4847.000000;-0.097293
4846.000000;-0.097355
4845.000000;-0.097449
4844.000000;-0.097557
4843.000000;-0.097660
4842.000000;-0.097741
4841.000000;-0.097801
4840.000000;-0.097864
4839.000000;-0.097961
4838.000000;-0.098095
4837.000000;-0.098245
4836.000000;-0.098396
4835.000000;-0.098533
4834.000000;-0.098643
4833.000000;-0.098719
4832.000000;-0.098776
4831.000000;-0.098844
4830.000000;-0.098942
4829.000000;-0.099077
4828.000000;-0.099238
4827.000000;-0.099394
4826.000000;-0.099516
4825.000000;-0.099609
4824.000000;-0.099712
4823.000000;-0.099846
4822.000000;-0.099982
4821.000000;-0.100089
4820.000000;-0.100177
4819.000000;-0.100266
4818.000000;-0.100340
4817.000000;-0.100376
4816.000000;-0.100396
4815.000000;-0.100453
4814.000000;-0.100564
4813.000000;-0.100698
4812.000000;-0.100818
4811.000000;-0.100912
4810.000000;-0.100980
4809.000000;-0.101031
4808.000000;-0.101097
4807.000000;-0.101215
4806.000000;-0.101382
4805.000000;-0.101545
4804.000000;-0.101654
4803.000000;-0.101702
4802.000000;-0.101717
4801.000000;-0.101745
4800.000000;-0.101823
4799.000000;-0.101967
4798.000000;-0.102151
4797.000000;-0.102321
4796.000000;-0.102433
4795.000000;-0.102475
4794.000000;-0.102477
4793.000000;-0.102502
4792.000000;-0.102605
4791.000000;-0.102783
4790.000000;-0.102970
4789.000000;-0.103095
4788.000000;-0.103144
4787.000000;-0.103162
4786.000000;-0.103210
4785.000000;-0.103329
4784.000000;-0.103519
4783.000000;-0.103725
4782.000000;-0.103866
4781.000000;-0.103902
4780.000000;-0.103878
4779.000000;-0.103871
4778.000000;-0.103919
4777.000000;-0.104011
4776.000000;-0.104123
4775.000000;-0.104230
4774.000000;-0.104297
4773.000000;-0.104312
4772.000000;-0.104304
4771.000000;-0.104328
4770.000000;-0.104406
4769.000000;-0.104520
4768.000000;-0.104651
4767.000000;-0.104782
4766.000000;-0.104889
4765.000000;-0.104948
4764.000000;-0.104968
4763.000000;-0.104987
4762.000000;-0.105031
4761.000000;-0.105103
4760.000000;-0.105198
4759.000000;-0.105312
4758.000000;-0.105428
4757.000000;-0.105533
4756.000000;-0.105626
4755.000000;-0.105719
4754.000000;-0.105806
4753.000000;-0.105879
4752.000000;-0.105944
4751.000000;-0.106017
4750.000000;-0.106098
4749.000000;-0.106165
4748.000000;-0.106216
4747.000000;-0.106270
4746.000000;-0.106360
4745.000000;-0.106506
4744.000000;-0.106698
4743.000000;-0.106885
4742.000000;-0.107003
4741.000000;-0.107036
4740.000000;-0.107038
4739.000000;-0.107071
4738.000000;-0.107148
4737.000000;-0.107245
4736.000000;-0.107351
4735.000000;-0.107468
4734.000000;-0.107574
4733.000000;-0.107642
4732.000000;-0.107681
4731.000000;-0.107733
4730.000000;-0.107812
4729.000000;-0.107897
4728.000000;-0.107970
4727.000000;-0.108038
4726.000000;-0.108118
4725.000000;-0.108219
4724.000000;-0.108343
4723.000000;-0.108484
4722.000000;-0.108621
4721.000000;-0.108725
4720.000000;-0.108785
4719.000000;-0.108811
4718.000000;-0.108813
4717.000000;-0.108808
4716.000000;-0.108828
4715.000000;-0.108900
4714.000000;-0.109016
4713.000000;-0.109133
4712.000000;-0.109217
4711.000000;-0.109249
4710.000000;-0.109239
4709.000000;-0.109220
4708.000000;-0.109247
4707.000000;-0.109343
4706.000000;-0.109479
4705.000000;-0.109600
4704.000000;-0.109678
4703.000000;-0.109714
4702.000000;-0.109714
4701.000000;-0.109701
4700.000000;-0.109728
4699.000000;-0.109833
4698.000000;-0.109986
4697.000000;-0.110109
4696.000000;-0.110160
4695.000000;-0.110158
4694.000000;-0.110147
4693.000000;-0.110157
4692.000000;-0.110206
4691.000000;-0.110305
4690.000000;-0.110442
4689.000000;-0.110589
4688.000000;-0.110712
4687.000000;-0.110782
4686.000000;-0.110789
4685.000000;-0.110765
4684.000000;-0.110781
4683.000000;-0.110876
4682.000000;-0.110995
4681.000000;-0.111042
4680.000000;-0.110985
4679.000000;-0.110885
4678.000000;-0.110818
4677.000000;-0.110807
4676.000000;-0.110838
4675.000000;-0.110899
4674.000000;-0.110987
4673.000000;-0.111095
4672.000000;-0.111212
4671.000000;-0.111321
4670.000000;-0.111394
4669.000000;-0.111421
4668.000000;-0.111428
4667.000000;-0.111452
4666.000000;-0.111493
4665.000000;-0.111521
4664.000000;-0.111520
4663.000000;-0.111509
4662.000000;-0.111502
4661.000000;-0.111496
4660.000000;-0.111477
4659.000000;-0.111446
4658.000000;-0.111409
4657.000000;-0.111376
4656.000000;-0.111365
4655.000000;-0.111385
4654.000000;-0.111419
4653.000000;-0.111449
4652.000000;-0.111482
4651.000000;-0.111538
4650.000000;-0.111592
4649.000000;-0.111592
4648.000000;-0.111524
4647.000000;-0.111439
4646.000000;-0.111398
4645.000000;-0.111418
4644.000000;-0.111481
4643.000000;-0.111559
4642.000000;-0.111611
4641.000000;-0.111587
4640.000000;-0.111476
4639.000000;-0.111322
4638.000000;-0.111201
4637.000000;-0.111163
4636.000000;-0.111207
4635.000000;-0.111298
4634.000000;-0.111390
4633.000000;-0.111444
4632.000000;-0.111454
4631.000000;-0.111441
4630.000000;-0.111431
4629.000000;-0.111430
4628.000000;-0.111431
4627.000000;-0.111418
4626.000000;-0.111375
4625.000000;-0.111305
4624.000000;-0.111232
4623.000000;-0.111186
4622.000000;-0.111165
4621.000000;-0.111144
4620.000000;-0.111103
4619.000000;-0.111046
4618.000000;-0.110982
4617.000000;-0.110911
4616.000000;-0.110834
4615.000000;-0.110751
4614.000000;-0.110661
4613.000000;-0.110581
4612.000000;-0.110535
4611.000000;-0.110519
4610.000000;-0.110479
4609.000000;-0.110358
4608.000000;-0.110166
4607.000000;-0.109976
4606.000000;-0.109840
4605.000000;-0.109751
4604.000000;-0.109669
4603.000000;-0.109578
4602.000000;-0.109479
4601.000000;-0.109373
4600.000000;-0.109259
4599.000000;-0.109141
4598.000000;-0.109024
4597.000000;-0.108894
4596.000000;-0.108743
4595.000000;-0.108586
4594.000000;-0.108451
4593.000000;-0.108351
4592.000000;-0.108275
4591.000000;-0.108195
4590.000000;-0.108100
4589.000000;-0.108001
4588.000000;-0.107912
4587.000000;-0.107822
4586.000000;-0.107710
4585.000000;-0.107572
4584.000000;-0.107438
4583.000000;-0.107329
4582.000000;-0.107210
4581.000000;-0.107009
4580.000000;-0.106690
4579.000000;-0.106290
4578.000000;-0.105897
4577.000000;-0.105576
4576.000000;-0.105336
4575.000000;-0.105129
4574.000000;-0.104889
4573.000000;-0.104579
4572.000000;-0.104210
4571.000000;-0.103816
4570.000000;-0.103419
4569.000000;-0.103033
4568.000000;-0.102674
4567.000000;-0.102339
4566.000000;-0.102014
4565.000000;-0.101685
4564.000000;-0.101360
4563.000000;-0.101045
4562.000000;-0.100723
4561.000000;-0.100377
4560.000000;-0.100016
4559.000000;-0.099648
4558.000000;-0.099242
4557.000000;-0.098759
4556.000000;-0.098220
4555.000000;-0.097699
4554.000000;-0.097247
4553.000000;-0.096848
4552.000000;-0.096448
4551.000000;-0.096006
4550.000000;-0.095498
4549.000000;-0.094911
4548.000000;-0.094264
4547.000000;-0.093613
4546.000000;-0.093019
4545.000000;-0.092500
4544.000000;-0.092031
4543.000000;-0.091555
4542.000000;-0.091021
4541.000000;-0.090409
4540.000000;-0.089754
4539.000000;-0.089126
4538.000000;-0.088583
4537.000000;-0.088137
4536.000000;-0.087755
4535.000000;-0.087384
4534.000000;-0.086980
4533.000000;-0.086528
4532.000000;-0.086061
4531.000000;-0.085626
4530.000000;-0.085247
4529.000000;-0.084911
4528.000000;-0.084588
4527.000000;-0.084257
4526.000000;-0.083907
4525.000000;-0.083547
4524.000000;-0.083206
4523.000000;-0.082913
4522.000000;-0.082673
4521.000000;-0.082466
4520.000000;-0.082274
4519.000000;-0.082086
4518.000000;-0.081892
4517.000000;-0.081687
4516.000000;-0.081471
4515.000000;-0.081258
4514.000000;-0.081051
4513.000000;-0.080845
4512.000000;-0.080619
4511.000000;-0.080347
4510.000000;-0.080020
4509.000000;-0.079667
4508.000000;-0.079349
4507.000000;-0.079107
4506.000000;-0.078931
4505.000000;-0.078782
4504.000000;-0.078637
4503.000000;-0.078487
4502.000000;-0.078316
4501.000000;-0.078111
4500.000000;-0.077887
4499.000000;-0.077671
4498.000000;-0.077464
4497.000000;-0.077241
4496.000000;-0.076985
4495.000000;-0.076708
4494.000000;-0.076421
4493.000000;-0.076121
4492.000000;-0.075826
4491.000000;-0.075571
4490.000000;-0.075371
4489.000000;-0.075182
4488.000000;-0.074938
4487.000000;-0.074606
4486.000000;-0.074219
4485.000000;-0.073839
4484.000000;-0.073507
4483.000000;-0.073220
4482.000000;-0.072946
4481.000000;-0.072661
4480.000000;-0.072358
4479.000000;-0.072032
4478.000000;-0.071673
4477.000000;-0.071291
4476.000000;-0.070926
4475.000000;-0.070600
4474.000000;-0.070283
4473.000000;-0.069912
4472.000000;-0.069459
4471.000000;-0.068965
4470.000000;-0.068499
4469.000000;-0.068111
4468.000000;-0.067808
4467.000000;-0.067540
4466.000000;-0.067239
4465.000000;-0.066859
4464.000000;-0.066414
4463.000000;-0.065935
4462.000000;-0.065433
4461.000000;-0.064896
4460.000000;-0.064340
4459.000000;-0.063811
4458.000000;-0.063339
4457.000000;-0.062906
4456.000000;-0.062470
4455.000000;-0.062013
4454.000000;-0.061556
4453.000000;-0.061128
4452.000000;-0.060742
4451.000000;-0.060371
4450.000000;-0.059974
4449.000000;-0.059529
4448.000000;-0.059045
4447.000000;-0.058535
4446.000000;-0.058004
4445.000000;-0.057467
4444.000000;-0.056961
4443.000000;-0.056502
4442.000000;-0.056055
4441.000000;-0.055566
4440.000000;-0.055033
4439.000000;-0.054498
4438.000000;-0.053989
4437.000000;-0.053488
4436.000000;-0.052959
4435.000000;-0.052392
4434.000000;-0.051801
4433.000000;-0.051201
4432.000000;-0.050602
4431.000000;-0.050018
4430.000000;-0.049465
4429.000000;-0.048956
4428.000000;-0.048482
4427.000000;-0.047995
4426.000000;-0.047435
4425.000000;-0.046788
4424.000000;-0.046111
4423.000000;-0.045480
4422.000000;-0.044924
4421.000000;-0.044420
4420.000000;-0.043924
4419.000000;-0.043395
4418.000000;-0.042794
4417.000000;-0.042114
4416.000000;-0.041387
4415.000000;-0.040657
4414.000000;-0.039938
4413.000000;-0.039229
4412.000000;-0.038540
4411.000000;-0.037892
4410.000000;-0.037279
4409.000000;-0.036675
4408.000000;-0.036062
4407.000000;-0.035442
4406.000000;-0.034811
4405.000000;-0.034160
4404.000000;-0.033486
4403.000000;-0.032799
4402.000000;-0.032099
4401.000000;-0.031383
4400.000000;-0.030645
4399.000000;-0.029888
4398.000000;-0.029113
4397.000000;-0.028326
4396.000000;-0.027540
4395.000000;-0.026751
4394.000000;-0.025939
4393.000000;-0.025100
4392.000000;-0.024267
4391.000000;-0.023464
4390.000000;-0.022675
4389.000000;-0.021881
4388.000000;-0.021096
4387.000000;-0.020328
4386.000000;-0.019522
4385.000000;-0.018610
4384.000000;-0.017606
4383.000000;-0.016602
4382.000000;-0.015664
4381.000000;-0.014769
4380.000000;-0.013857
4379.000000;-0.012903
4378.000000;-0.011915
4377.000000;-0.010903
4376.000000;-0.009880
4375.000000;-0.008877
4374.000000;-0.007926
4373.000000;-0.007036
4372.000000;-0.006177
4371.000000;-0.005281
4370.000000;-0.004277
4369.000000;-0.003138
4368.000000;-0.001923
4367.000000;-0.000734
4366.000000;0.000374
4365.000000;0.001418
4364.000000;0.002450
4363.000000;0.003505
4362.000000;0.004586
4361.000000;0.005686
4360.000000;0.006790
4359.000000;0.007888
4358.000000;0.008983
4357.000000;0.010088
4356.000000;0.011210
4355.000000;0.012362
4354.000000;0.013566
4353.000000;0.014830
4352.000000;0.016126
4351.000000;0.017411
4350.000000;0.018671
4349.000000;0.019932
4348.000000;0.021227
4347.000000;0.022578
4346.000000;0.023979
4345.000000;0.025388
4344.000000;0.026729
4343.000000;0.027951
4342.000000;0.029092
4341.000000;0.030257
4340.000000;0.031543
4339.000000;0.032967
4338.000000;0.034466
4337.000000;0.035949
4336.000000;0.037350
4335.000000;0.038681
4334.000000;0.040004
4333.000000;0.041367
4332.000000;0.042757
4331.000000;0.044145
4330.000000;0.045544
4329.000000;0.046978
4328.000000;0.048430
4327.000000;0.049849
4326.000000;0.051218
4325.000000;0.052562
4324.000000;0.053910
4323.000000;0.055282
4322.000000;0.056710
4321.000000;0.058229
4320.000000;0.059826
4319.000000;0.061435
4318.000000;0.062995
4317.000000;0.064493
4316.000000;0.065957
4315.000000;0.067432
4314.000000;0.068949
4313.000000;0.070505
4312.000000;0.072064
4311.000000;0.073591
4310.000000;0.075094
4309.000000;0.076618
4308.000000;0.078219
4307.000000;0.079943
4306.000000;0.081783
4305.000000;0.083647
4304.000000;0.085390
4303.000000;0.086941
4302.000000;0.088377
4301.000000;0.089851
4300.000000;0.091450
4299.000000;0.093162
4298.000000;0.094931
4297.000000;0.096699
4296.000000;0.098407
4295.000000;0.100047
4294.000000;0.101694
4293.000000;0.103457
4292.000000;0.105374
4291.000000;0.107379
4290.000000;0.109354
4289.000000;0.111202
4288.000000;0.112890
4287.000000;0.114481
4286.000000;0.116105
4285.000000;0.117854
4284.000000;0.119710
4283.000000;0.121599
4282.000000;0.123488
4281.000000;0.125374
4280.000000;0.127229
4279.000000;0.129041
4278.000000;0.130878
4277.000000;0.132832
4276.000000;0.134893
4275.000000;0.136951
4274.000000;0.138915
4273.000000;0.140775
4272.000000;0.142544
4271.000000;0.144247
4270.000000;0.145978
4269.000000;0.147876
4268.000000;0.149997
4267.000000;0.152264
4266.000000;0.154550
4265.000000;0.156762
4264.000000;0.158844
4263.000000;0.160780
4262.000000;0.162631
4261.000000;0.164506
4260.000000;0.166479
4259.000000;0.168556
4258.000000;0.170737
4257.000000;0.173009
4256.000000;0.175279
4255.000000;0.177411
4254.000000;0.179396
4253.000000;0.181403
4252.000000;0.183589
4251.000000;0.185924
4250.000000;0.188246
4249.000000;0.190431
4248.000000;0.192467
4247.000000;0.194413
4246.000000;0.196385
4245.000000;0.198527
4244.000000;0.200898
4243.000000;0.203385
4242.000000;0.205786
4241.000000;0.207971
4240.000000;0.209957
4239.000000;0.211860
4238.000000;0.213827
4237.000000;0.215990
4236.000000;0.218392
4235.000000;0.220948
4234.000000;0.223503
4233.000000;0.225946
4232.000000;0.228268
4231.000000;0.230546
4230.000000;0.232904
4229.000000;0.235459
4228.000000;0.238233
4227.000000;0.241107
4226.000000;0.243897
4225.000000;0.246503
4224.000000;0.248968
4223.000000;0.251403
4222.000000;0.253893
4221.000000;0.256466
4220.000000;0.259095
4219.000000;0.261730
4218.000000;0.264330
4217.000000;0.266900
4216.000000;0.269485
4215.000000;0.272146
4214.000000;0.274930
4213.000000;0.277837
4212.000000;0.280771
4211.000000;0.283575
4210.000000;0.286152
4209.000000;0.288588
4208.000000;0.291116
4207.000000;0.293922
4206.000000;0.296998
4205.000000;0.300181
4204.000000;0.303324
4203.000000;0.306390
4202.000000;0.309390
4201.000000;0.312298
4200.000000;0.315070
4199.000000;0.317746
4198.000000;0.320459
4197.000000;0.323343
4196.000000;0.326434
4195.000000;0.329669
4194.000000;0.332944
4193.000000;0.336160
4192.000000;0.339263
4191.000000;0.342295
4190.000000;0.345384
4189.000000;0.348635
4188.000000;0.352015
4187.000000;0.355376
4186.000000;0.358591
4185.000000;0.361692
4184.000000;0.364874
4183.000000;0.368345
4182.000000;0.372148
4181.000000;0.376086
4180.000000;0.379856
4179.000000;0.383291
4178.000000;0.386467
4177.000000;0.389587
4176.000000;0.392790
4175.000000;0.396076
4174.000000;0.399366
4173.000000;0.402604
4172.000000;0.405805
4171.000000;0.409043
4170.000000;0.412393
4169.000000;0.415872
4168.000000;0.419460
4167.000000;0.423156
4166.000000;0.426957
4165.000000;0.430784
4164.000000;0.434503
4163.000000;0.438057
4162.000000;0.441510
4161.000000;0.444933
4160.000000;0.448332
4159.000000;0.451725
4158.000000;0.455224
4157.000000;0.458939
4156.000000;0.462845
4155.000000;0.466821
4154.000000;0.470788
4153.000000;0.474745
4152.000000;0.478697
4151.000000;0.482603
4150.000000;0.486406
4149.000000;0.490068
4148.000000;0.493597
4147.000000;0.497079
4146.000000;0.500653
4145.000000;0.504414
4144.000000;0.508357
4143.000000;0.512422
4142.000000;0.516560
4141.000000;0.520712
4140.000000;0.524781
4139.000000;0.528696
4138.000000;0.532480
4137.000000;0.536239
4136.000000;0.540063
4135.000000;0.543965
4134.000000;0.547857
4133.000000;0.551612
4132.000000;0.555174
4131.000000;0.558642
4130.000000;0.562176
4129.000000;0.565840
4128.000000;0.569605
4127.000000;0.573470
4126.000000;0.577443
4125.000000;0.581427
4124.000000;0.585279
4123.000000;0.589054
4122.000000;0.593000
4121.000000;0.597197
4120.000000;0.601352
4119.000000;0.605120
4118.000000;0.608517
4117.000000;0.611854
4116.000000;0.615325
4115.000000;0.618847
4114.000000;0.622291
4113.000000;0.625707
4112.000000;0.629270
4111.000000;0.633113
4110.000000;0.637234
4109.000000;0.641517
4108.000000;0.645789
4107.000000;0.649910
4106.000000;0.653850
4105.000000;0.657684
4104.000000;0.661522
4103.000000;0.665406
4102.000000;0.669268
4101.000000;0.673033
4100.000000;0.676761
4099.000000;0.680602
4098.000000;0.684542
4097.000000;0.688330
4096.000000;0.691794
4095.000000;0.695140
4094.000000;0.698724
4093.000000;0.702599
4092.000000;0.706486
4091.000000;0.710188
4090.000000;0.713790
4089.000000;0.717432
4088.000000;0.721118
4087.000000;0.724748
4086.000000;0.728174
4085.000000;0.731250
4084.000000;0.734079
4083.000000;0.737163
4082.000000;0.740982
4081.000000;0.745404
4080.000000;0.749794
4079.000000;0.753730
4078.000000;0.757267
4077.000000;0.760560
4076.000000;0.763710
4075.000000;0.767015
4074.000000;0.770821
4073.000000;0.774903
4072.000000;0.778533
4071.000000;0.781446
4070.000000;0.784282
4069.000000;0.787718
4068.000000;0.791626
4067.000000;0.795483
4066.000000;0.799124
4065.000000;0.802626
4064.000000;0.805837
4063.000000;0.808692
4062.000000;0.811731
4061.000000;0.815658
4060.000000;0.820410
4059.000000;0.825147
4058.000000;0.829134
4057.000000;0.832237
4056.000000;0.834618
4055.000000;0.836450
4054.000000;0.838033
4053.000000;0.839822
4052.000000;0.842197
4051.000000;0.845323
4050.000000;0.849165
4049.000000;0.853436
4048.000000;0.857620
4047.000000;0.861313
4046.000000;0.864455
4045.000000;0.867093
4044.000000;0.869145
4043.000000;0.870653
4042.000000;0.872037
4041.000000;0.873695
4040.000000;0.875538
4039.000000;0.877268
4038.000000;0.878999
4037.000000;0.881146
4036.000000;0.883772
4035.000000;0.886487
4034.000000;0.889072
4033.000000;0.891775
4032.000000;0.894812
4031.000000;0.897853
4030.000000;0.900276
4029.000000;0.901871
4028.000000;0.903171
4027.000000;0.905032
4026.000000;0.907817
4025.000000;0.910975
4024.000000;0.913530
4023.000000;0.915084
4022.000000;0.916128
4021.000000;0.917185
4020.000000;0.917967
4019.000000;0.917787
4018.000000;0.916676
4017.000000;0.915597
4016.000000;0.915410
4015.000000;0.915985
4014.000000;0.916553
4013.000000;0.916745
4012.000000;0.916977
4011.000000;0.917741
4010.000000;0.918729
4009.000000;0.918914
4008.000000;0.917652
4007.000000;0.915593
4006.000000;0.914208
4005.000000;0.914322
4004.000000;0.915228
4003.000000;0.915406
4002.000000;0.914067
4001.000000;0.911794
4000.000000;0.909673
3999.000000;0.908178
3998.000000;0.907065
3997.000000;0.906030
3996.000000;0.905066
3995.000000;0.904277
3994.000000;0.903668
3993.000000;0.903117
3992.000000;0.902252
3991.000000;0.900419
3990.000000;0.897224
3989.000000;0.893236
3988.000000;0.889720
3987.000000;0.887427
3986.000000;0.885953
3985.000000;0.884412
3984.000000;0.882352
3983.000000;0.879763
3982.000000;0.876702
3981.000000;0.873463
3980.000000;0.870691
3979.000000;0.868633
3978.000000;0.866534
3977.000000;0.863493
3976.000000;0.859838
3975.000000;0.856853
3974.000000;0.855092
3973.000000;0.853664
3972.000000;0.851355
3971.000000;0.847895
3970.000000;0.843882
3969.000000;0.840070
3968.000000;0.837044
3967.000000;0.835003
3966.000000;0.833351
3965.000000;0.830872
3964.000000;0.826847
3963.000000;0.821910
3962.000000;0.817476
3961.000000;0.814444
3960.000000;0.812602
3959.000000;0.810993
3958.000000;0.808649
3957.000000;0.805208
3956.000000;0.801112
3955.000000;0.797163
3954.000000;0.793762
3953.000000;0.790601
3952.000000;0.787054
3951.000000;0.782699
3950.000000;0.777552
3949.000000;0.772128
3948.000000;0.767274
3947.000000;0.763583
3946.000000;0.760752
3945.000000;0.757766
3944.000000;0.753875
3943.000000;0.749227
3942.000000;0.744456
3941.000000;0.739979
3940.000000;0.735926
3939.000000;0.732469
3938.000000;0.729679
3937.000000;0.727069
3936.000000;0.723640
3935.000000;0.718589
3934.000000;0.712065
3933.000000;0.705215
3932.000000;0.699427
3931.000000;0.695348
3930.000000;0.692521
3929.000000;0.689841
3928.000000;0.686314
3927.000000;0.681567
3926.000000;0.676048
3925.000000;0.670811
3924.000000;0.666679
3923.000000;0.663361
3922.000000;0.659699
3921.000000;0.655023
3920.000000;0.649930
3919.000000;0.645410
3918.000000;0.641568
3917.000000;0.637756
3916.000000;0.633708
3915.000000;0.629847
3914.000000;0.626465
3913.000000;0.623269
3912.000000;0.619874
3911.000000;0.616243
3910.000000;0.612386
3909.000000;0.608032
3908.000000;0.602854
3907.000000;0.596819
3906.000000;0.590241
3905.000000;0.583769
3904.000000;0.578228
3903.000000;0.574042
3902.000000;0.570804
3901.000000;0.567821
3900.000000;0.565014
3899.000000;0.562839
3898.000000;0.561338
3897.000000;0.559829
3896.000000;0.557716
3895.000000;0.555007
3894.000000;0.551851
3893.000000;0.548221
3892.000000;0.544403
3891.000000;0.541131
3890.000000;0.538683
3889.000000;0.536279
3888.000000;0.532929
3887.000000;0.528694
3886.000000;0.524593
3885.000000;0.521375
3884.000000;0.518888
3883.000000;0.516560
3882.000000;0.514075
3881.000000;0.511495
3880.000000;0.508984
3879.000000;0.506541
3878.000000;0.503913
3877.000000;0.500755
3876.000000;0.497049
3875.000000;0.493382
3874.000000;0.490516
3873.000000;0.488577
3872.000000;0.486896
3871.000000;0.484713
3870.000000;0.481808
3869.000000;0.478387
3868.000000;0.474733
3867.000000;0.471148
3866.000000;0.467967
3865.000000;0.465429
3864.000000;0.463529
3863.000000;0.462036
3862.000000;0.460633
3861.000000;0.459052
3860.000000;0.457148
3859.000000;0.454842
3858.000000;0.452085
3857.000000;0.448965
3856.000000;0.445877
3855.000000;0.443402
3854.000000;0.441693
3853.000000;0.440277
3852.000000;0.438650
3851.000000;0.436716
3850.000000;0.434692
3849.000000;0.432706
3848.000000;0.430564
3847.000000;0.427992
3846.000000;0.425066
3845.000000;0.422229
3844.000000;0.419796
3843.000000;0.417576
3842.000000;0.415135
3841.000000;0.412296
3840.000000;0.409311
3839.000000;0.406656
3838.000000;0.404716
3837.000000;0.403509
3836.000000;0.402691
3835.000000;0.401821
3834.000000;0.400607
3833.000000;0.398849
3832.000000;0.396282
3831.000000;0.392773
3830.000000;0.388769
3829.000000;0.385185
3828.000000;0.382588
3827.000000;0.380674
3826.000000;0.378789
3825.000000;0.376734
3824.000000;0.374792
3823.000000;0.373112
3822.000000;0.371456
3821.000000;0.369571
3820.000000;0.367505
3819.000000;0.365368
3818.000000;0.363101
3817.000000;0.360661
3816.000000;0.358111
3815.000000;0.355520
3814.000000;0.352989
3813.000000;0.350655
3812.000000;0.348504
3811.000000;0.346278
3810.000000;0.343725
3809.000000;0.340961
3808.000000;0.338413
3807.000000;0.336322
3806.000000;0.334532
3805.000000;0.332784
3804.000000;0.330919
3803.000000;0.328815
3802.000000;0.326380
3801.000000;0.323664
3800.000000;0.320962
3799.000000;0.318625
3798.000000;0.316675
3797.000000;0.314794
3796.000000;0.312598
3795.000000;0.309906
3794.000000;0.306949
3793.000000;0.304309
3792.000000;0.302422
3791.000000;0.301079
3790.000000;0.299558
3789.000000;0.297314
3788.000000;0.294432
3787.000000;0.291385
3786.000000;0.288548
3785.000000;0.286000
3784.000000;0.283572
3783.000000;0.281001
3782.000000;0.278194
3781.000000;0.275383
3780.000000;0.272878
3779.000000;0.270677
3778.000000;0.268573
3777.000000;0.266608
3776.000000;0.265077
3775.000000;0.263911
3774.000000;0.262441
3773.000000;0.260046
3772.000000;0.256778
3771.000000;0.253113
3770.000000;0.249406
3769.000000;0.245874
3768.000000;0.242815
3767.000000;0.240399
3766.000000;0.238327
3765.000000;0.236077
3764.000000;0.233461
3763.000000;0.230722
3762.000000;0.228117
3761.000000;0.225659
3760.000000;0.223256
3759.000000;0.220853
3758.000000;0.218355
3757.000000;0.215622
3756.000000;0.212653
3755.000000;0.209578
3754.000000;0.206448
3753.000000;0.203262
3752.000000;0.200174
3751.000000;0.197432
3750.000000;0.194974
3749.000000;0.192348
3748.000000;0.189330
3747.000000;0.186293
3746.000000;0.183858
3745.000000;0.182227
3744.000000;0.180785
3743.000000;0.178689
3742.000000;0.175681
3741.000000;0.172037
3740.000000;0.168329
3739.000000;0.165131
3738.000000;0.162527
3737.000000;0.160025
3736.000000;0.157133
3735.000000;0.153976
3734.000000;0.151076
3733.000000;0.148658
3732.000000;0.146465
3731.000000;0.144122
3730.000000;0.141504
3729.000000;0.138728
3728.000000;0.135902
3727.000000;0.132969
3726.000000;0.129815
3725.000000;0.126506
3724.000000;0.123248
3723.000000;0.120159
3722.000000;0.117247
3721.000000;0.114488
3720.000000;0.111810
3719.000000;0.109053
3718.000000;0.106135
3717.000000;0.103244
3716.000000;0.100595
3715.000000;0.097996
3714.000000;0.094964
3713.000000;0.091371
3712.000000;0.087623
3711.000000;0.084094
3710.000000;0.080681
3709.000000;0.077200
3708.000000;0.073903
3707.000000;0.071129
3706.000000;0.068659
3705.000000;0.065916
3704.000000;0.062712
3703.000000;0.059419
3702.000000;0.056462
3701.000000;0.053950
3700.000000;0.051721
3699.000000;0.049397
3698.000000;0.046436
3697.000000;0.042504
3696.000000;0.037948
3695.000000;0.033626
3694.000000;0.030122
3693.000000;0.027330
3692.000000;0.024839
3691.000000;0.022453
3690.000000;0.020192
3689.000000;0.017926
3688.000000;0.015219
3687.000000;0.011710
3686.000000;0.007496
3685.000000;0.003020
3684.000000;-0.001218
3683.000000;-0.004886
3682.000000;-0.007982
3681.000000;-0.010768
3680.000000;-0.013528
3679.000000;-0.016409
3678.000000;-0.019420
3677.000000;-0.022524
3676.000000;-0.025738
3675.000000;-0.029179
3674.000000;-0.032968
3673.000000;-0.037032
3672.000000;-0.041032
3671.000000;-0.044644
3670.000000;-0.047894
3669.000000;-0.051095
3668.000000;-0.054469
3667.000000;-0.057863
3666.000000;-0.060935
3665.000000;-0.063642
3664.000000;-0.066367
3663.000000;-0.069554
3662.000000;-0.073275
3661.000000;-0.077222
3660.000000;-0.081067
3659.000000;-0.084784
3658.000000;-0.088634
3657.000000;-0.092860
3656.000000;-0.097411
3655.000000;-0.101908
3654.000000;-0.105905
3653.000000;-0.109265
3652.000000;-0.112276
3651.000000;-0.115386
3650.000000;-0.118778
3649.000000;-0.122186
3648.000000;-0.125347
3647.000000;-0.128468
3646.000000;-0.131880
3645.000000;-0.135531
3644.000000;-0.139018
3643.000000;-0.142015
3642.000000;-0.144633
3641.000000;-0.147385
3640.000000;-0.150793
3639.000000;-0.154952
3638.000000;-0.159462
3637.000000;-0.163846
3636.000000;-0.168011
3635.000000;-0.172162
3634.000000;-0.176283
3633.000000;-0.179998
3632.000000;-0.183123
3631.000000;-0.186058
3630.000000;-0.189349
3629.000000;-0.192980
3628.000000;-0.196437
3627.000000;-0.199471
3626.000000;-0.202295
3625.000000;-0.205141
3624.000000;-0.208071
3623.000000;-0.211192
3622.000000;-0.214693
3621.000000;-0.218536
3620.000000;-0.222422
3619.000000;-0.226148
3618.000000;-0.229794
3617.000000;-0.233439
3616.000000;-0.236929
3615.000000;-0.240157
3614.000000;-0.243276
3613.000000;-0.246407
3612.000000;-0.249443
3611.000000;-0.252298
3610.000000;-0.255072
3609.000000;-0.257800
3608.000000;-0.260273
3607.000000;-0.262352
3606.000000;-0.264280
3605.000000;-0.266425
3604.000000;-0.268940
3603.000000;-0.271830
3602.000000;-0.275062
3601.000000;-0.278384
3600.000000;-0.281352
3599.000000;-0.283793
3598.000000;-0.286026
3597.000000;-0.288353
3596.000000;-0.290588
3595.000000;-0.292434
3594.000000;-0.294135
3593.000000;-0.296322
3592.000000;-0.299211
3591.000000;-0.302288
3590.000000;-0.304853
3589.000000;-0.306667
3588.000000;-0.308013
3587.000000;-0.309339
3586.000000;-0.310936
3585.000000;-0.312670
3584.000000;-0.314012
3583.000000;-0.314615
3582.000000;-0.314761
3581.000000;-0.315024
3580.000000;-0.315686
3579.000000;-0.316667
3578.000000;-0.317829
3577.000000;-0.319059
3576.000000;-0.320156
3575.000000;-0.320919
3574.000000;-0.321345
3573.000000;-0.321615
3572.000000;-0.321939
3571.000000;-0.322517
3570.000000;-0.323555
3569.000000;-0.325088
3568.000000;-0.326742
3567.000000;-0.327780
3566.000000;-0.327575
3565.000000;-0.326097
3564.000000;-0.323969
3563.000000;-0.322158
3562.000000;-0.321383
3561.000000;-0.321480
3560.000000;-0.321505
3559.000000;-0.320709
3558.000000;-0.319260
3557.000000;-0.317892
3556.000000;-0.317116
3555.000000;-0.316983
3554.000000;-0.317278
3553.000000;-0.317557
3552.000000;-0.317218
3551.000000;-0.315989
3550.000000;-0.314314
3549.000000;-0.312972
3548.000000;-0.312293
3547.000000;-0.311912
3546.000000;-0.311160
3545.000000;-0.309528
3544.000000;-0.306966
3543.000000;-0.304035
3542.000000;-0.301658
3541.000000;-0.300336
3540.000000;-0.299598
3539.000000;-0.298534
3538.000000;-0.296835
3537.000000;-0.294973
3536.000000;-0.293410
3535.000000;-0.292034
3534.000000;-0.290462
3533.000000;-0.288567
3532.000000;-0.286512
3531.000000;-0.284476
3530.000000;-0.282519
3529.000000;-0.280610
3528.000000;-0.278649
3527.000000;-0.276555
3526.000000;-0.274331
3525.000000;-0.271999
3524.000000;-0.269529
3523.000000;-0.266969
3522.000000;-0.264525
3521.000000;-0.262305
3520.000000;-0.260099
3519.000000;-0.257679
3518.000000;-0.255202
3517.000000;-0.252979
3516.000000;-0.250934
3515.000000;-0.248752
3514.000000;-0.246530
3513.000000;-0.244766
3512.000000;-0.243529
3511.000000;-0.242100
3510.000000;-0.239789
3509.000000;-0.236747
3508.000000;-0.233656
3507.000000;-0.230852
3506.000000;-0.228176
3505.000000;-0.225524
3504.000000;-0.223067
3503.000000;-0.220908
3502.000000;-0.218953
3501.000000;-0.217221
3500.000000;-0.215928
3499.000000;-0.215040
3498.000000;-0.213993
3497.000000;-0.212136
3496.000000;-0.209391
3495.000000;-0.206275
3494.000000;-0.203262
3493.000000;-0.200317
3492.000000;-0.197184
3491.000000;-0.193969
3490.000000;-0.191185
3489.000000;-0.189137
3488.000000;-0.187482
3487.000000;-0.185598
3486.000000;-0.183274
3485.000000;-0.180813
3484.000000;-0.178484
3483.000000;-0.176170
3482.000000;-0.173675
3481.000000;-0.171145
3480.000000;-0.168902
3479.000000;-0.166980
3478.000000;-0.165091
3477.000000;-0.163095
3476.000000;-0.161210
3475.000000;-0.159641
3474.000000;-0.158184
3473.000000;-0.156383
3472.000000;-0.153989
3471.000000;-0.151109
3470.000000;-0.148029
3469.000000;-0.145072
3468.000000;-0.142574
3467.000000;-0.140700
3466.000000;-0.139223
3465.000000;-0.137689
3464.000000;-0.135876
3463.000000;-0.133927
3462.000000;-0.131989
3461.000000;-0.129974
3460.000000;-0.127783
3459.000000;-0.125500
3458.000000;-0.123147
3457.000000;-0.120527
3456.000000;-0.117592
3455.000000;-0.114752
3454.000000;-0.112450
3453.000000;-0.110561
3452.000000;-0.108612
3451.000000;-0.106519
3450.000000;-0.104657
3449.000000;-0.103227
3448.000000;-0.102007
3447.000000;-0.100842
3446.000000;-0.099884
3445.000000;-0.099113
3444.000000;-0.098048
3443.000000;-0.096292
3442.000000;-0.094059
3441.000000;-0.091870
3440.000000;-0.089949
3439.000000;-0.088202
3438.000000;-0.086541
3437.000000;-0.084904
3436.000000;-0.083096
3435.000000;-0.081006
3434.000000;-0.078848
3433.000000;-0.076861
3432.000000;-0.074856
3431.000000;-0.072484
3430.000000;-0.069900
3429.000000;-0.067729
3428.000000;-0.066258
3427.000000;-0.065046
3426.000000;-0.063506
3425.000000;-0.061600
3424.000000;-0.059672
3423.000000;-0.057850
3422.000000;-0.055972
3421.000000;-0.054084
3420.000000;-0.052635
3419.000000;-0.051943
3418.000000;-0.051647
3417.000000;-0.050966
3416.000000;-0.049514
3415.000000;-0.047634
3414.000000;-0.045844
3413.000000;-0.044177
3412.000000;-0.042339
3411.000000;-0.040370
3410.000000;-0.038710
3409.000000;-0.037543
3408.000000;-0.036445
3407.000000;-0.034868
3406.000000;-0.032751
3405.000000;-0.030431
3404.000000;-0.028194
3403.000000;-0.026212
3402.000000;-0.024713
3401.000000;-0.023863
3400.000000;-0.023466
3399.000000;-0.023070
3398.000000;-0.022377
3397.000000;-0.021368
3396.000000;-0.020054
3395.000000;-0.018408
3394.000000;-0.016550
3393.000000;-0.014764
3392.000000;-0.013206
3391.000000;-0.011777
3390.000000;-0.010363
3389.000000;-0.009014
3388.000000;-0.007767
3387.000000;-0.006461
3386.000000;-0.004902
3385.000000;-0.003147
3384.000000;-0.001442
3383.000000;0.000110
3382.000000;0.001661
3381.000000;0.003354
3380.000000;0.005062
3379.000000;0.006490
3378.000000;0.007501
3377.000000;0.008274
3376.000000;0.009140
3375.000000;0.010326
3374.000000;0.011834
3373.000000;0.013447
3372.000000;0.014882
3371.000000;0.016050
3370.000000;0.017204
3369.000000;0.018671
3368.000000;0.020388
3367.000000;0.021920
3366.000000;0.023068
3365.000000;0.024208
3364.000000;0.025725
3363.000000;0.027304
3362.000000;0.028200
3361.000000;0.028221
3360.000000;0.028005
3359.000000;0.028234
3358.000000;0.028931
3357.000000;0.029781
3356.000000;0.030775
3355.000000;0.032196
3354.000000;0.034112
3353.000000;0.036204
3352.000000;0.038098
3351.000000;0.039655
3350.000000;0.040925
3349.000000;0.041972
3348.000000;0.042812
3347.000000;0.043475
3346.000000;0.044091
3345.000000;0.044835
3344.000000;0.045711
3343.000000;0.046494
3342.000000;0.047056
3341.000000;0.047685
3340.000000;0.048793
3339.000000;0.050328
3338.000000;0.051800
3337.000000;0.052967
3336.000000;0.054107
3335.000000;0.055453
3334.000000;0.056732
3333.000000;0.057613
3332.000000;0.058320
3331.000000;0.059375
3330.000000;0.060821
3329.000000;0.062092
3328.000000;0.062678
3327.000000;0.062664
3326.000000;0.062606
3325.000000;0.063044
3324.000000;0.064159
3323.000000;0.065741
3322.000000;0.067396
3321.000000;0.068846
3320.000000;0.070011
3319.000000;0.070864
3318.000000;0.071375
3317.000000;0.071667
3316.000000;0.072042
3315.000000;0.072684
3314.000000;0.073494
3313.000000;0.074333
3312.000000;0.075259
3311.000000;0.076353
3310.000000;0.077476
3309.000000;0.078427
3308.000000;0.079215
3307.000000;0.079986
3306.000000;0.080826
3305.000000;0.081820
3304.000000;0.083132
3303.000000;0.084739
3302.000000;0.086215
3301.000000;0.087087
3300.000000;0.087356
3299.000000;0.087421
3298.000000;0.087580
3297.000000;0.087886
3296.000000;0.088413
3295.000000;0.089309
3294.000000;0.090540
3293.000000;0.091874
3292.000000;0.093215
3291.000000;0.094677
3290.000000;0.096237
3289.000000;0.097556
3288.000000;0.098271
3287.000000;0.098331
3286.000000;0.097962
3285.000000;0.097504
3284.000000;0.097381
3283.000000;0.098018
3282.000000;0.099554
3281.000000;0.101652
3280.000000;0.103713
3279.000000;0.105294
3278.000000;0.106294
3277.000000;0.106797
3276.000000;0.106863
3275.000000;0.106535
3274.000000;0.106026
3273.000000;0.105791
3272.000000;0.106261
3271.000000;0.107470
3270.000000;0.109029
3269.000000;0.110514
3268.000000;0.111784
3267.000000;0.112891
3266.000000;0.113840
3265.000000;0.114556
3264.000000;0.115013
3263.000000;0.115244
3262.000000;0.115319
3261.000000;0.115395
3260.000000;0.115681
3259.000000;0.116242
3258.000000;0.116952
3257.000000;0.117731
3256.000000;0.118666
3255.000000;0.119723
3254.000000;0.120556
3253.000000;0.120892
3252.000000;0.120973
3251.000000;0.121293
3250.000000;0.121954
3249.000000;0.122649
3248.000000;0.123315
3247.000000;0.124364
3246.000000;0.126083
3245.000000;0.128087
3244.000000;0.129619
3243.000000;0.130274
3242.000000;0.130257
3241.000000;0.130058
3240.000000;0.130091
3239.000000;0.130546
3238.000000;0.131370
3237.000000;0.132334
3236.000000;0.133229
3235.000000;0.133992
3234.000000;0.134595
3233.000000;0.134931
3232.000000;0.134963
3231.000000;0.134959
3230.000000;0.135359
3229.000000;0.136318
3228.000000;0.137481
3227.000000;0.138330
3226.000000;0.138696
3225.000000;0.138827
3224.000000;0.139006
3223.000000;0.139298
3222.000000;0.139706
3221.000000;0.140347
3220.000000;0.141255
3219.000000;0.142105
3218.000000;0.142401
3217.000000;0.142052
3216.000000;0.141582
3215.000000;0.141622
3214.000000;0.142275
3213.000000;0.143074
3212.000000;0.143523
3211.000000;0.143583
3210.000000;0.143688
3209.000000;0.144351
3208.000000;0.145766
3207.000000;0.147677
3206.000000;0.149594
3205.000000;0.151132
3204.000000;0.152169
3203.000000;0.152767
3202.000000;0.153059
3201.000000;0.153218
3200.000000;0.153427
3199.000000;0.153782
3198.000000;0.154248
3197.000000;0.154703
3196.000000;0.154994
3195.000000;0.155048
3194.000000;0.155050
3193.000000;0.155447
3192.000000;0.156538
3191.000000;0.157984
3190.000000;0.158955
3189.000000;0.158954
3188.000000;0.158387
3187.000000;0.158150
3186.000000;0.158727
3185.000000;0.159834
3184.000000;0.160865
3183.000000;0.161487
3182.000000;0.161803
3181.000000;0.162085
3180.000000;0.162463
3179.000000;0.162864
3178.000000;0.163225
3177.000000;0.163684
3176.000000;0.164463
3175.000000;0.165551
3174.000000;0.166641
3173.000000;0.167431
3172.000000;0.167888
3171.000000;0.168116
3170.000000;0.168116
3169.000000;0.167878
3168.000000;0.167635
3167.000000;0.167810
3166.000000;0.168592
3165.000000;0.169695
3164.000000;0.170627
3163.000000;0.171163
3162.000000;0.171493
3161.000000;0.171901
3160.000000;0.172423
3159.000000;0.172866
3158.000000;0.173116
3157.000000;0.173318
3156.000000;0.173729
3155.000000;0.174458
3154.000000;0.175403
3153.000000;0.176378
3152.000000;0.177238
3151.000000;0.177936
3150.000000;0.178477
3149.000000;0.178806
3148.000000;0.178794
3147.000000;0.178503
3146.000000;0.178427
3145.000000;0.179154
3144.000000;0.180621
3143.000000;0.181974
3142.000000;0.182423
3141.000000;0.182085
3140.000000;0.181702
3139.000000;0.181717
3138.000000;0.182009
3137.000000;0.182367
3136.000000;0.182731
3135.000000;0.182966
3134.000000;0.182855
3133.000000;0.182510
3132.000000;0.182410
3131.000000;0.182845
3130.000000;0.183618
3129.000000;0.184425
3128.000000;0.185236
3127.000000;0.186116
3126.000000;0.186988
3125.000000;0.187799
3124.000000;0.188673
3123.000000;0.189643
3122.000000;0.190429
3121.000000;0.190748
3120.000000;0.190705
3119.000000;0.190689
3118.000000;0.190951
3117.000000;0.191466
3116.000000;0.192071
3115.000000;0.192591
3114.000000;0.192921
3113.000000;0.193120
3112.000000;0.193356
3111.000000;0.193714
3110.000000;0.194149
3109.000000;0.194616
3108.000000;0.195041
3107.000000;0.195182
3106.000000;0.194845
3105.000000;0.194316
3104.000000;0.194223
3103.000000;0.194813
3102.000000;0.195666
3101.000000;0.196291
3100.000000;0.196696
3099.000000;0.197153
3098.000000;0.197769
3097.000000;0.198582
3096.000000;0.199733
3095.000000;0.201105
3094.000000;0.202060
3093.000000;0.202045
3092.000000;0.201380
3091.000000;0.201046
3090.000000;0.201691
3089.000000;0.203107
3088.000000;0.204597
3087.000000;0.205575
3086.000000;0.205869
3085.000000;0.205744
3084.000000;0.205628
3083.000000;0.205636
3082.000000;0.205430
3081.000000;0.204754
3080.000000;0.203923
3079.000000;0.203466
3078.000000;0.203457
3077.000000;0.203538
3076.000000;0.203563
3075.000000;0.203835
3074.000000;0.204683
3073.000000;0.206086
3072.000000;0.207736
3071.000000;0.209220
3070.000000;0.210170
3069.000000;0.210518
3068.000000;0.210640
3067.000000;0.210979
3066.000000;0.211542
3065.000000;0.212008
3064.000000;0.212273
3063.000000;0.212549
3062.000000;0.212884
3061.000000;0.213020
3060.000000;0.212886
3059.000000;0.212883
3058.000000;0.213450
3057.000000;0.214533
3056.000000;0.215731
3055.000000;0.216745
3054.000000;0.217478
3053.000000;0.217857
3052.000000;0.217889
3051.000000;0.217881
3050.000000;0.218309
3049.000000;0.219319
3048.000000;0.220470
3047.000000;0.221069
3046.000000;0.220787
3045.000000;0.219919
3044.000000;0.219102
3043.000000;0.218865
3042.000000;0.219429
3041.000000;0.220677
3040.000000;0.222132
3039.000000;0.223097
3038.000000;0.223155
3037.000000;0.222635
3036.000000;0.222377
3035.000000;0.222912
3034.000000;0.224054
3033.000000;0.225352
3032.000000;0.226621
3031.000000;0.227817
3030.000000;0.228682
3029.000000;0.228915
3028.000000;0.228603
3027.000000;0.228152
3026.000000;0.227786
3025.000000;0.227445
3024.000000;0.227159
3023.000000;0.227204
3022.000000;0.227745
3021.000000;0.228604
3020.000000;0.229513
3019.000000;0.230405
3018.000000;0.231286
3017.000000;0.232002
3016.000000;0.232366
3015.000000;0.232484
3014.000000;0.232736
3013.000000;0.233336
3012.000000;0.234016
3011.000000;0.234263
3010.000000;0.233902
3009.000000;0.233325
3008.000000;0.233083
3007.000000;0.233349
3006.000000;0.233917
3005.000000;0.234627
3004.000000;0.235558
3003.000000;0.236729
3002.000000;0.237857
3001.000000;0.238584
3000.000000;0.238845
2999.000000;0.238866
2998.000000;0.238893
2997.000000;0.239074
2996.000000;0.239501
2995.000000;0.240180
2994.000000;0.240973
2993.000000;0.241636
2992.000000;0.241946
2991.000000;0.241813
2990.000000;0.241433
2989.000000;0.241296
2988.000000;0.241806
2987.000000;0.242800
2986.000000;0.243692
2985.000000;0.244215
2984.000000;0.244761
2983.000000;0.245731
2982.000000;0.246843
2981.000000;0.247450
2980.000000;0.247409
2979.000000;0.247223
2978.000000;0.247404
2977.000000;0.248009
2976.000000;0.248786
2975.000000;0.249502
2974.000000;0.250065
2973.000000;0.250565
2972.000000;0.251230
2971.000000;0.252150
2970.000000;0.253085
2969.000000;0.253737
2968.000000;0.254178
2967.000000;0.254714
2966.000000;0.255334
2965.000000;0.255590
2964.000000;0.255135
2963.000000;0.254161
2962.000000;0.253227
2961.000000;0.252817
2960.000000;0.253103
2959.000000;0.253898
2958.000000;0.254753
2957.000000;0.255296
2956.000000;0.255575
2955.000000;0.255936
2954.000000;0.256494
2953.000000;0.256932
2952.000000;0.256931
2951.000000;0.256635
2950.000000;0.256538
2949.000000;0.257029
2948.000000;0.258163
2947.000000;0.259740
2946.000000;0.261409
2945.000000;0.262733
2944.000000;0.263377
2943.000000;0.263365
2942.000000;0.263094
2941.000000;0.262995
2940.000000;0.263171
2939.000000;0.263406
2938.000000;0.263541
2937.000000;0.263739
2936.000000;0.264306
2935.000000;0.265274
2934.000000;0.266310
2933.000000;0.267040
2932.000000;0.267361
2931.000000;0.267426
2930.000000;0.267482
2929.000000;0.267760
2928.000000;0.268365
2927.000000;0.269180
2926.000000;0.269987
2925.000000;0.270731
2924.000000;0.271474
2923.000000;0.272076
2922.000000;0.272193
2921.000000;0.271796
2920.000000;0.271416
2919.000000;0.271601
2918.000000;0.272272
2917.000000;0.272888
2916.000000;0.273127
2915.000000;0.273137
2914.000000;0.273224
2913.000000;0.273598
2912.000000;0.274398
2911.000000;0.275651
2910.000000;0.277155
2909.000000;0.278591
2908.000000;0.279762
2907.000000;0.280568
2906.000000;0.280822
2905.000000;0.280355
2904.000000;0.279342
2903.000000;0.278315
2902.000000;0.277807
2901.000000;0.278077
2900.000000;0.279094
2899.000000;0.280546
2898.000000;0.281933
2897.000000;0.282875
2896.000000;0.283329
2895.000000;0.283410
2894.000000;0.283138
2893.000000;0.282610
2892.000000;0.282278
2891.000000;0.282629
2890.000000;0.283586
2889.000000;0.284549
2888.000000;0.285112
2887.000000;0.285427
2886.000000;0.285825
2885.000000;0.286433
2884.000000;0.287278
2883.000000;0.288387
2882.000000;0.289572
2881.000000;0.290436
2880.000000;0.290814
2879.000000;0.291022
2878.000000;0.291426
2877.000000;0.292006
2876.000000;0.292569
2875.000000;0.293173
2874.000000;0.293995
2873.000000;0.294858
2872.000000;0.295245
2871.000000;0.294922
2870.000000;0.294345
2869.000000;0.294299
2868.000000;0.295146
2867.000000;0.296498
2866.000000;0.297606
2865.000000;0.298069
2864.000000;0.298115
2863.000000;0.298217
2862.000000;0.298593
2861.000000;0.299166
2860.000000;0.299818
2859.000000;0.300434
2858.000000;0.300804
2857.000000;0.300795
2856.000000;0.300656
2855.000000;0.300857
2854.000000;0.301526
2853.000000;0.302270
2852.000000;0.302658
2851.000000;0.302682
2850.000000;0.302662
2849.000000;0.302934
2848.000000;0.303765
2847.000000;0.305250
2846.000000;0.307016
2845.000000;0.308216
2844.000000;0.308222
2843.000000;0.307342
2842.000000;0.306581
2841.000000;0.306667
2840.000000;0.307510
2839.000000;0.308566
2838.000000;0.309471
2837.000000;0.310221
2836.000000;0.310905
2835.000000;0.311517
2834.000000;0.312037
2833.000000;0.312542
2832.000000;0.313093
2831.000000;0.313550
2830.000000;0.313671
2829.000000;0.313441
2828.000000;0.313200
2827.000000;0.313315
2826.000000;0.313843
2825.000000;0.314639
2824.000000;0.315669
2823.000000;0.316973
2822.000000;0.318363
2821.000000;0.319456
2820.000000;0.320071
2819.000000;0.320386
2818.000000;0.320621
2817.000000;0.320792
2816.000000;0.320882
2815.000000;0.321019
2814.000000;0.321338
2813.000000;0.321814
2812.000000;0.322380
2811.000000;0.323048
2810.000000;0.323768
2809.000000;0.324340
2808.000000;0.324643
2807.000000;0.324842
2806.000000;0.325176
2805.000000;0.325662
2804.000000;0.326169
2803.000000;0.326663
2802.000000;0.327187
2801.000000;0.327686
2800.000000;0.328077
2799.000000;0.328442
2798.000000;0.328913
2797.000000;0.329403
2796.000000;0.329704
2795.000000;0.329873
2794.000000;0.330254
2793.000000;0.330994
2792.000000;0.331745
2791.000000;0.332048
2790.000000;0.331929
2789.000000;0.331940
2788.000000;0.332592
2787.000000;0.333878
2786.000000;0.335369
2785.000000;0.336656
2784.000000;0.337583
2783.000000;0.338137
2782.000000;0.338278
2781.000000;0.338033
2780.000000;0.337673
2779.000000;0.337645
2778.000000;0.338236
2777.000000;0.339303
2776.000000;0.340378
2775.000000;0.341040
2774.000000;0.341212
2773.000000;0.341185
2772.000000;0.341378
2771.000000;0.342029
2770.000000;0.343037
2769.000000;0.344100
2768.000000;0.344985
2767.000000;0.345648
2766.000000;0.346139
2765.000000;0.346479
2764.000000;0.346646
2763.000000;0.346602
2762.000000;0.346353
2761.000000;0.346084
2760.000000;0.346259
2759.000000;0.347348
2758.000000;0.349330
2757.000000;0.351540
2756.000000;0.353160
2755.000000;0.353828
2754.000000;0.353724
2753.000000;0.353204
2752.000000;0.352566
2751.000000;0.352132
2750.000000;0.352244
2749.000000;0.353024
2748.000000;0.354199
2747.000000;0.355260
2746.000000;0.355842
2745.000000;0.355977
2744.000000;0.356022
2743.000000;0.356352
2742.000000;0.357041
2741.000000;0.357830
2740.000000;0.358457
2739.000000;0.358968
2738.000000;0.359614
2737.000000;0.360449
2736.000000;0.361180
2735.000000;0.361492
2734.000000;0.361445
2733.000000;0.361425
2732.000000;0.361727
2731.000000;0.362272
2730.000000;0.362776
2729.000000;0.363117
2728.000000;0.363506
2727.000000;0.364268
2726.000000;0.365475
2725.000000;0.366823
2724.000000;0.367879
2723.000000;0.368476
2722.000000;0.368850
2721.000000;0.369353
2720.000000;0.370051
2719.000000;0.370639
2718.000000;0.370802
2717.000000;0.370593
2716.000000;0.370403
2715.000000;0.370579
2714.000000;0.371173
2713.000000;0.372041
2712.000000;0.373017
2711.000000;0.373942
2710.000000;0.374648
2709.000000;0.375067
2708.000000;0.375333
2707.000000;0.375683
2706.000000;0.376272
2705.000000;0.377110
2704.000000;0.378070
2703.000000;0.378873
2702.000000;0.379238
2701.000000;0.379250
2700.000000;0.379437
2699.000000;0.380217
2698.000000;0.381301
2697.000000;0.381949
2696.000000;0.381854
2695.000000;0.381482
2694.000000;0.381433
2693.000000;0.381837
2692.000000;0.382539
2691.000000;0.383520
2690.000000;0.384758
2689.000000;0.385913
2688.000000;0.386565
2687.000000;0.386726
2686.000000;0.386753
2685.000000;0.386793
2684.000000;0.386686
2683.000000;0.386459
2682.000000;0.386534
2681.000000;0.387257
2680.000000;0.388445
2679.000000;0.389572
2678.000000;0.390238
2677.000000;0.390384
2676.000000;0.390266
2675.000000;0.390404
2674.000000;0.391307
2673.000000;0.392969
2672.000000;0.394702
2671.000000;0.395744
2670.000000;0.396001
2669.000000;0.396004
2668.000000;0.396231
2667.000000;0.396734
2666.000000;0.397380
2665.000000;0.398146
2664.000000;0.399047
2663.000000;0.399999
2662.000000;0.400867
2661.000000;0.401552
2660.000000;0.401934
2659.000000;0.401885
2658.000000;0.401431
2657.000000;0.400817
2656.000000;0.400343
2655.000000;0.400264
2654.000000;0.400849
2653.000000;0.402311
2652.000000;0.404468
2651.000000;0.406607
2650.000000;0.407956
2649.000000;0.408348
2648.000000;0.408261
2647.000000;0.408248
2646.000000;0.408495
2645.000000;0.408923
2644.000000;0.409465
2643.000000;0.410075
2642.000000;0.410621
2641.000000;0.410941
2640.000000;0.411031
2639.000000;0.411124
2638.000000;0.411573
2637.000000;0.412592
2636.000000;0.414020
2635.000000;0.415358
2634.000000;0.416137
2633.000000;0.416314
2632.000000;0.416267
2631.000000;0.416393
2630.000000;0.416747
2629.000000;0.417071
2628.000000;0.417089
2627.000000;0.416805
2626.000000;0.416604
2625.000000;0.417069
2624.000000;0.418542
2623.000000;0.420741
2622.000000;0.422897
2621.000000;0.424337
2620.000000;0.424927
2619.000000;0.424955
2618.000000;0.424775
2617.000000;0.424625
2616.000000;0.424644
2615.000000;0.424855
2614.000000;0.425200
2613.000000;0.425683
2612.000000;0.426393
2611.000000;0.427295
2610.000000;0.428104
2609.000000;0.428543
2608.000000;0.428666
2607.000000;0.428765
2606.000000;0.428997
2605.000000;0.429302
2604.000000;0.429707
2603.000000;0.430457
2602.000000;0.431716
2601.000000;0.433219
2600.000000;0.434371
2599.000000;0.434741
2598.000000;0.434452
2597.000000;0.434076
2596.000000;0.434128
2595.000000;0.434635
2594.000000;0.435192
2593.000000;0.435464
2592.000000;0.435578
2591.000000;0.435974
2590.000000;0.436907
2589.000000;0.438203
2588.000000;0.439446
2587.000000;0.440341
2586.000000;0.440883
2585.000000;0.441289
2584.000000;0.441817
2583.000000;0.442575
2582.000000;0.443421
2581.000000;0.444028
2580.000000;0.444141
2579.000000;0.443857
2578.000000;0.443670
2577.000000;0.444117
2576.000000;0.445250
2575.000000;0.446538
2574.000000;0.447455
2573.000000;0.448123
2572.000000;0.449051
2571.000000;0.450260
2570.000000;0.451060
2569.000000;0.450949
2568.000000;0.450347
2567.000000;0.450054
2566.000000;0.450225
2565.000000;0.450371
2564.000000;0.450331
2563.000000;0.450693
2562.000000;0.452067
2561.000000;0.454257
2560.000000;0.456356
2559.000000;0.457508
2558.000000;0.457498
2557.000000;0.456801
2556.000000;0.456215
2555.000000;0.456308
2554.000000;0.457042
2553.000000;0.457911
2552.000000;0.458453
2551.000000;0.458567
2550.000000;0.458401
2549.000000;0.458176
2548.000000;0.458162
2547.000000;0.458565
2546.000000;0.459315
2545.000000;0.460123
2544.000000;0.460778
2543.000000;0.461240
2542.000000;0.461515
2541.000000;0.461723
2540.000000;0.462297
2539.000000;0.463676
2538.000000;0.465664
2537.000000;0.467400
2536.000000;0.468263
2535.000000;0.468530
2534.000000;0.468896
2533.000000;0.469592
2532.000000;0.470245
2531.000000;0.470415
2530.000000;0.470006
2529.000000;0.469319
2528.000000;0.468954
2527.000000;0.469470
2526.000000;0.470817
2525.000000;0.472220
2524.000000;0.472928
2523.000000;0.472990
2522.000000;0.473025
2521.000000;0.473370
2520.000000;0.473835
2519.000000;0.474195
2518.000000;0.474530
2517.000000;0.475025
2516.000000;0.475741
2515.000000;0.476603
2514.000000;0.477440
2513.000000;0.478061
2512.000000;0.478485
2511.000000;0.479022
2510.000000;0.479884
2509.000000;0.480814
2508.000000;0.481371
2507.000000;0.481512
2506.000000;0.481598
2505.000000;0.481904
2504.000000;0.482421
2503.000000;0.483081
2502.000000;0.483804
2501.000000;0.484373
2500.000000;0.484678
2499.000000;0.485076
2498.000000;0.486060
2497.000000;0.487475
2496.000000;0.488500
2495.000000;0.488619
2494.000000;0.488243
2493.000000;0.488166
2492.000000;0.488731
2491.000000;0.489698
2490.000000;0.490631
2489.000000;0.491175
2488.000000;0.491258
2487.000000;0.491232
2486.000000;0.491609
2485.000000;0.492455
2484.000000;0.493294
2483.000000;0.493747
2482.000000;0.493990
2481.000000;0.494385
2480.000000;0.494998
2479.000000;0.495776
2478.000000;0.496868
2477.000000;0.498350
2476.000000;0.499826
2475.000000;0.500700
2474.000000;0.500797
2473.000000;0.500421
2472.000000;0.499945
2471.000000;0.499633
2470.000000;0.499728
2469.000000;0.500297
2468.000000;0.501014
2467.000000;0.501428
2466.000000;0.501460
2465.000000;0.501425
2464.000000;0.501610
2463.000000;0.502103
2462.000000;0.502939
2461.000000;0.504080
2460.000000;0.505238
2459.000000;0.506067
2458.000000;0.506611
2457.000000;0.507258
2456.000000;0.508151
2455.000000;0.508943
2454.000000;0.509298
2453.000000;0.509391
2452.000000;0.509731
2451.000000;0.510577
2450.000000;0.511650
2449.000000;0.512392
2448.000000;0.512496
2447.000000;0.512257
2446.000000;0.512343
2445.000000;0.513103
2444.000000;0.514181
2443.000000;0.514954
2442.000000;0.515287
2441.000000;0.515602
2440.000000;0.516230
2439.000000;0.517032
2438.000000;0.517754
2437.000000;0.518449
2436.000000;0.519270
2435.000000;0.520020
2434.000000;0.520200
2433.000000;0.519546
2432.000000;0.518409
2431.000000;0.517557
2430.000000;0.517636
2429.000000;0.518717
2428.000000;0.520298
2427.000000;0.521719
2426.000000;0.522640
2425.000000;0.523107
2424.000000;0.523248
2423.000000;0.523116
2422.000000;0.522878
2421.000000;0.522943
2420.000000;0.523674
2419.000000;0.525005
2418.000000;0.526454
2417.000000;0.527558
2416.000000;0.528241
2415.000000;0.528754
2414.000000;0.529295
2413.000000;0.529760
2412.000000;0.529929
2411.000000;0.529886
2410.000000;0.530114
2409.000000;0.531052
2408.000000;0.532560
2407.000000;0.533970
2406.000000;0.534688
2405.000000;0.534694
2404.000000;0.534453
2403.000000;0.534455
2402.000000;0.534873
2401.000000;0.535506
2400.000000;0.535983
2399.000000;0.536110
2398.000000;0.536105
2397.000000;0.536416
2396.000000;0.537279
2395.000000;0.538482
2394.000000;0.539596
2393.000000;0.540339
2392.000000;0.540699
2391.000000;0.540820
2390.000000;0.540903
2389.000000;0.541135
2388.000000;0.541577
2387.000000;0.542136
2386.000000;0.542749
2385.000000;0.543567
2384.000000;0.544783
2383.000000;0.546229
2382.000000;0.547323
2381.000000;0.547576
2380.000000;0.547104
2379.000000;0.546500
2378.000000;0.546243
2377.000000;0.546399
2376.000000;0.546880
2375.000000;0.547711
2374.000000;0.548862
2373.000000;0.549989
2372.000000;0.550637
2371.000000;0.550718
2370.000000;0.550555
2369.000000;0.550427
2368.000000;0.550332
2367.000000;0.550286
2366.000000;0.550578
2365.000000;0.551481
2364.000000;0.552852
2363.000000;0.554246
2362.000000;0.555372
2361.000000;0.556278
2360.000000;0.557058
2359.000000;0.557632
2358.000000;0.557853
2357.000000;0.557699
2356.000000;0.557322
2355.000000;0.556942
2354.000000;0.556740
2353.000000;0.556827
2352.000000;0.557253
2351.000000;0.558025
2350.000000;0.559035
2349.000000;0.560049
2348.000000;0.560774
2347.000000;0.561054
2346.000000;0.561108
2345.000000;0.561437
2344.000000;0.562438
2343.000000;0.564064
2342.000000;0.565872
2341.000000;0.567278
2340.000000;0.567807
2339.000000;0.567469
2338.000000;0.566828
2337.000000;0.566561
2336.000000;0.566850
2335.000000;0.567356
2334.000000;0.567672
2333.000000;0.567722
2332.000000;0.567675
2331.000000;0.567752
2330.000000;0.568123
2329.000000;0.568935
2328.000000;0.570263
2327.000000;0.571989
2326.000000;0.573793
2325.000000;0.575173
2324.000000;0.575708
2323.000000;0.575374
2322.000000;0.574649
2321.000000;0.574191
2320.000000;0.574374
2319.000000;0.575191
2318.000000;0.576393
2317.000000;0.577638
2316.000000;0.578577
2315.000000;0.579089
2314.000000;0.579425
2313.000000;0.579996
2312.000000;0.580944
2311.000000;0.582020
2310.000000;0.582847
2309.000000;0.583208
2308.000000;0.583142
2307.000000;0.582947
2306.000000;0.583083
2305.000000;0.583848
2304.000000;0.585067
2303.000000;0.586248
2302.000000;0.587083
2301.000000;0.587690
2300.000000;0.588304
2299.000000;0.588906
2298.000000;0.589263
2297.000000;0.589231
2296.000000;0.588942
2295.000000;0.588722
2294.000000;0.588882
2293.000000;0.589471
2292.000000;0.590240
2291.000000;0.590873
2290.000000;0.591308
2289.000000;0.591759
2288.000000;0.592475
2287.000000;0.593552
2286.000000;0.594915
2285.000000;0.596305
2284.000000;0.597323
2283.000000;0.597701
2282.000000;0.597606
2281.000000;0.597520
2280.000000;0.597759
2279.000000;0.598239
2278.000000;0.598740
2277.000000;0.599252
2276.000000;0.599944
2275.000000;0.600850
2274.000000;0.601731
2273.000000;0.602273
2272.000000;0.602400
2271.000000;0.602366
2270.000000;0.602498
2269.000000;0.602836
2268.000000;0.603137
2267.000000;0.603276
2266.000000;0.603504
2265.000000;0.604161
2264.000000;0.605239
2263.000000;0.606380
2262.000000;0.607236
2261.000000;0.607691
2260.000000;0.607835
2259.000000;0.607931
2258.000000;0.608311
2257.000000;0.609050
2256.000000;0.609761
2255.000000;0.609972
2254.000000;0.609708
2253.000000;0.609475
2252.000000;0.609696
2251.000000;0.610439
2250.000000;0.611668
2249.000000;0.613387
2248.000000;0.615394
2247.000000;0.617186
2246.000000;0.618338
2245.000000;0.618847
2244.000000;0.618986
2243.000000;0.619004
2242.000000;0.619022
2241.000000;0.619073
2240.000000;0.619119
2239.000000;0.619171
2238.000000;0.619412
2237.000000;0.620031
2236.000000;0.620855
2235.000000;0.621377
2234.000000;0.621275
2233.000000;0.620772
2232.000000;0.620428
2231.000000;0.620696
2230.000000;0.621660
2229.000000;0.622942
2228.000000;0.623848
2227.000000;0.623936
2226.000000;0.623539
2225.000000;0.623459
2224.000000;0.624045
2223.000000;0.624905
2222.000000;0.625592
2221.000000;0.626208
2220.000000;0.627030
2219.000000;0.627916
2218.000000;0.628480
2217.000000;0.628673
2216.000000;0.628820
2215.000000;0.629157
2214.000000;0.629659
2213.000000;0.630262
2212.000000;0.630940
2211.000000;0.631581
2210.000000;0.632054
2209.000000;0.632413
2208.000000;0.632839
2207.000000;0.633385
2206.000000;0.633955
2205.000000;0.634487
2204.000000;0.634962
2203.000000;0.635259
2202.000000;0.635234
2201.000000;0.635038
2200.000000;0.635161
2199.000000;0.636018
2198.000000;0.637541
2197.000000;0.639226
2196.000000;0.640579
2195.000000;0.641500
2194.000000;0.642211
2193.000000;0.642834
2192.000000;0.643194
2191.000000;0.643163
2190.000000;0.643054
2189.000000;0.643384
2188.000000;0.644216
2187.000000;0.645021
2186.000000;0.645324
2185.000000;0.645256
2184.000000;0.645300
2183.000000;0.645712
2182.000000;0.646374
2181.000000;0.647045
2180.000000;0.647595
2179.000000;0.648121
2178.000000;0.648933
2177.000000;0.650240
2176.000000;0.651681
2175.000000;0.652460
2174.000000;0.652202
2173.000000;0.651501
2172.000000;0.651302
2171.000000;0.651922
2170.000000;0.652963
2169.000000;0.654000
2168.000000;0.654944
2167.000000;0.655764
2166.000000;0.656291
2165.000000;0.656475
2164.000000;0.656590
2163.000000;0.656988
2162.000000;0.657735
2161.000000;0.658557
2160.000000;0.659114
2159.000000;0.659324
2158.000000;0.659442
2157.000000;0.659763
2156.000000;0.660267
2155.000000;0.660682
2154.000000;0.660959
2153.000000;0.661419
2152.000000;0.662279
2151.000000;0.663259
2150.000000;0.663950
2149.000000;0.664396
2148.000000;0.664994
2147.000000;0.665904
2146.000000;0.666860
2145.000000;0.667538
2144.000000;0.667857
2143.000000;0.667938
2142.000000;0.668017
2141.000000;0.668378
2140.000000;0.669125
2139.000000;0.670016
2138.000000;0.670701
2137.000000;0.671122
2136.000000;0.671505
2135.000000;0.672048
2134.000000;0.672808
2133.000000;0.673746
2132.000000;0.674619
2131.000000;0.674978
2130.000000;0.674656
2129.000000;0.674175
2128.000000;0.674267
2127.000000;0.675033
2126.000000;0.675977
2125.000000;0.676852
2124.000000;0.677956
2123.000000;0.679430
2122.000000;0.680774
2121.000000;0.681381
2120.000000;0.681245
2119.000000;0.680867
2118.000000;0.680697
2117.000000;0.680932
2116.000000;0.681547
2115.000000;0.682235
2114.000000;0.682563
2113.000000;0.682522
2112.000000;0.682676
2111.000000;0.683459
2110.000000;0.684545
2109.000000;0.685289
2108.000000;0.685636
2107.000000;0.686130
2106.000000;0.687065
2105.000000;0.688092
2104.000000;0.688726
2103.000000;0.688855
2102.000000;0.688618
2101.000000;0.688182
2100.000000;0.687856
2099.000000;0.688120
2098.000000;0.689206
2097.000000;0.690727
2096.000000;0.691990
2095.000000;0.692673
2094.000000;0.693057
2093.000000;0.693616
2092.000000;0.694517
2091.000000;0.695508
2090.000000;0.696180
2089.000000;0.696330
2088.000000;0.696140
2087.000000;0.696001
2086.000000;0.696179
2085.000000;0.696668
2084.000000;0.697356
2083.000000;0.698166
2082.000000;0.698970
2081.000000;0.699552
2080.000000;0.699827
2079.000000;0.700007
2078.000000;0.700341
2077.000000;0.700772
2076.000000;0.701081
2075.000000;0.701324
2074.000000;0.701847
2073.000000;0.702780
2072.000000;0.703791
2071.000000;0.704483
2070.000000;0.704855
2069.000000;0.705203
2068.000000;0.705741
2067.000000;0.706505
2066.000000;0.707448
2065.000000;0.708413
2064.000000;0.709139
2063.000000;0.709512
2062.000000;0.709730
2061.000000;0.710014
2060.000000;0.710316
2059.000000;0.710540
2058.000000;0.710882
2057.000000;0.711564
2056.000000;0.712343
2055.000000;0.712703
2054.000000;0.712581
2053.000000;0.712498
2052.000000;0.712871
2051.000000;0.713608
2050.000000;0.714526
2049.000000;0.715704
2048.000000;0.717118
2047.000000;0.718296
2046.000000;0.718769
2045.000000;0.718723
2044.000000;0.718796
2043.000000;0.719316
2042.000000;0.720086
2041.000000;0.720829
2040.000000;0.721510
2039.000000;0.722169
2038.000000;0.722734
2037.000000;0.723099
2036.000000;0.723244
2035.000000;0.723242
2034.000000;0.723254
2033.000000;0.723475
2032.000000;0.723979
2031.000000;0.724617
2030.000000;0.725162
2029.000000;0.725559
2028.000000;0.725925
2027.000000;0.726391
2026.000000;0.727055
2025.000000;0.727987
2024.000000;0.729063
2023.000000;0.729892
2022.000000;0.730165
2021.000000;0.730099
2020.000000;0.730318
2019.000000;0.731243
2018.000000;0.732716
2017.000000;0.734193
2016.000000;0.735156
2015.000000;0.735379
2014.000000;0.735039
2013.000000;0.734665
2012.000000;0.734766
2011.000000;0.735383
2010.000000;0.736105
2009.000000;0.736595
2008.000000;0.736977
2007.000000;0.737601
2006.000000;0.738559
2005.000000;0.739556
2004.000000;0.740213
2003.000000;0.740446
2002.000000;0.740534
2001.000000;0.740831
2000.000000;0.741415
1999.000000;0.742067
1998.000000;0.742619
1997.000000;0.743169
1996.000000;0.743844
1995.000000;0.744497
1994.000000;0.744893
1993.000000;0.745166
1992.000000;0.745772
1991.000000;0.746863
1990.000000;0.747936
1989.000000;0.748343
1988.000000;0.748047
1987.000000;0.747646
1986.000000;0.747682
1985.000000;0.748133
1984.000000;0.748621
1983.000000;0.748919
1982.000000;0.749119
1981.000000;0.749389
1980.000000;0.749746
1979.000000;0.750102
1978.000000;0.750410
1977.000000;0.750703
1976.000000;0.751064
1975.000000;0.751628
1974.000000;0.752524
1973.000000;0.753682
1972.000000;0.754731
1971.000000;0.755288
1970.000000;0.755381
1969.000000;0.755463
1968.000000;0.755978
1967.000000;0.757011
1966.000000;0.758351
1965.000000;0.759725
1964.000000;0.760872
1963.000000;0.761599
1962.000000;0.761898
1961.000000;0.761910
1960.000000;0.761715
1959.000000;0.761325
1958.000000;0.760960
1957.000000;0.761085
1956.000000;0.761948
1955.000000;0.763256
1954.000000;0.764522
1953.000000;0.765596
1952.000000;0.766608
1951.000000;0.767517
1950.000000;0.768104
1949.000000;0.768417
1948.000000;0.768838
1947.000000;0.769614
1946.000000;0.770545
1945.000000;0.771267
1944.000000;0.771612
1943.000000;0.771597
1942.000000;0.771325
1941.000000;0.771023
1940.000000;0.771032
1939.000000;0.771591
1938.000000;0.772645
1937.000000;0.773883
1936.000000;0.774928
1935.000000;0.775541
1934.000000;0.775809
1933.000000;0.776115
1932.000000;0.776785
1931.000000;0.777750
1930.000000;0.778697
1929.000000;0.779495
1928.000000;0.780232
1927.000000;0.780871
1926.000000;0.781186
1925.000000;0.781170
1924.000000;0.781169
1923.000000;0.781426
1922.000000;0.781751
1921.000000;0.781884
1920.000000;0.781978
1919.000000;0.782432
1918.000000;0.783345
1917.000000;0.784372
1916.000000;0.785117
1915.000000;0.785496
1914.000000;0.785781
1913.000000;0.786435
1912.000000;0.787785
1911.000000;0.789644
1910.000000;0.791304
1909.000000;0.792145
1908.000000;0.792230
1907.000000;0.792106
1906.000000;0.792061
1905.000000;0.791914
1904.000000;0.791564
1903.000000;0.791409
1902.000000;0.791948
1901.000000;0.793113
1900.000000;0.794252
1899.000000;0.794792
1898.000000;0.794805
1897.000000;0.794923
1896.000000;0.795717
1895.000000;0.797141
1894.000000;0.798559
1893.000000;0.799384
1892.000000;0.799684
1891.000000;0.800021
1890.000000;0.800703
1889.000000;0.801488
1888.000000;0.802179
1887.000000;0.803113
1886.000000;0.804641
1885.000000;0.806284
1884.000000;0.806884
1883.000000;0.805739
1882.000000;0.803301
1881.000000;0.800765
1880.000000;0.799406
1879.000000;0.800222
1878.000000;0.803490
1877.000000;0.808151
1876.000000;0.812078
1875.000000;0.813729
1874.000000;0.813554
1873.000000;0.813218
1872.000000;0.813576
1871.000000;0.814008
1870.000000;0.813678
1869.000000;0.812765
1868.000000;0.812078
1867.000000;0.812030
1866.000000;0.812512
1865.000000;0.813392
1864.000000;0.814650
1863.000000;0.816105
1862.000000;0.817351
1861.000000;0.817994
1860.000000;0.817833
1859.000000;0.816958
1858.000000;0.815865
1857.000000;0.815296
1856.000000;0.815694
1855.000000;0.816880
1854.000000;0.818339
1853.000000;0.819651
1852.000000;0.820512
1851.000000;0.820752
1850.000000;0.820704
1849.000000;0.821255
1848.000000;0.822917
1847.000000;0.824885
1846.000000;0.825620
1845.000000;0.824581
1844.000000;0.822899
1843.000000;0.821994
1842.000000;0.822025
1841.000000;0.822109
1840.000000;0.821827
1839.000000;0.821994
1838.000000;0.823736
1837.000000;0.827029
1836.000000;0.830416
1835.000000;0.832223
1834.000000;0.832056
1833.000000;0.831006
1832.000000;0.830420
1831.000000;0.830673
1830.000000;0.831220
1829.000000;0.831516
1828.000000;0.831603
1827.000000;0.831802
1826.000000;0.832181
1825.000000;0.832538
1824.000000;0.832738
1823.000000;0.832881
1822.000000;0.833213
1821.000000;0.833937
1820.000000;0.835058
1819.000000;0.836332
1818.000000;0.837428
1817.000000;0.838245
1816.000000;0.839028
1815.000000;0.840060
1814.000000;0.841246
1813.000000;0.842078
1812.000000;0.842153
1811.000000;0.841698
1810.000000;0.841482
1809.000000;0.842102
1808.000000;0.843388
1807.000000;0.844643
1806.000000;0.845423
1805.000000;0.845873
1804.000000;0.846239
1803.000000;0.846399
1802.000000;0.846202
1801.000000;0.846049
1800.000000;0.846675
1799.000000;0.848207
1798.000000;0.849808
1797.000000;0.850508
1796.000000;0.850287
1795.000000;0.850083
1794.000000;0.850762
1793.000000;0.852264
1792.000000;0.853800
1791.000000;0.854727
1790.000000;0.855111
1789.000000;0.855385
1788.000000;0.855703
1787.000000;0.855901
1786.000000;0.856000
1785.000000;0.856405
1784.000000;0.857398
1783.000000;0.858623
1782.000000;0.859378
1781.000000;0.859401
1780.000000;0.859134
1779.000000;0.859128
1778.000000;0.859467
1777.000000;0.859904
1776.000000;0.860351
1775.000000;0.860982
1774.000000;0.861957
1773.000000;0.863259
1772.000000;0.864816
1771.000000;0.866582
1770.000000;0.868340
1769.000000;0.869531
1768.000000;0.869584
1767.000000;0.868526
1766.000000;0.867100
1765.000000;0.866123
1764.000000;0.865846
1763.000000;0.866049
1762.000000;0.866640
1761.000000;0.867845
1760.000000;0.869768
1759.000000;0.871938
1758.000000;0.873547
1757.000000;0.874115
1756.000000;0.873847
1755.000000;0.873421
1754.000000;0.873472
1753.000000;0.874171
1752.000000;0.875194
1751.000000;0.876123
1750.000000;0.876926
1749.000000;0.877934
1748.000000;0.879259
1747.000000;0.880441
1746.000000;0.880882
1745.000000;0.880568
1744.000000;0.880154
1743.000000;0.880289
1742.000000;0.881031
1741.000000;0.881910
1740.000000;0.882408
1739.000000;0.882358
1738.000000;0.882043
1737.000000;0.881941
1736.000000;0.882358
1735.000000;0.883324
1734.000000;0.884735
1733.000000;0.886356
1732.000000;0.887819
1731.000000;0.888750
1730.000000;0.889137
1729.000000;0.889413
1728.000000;0.889882
1727.000000;0.890277
1726.000000;0.890172
1725.000000;0.889680
1724.000000;0.889344
1723.000000;0.889426
1722.000000;0.889771
1721.000000;0.890336
1720.000000;0.891322
1719.000000;0.892661
1718.000000;0.893822
1717.000000;0.894398
1716.000000;0.894622
1715.000000;0.894941
1714.000000;0.895386
1713.000000;0.895757
1712.000000;0.896117
1711.000000;0.896731
1710.000000;0.897695
1709.000000;0.898949
1708.000000;0.900472
1707.000000;0.902104
1706.000000;0.903298
1705.000000;0.903528
1704.000000;0.902916
1703.000000;0.902052
1702.000000;0.901214
1701.000000;0.900366
1700.000000;0.899815
1699.000000;0.900203
1698.000000;0.901761
1697.000000;0.903819
1696.000000;0.905410
1695.000000;0.906313
1694.000000;0.907098
1693.000000;0.908167
1692.000000;0.909255
1691.000000;0.909895
1690.000000;0.910045
1689.000000;0.910094
1688.000000;0.910447
1687.000000;0.911221
1686.000000;0.912188
1685.000000;0.912927
1684.000000;0.913036
1683.000000;0.912501
1682.000000;0.912009
1681.000000;0.912327
1680.000000;0.913609
1679.000000;0.915336
1678.000000;0.916795
1677.000000;0.917545
1676.000000;0.917522
1675.000000;0.916937
1674.000000;0.916191
1673.000000;0.915809
1672.000000;0.916229
1671.000000;0.917504
1670.000000;0.919203
1669.000000;0.920652
1668.000000;0.921437
1667.000000;0.921713
1666.000000;0.921987
1665.000000;0.922630
1664.000000;0.923560
1663.000000;0.924380
1662.000000;0.924750
1661.000000;0.924654
1660.000000;0.924409
1659.000000;0.924476
1658.000000;0.925170
1657.000000;0.926349
1656.000000;0.927462
1655.000000;0.928105
1654.000000;0.928559
1653.000000;0.929398
1652.000000;0.930675
1651.000000;0.931859
1650.000000;0.932414
1649.000000;0.932479
1648.000000;0.932588
1647.000000;0.933015
1646.000000;0.933657
1645.000000;0.934447
1644.000000;0.935474
1643.000000;0.936804
1642.000000;0.938310
1641.000000;0.939617
1640.000000;0.940284
1639.000000;0.940141
1638.000000;0.939504
1637.000000;0.938968
1636.000000;0.938899
1635.000000;0.939194
1634.000000;0.939608
1633.000000;0.940073
1632.000000;0.940645
1631.000000;0.941318
1630.000000;0.942010
1629.000000;0.942739
1628.000000;0.943604
1627.000000;0.944589
1626.000000;0.945517
1625.000000;0.946223
1624.000000;0.946725
1623.000000;0.947191
1622.000000;0.947787
1621.000000;0.948506
1620.000000;0.949108
1619.000000;0.949352
1618.000000;0.949337
1617.000000;0.949477
1616.000000;0.950021
1615.000000;0.950789
1614.000000;0.951449
1613.000000;0.951882
1612.000000;0.952196
1611.000000;0.952521
1610.000000;0.952965
1609.000000;0.953653
1608.000000;0.954607
1607.000000;0.955621
1606.000000;0.956429
1605.000000;0.956960
1604.000000;0.957338
1603.000000;0.957699
1602.000000;0.958132
1601.000000;0.958741
1600.000000;0.959566
1599.000000;0.960469
1598.000000;0.961206
1597.000000;0.961632
1596.000000;0.961738
1595.000000;0.961627
1594.000000;0.961571
1593.000000;0.961939
1592.000000;0.962827
1591.000000;0.963846
1590.000000;0.964527
1589.000000;0.964918
1588.000000;0.965500
1587.000000;0.966532
1586.000000;0.967751
1585.000000;0.968765
1584.000000;0.969464
1583.000000;0.969950
1582.000000;0.970325
1581.000000;0.970715
1580.000000;0.971300
1579.000000;0.972106
1578.000000;0.972834
1577.000000;0.973130
1576.000000;0.973001
1575.000000;0.972858
1574.000000;0.973131
1573.000000;0.973865
1572.000000;0.974764
1571.000000;0.975567
1570.000000;0.976317
1569.000000;0.977200
1568.000000;0.978238
1567.000000;0.979225
1566.000000;0.979977
1565.000000;0.980585
1564.000000;0.981254
1563.000000;0.981961
1562.000000;0.982391
1561.000000;0.982264
1560.000000;0.981734
1559.000000;0.981306
1558.000000;0.981273
1557.000000;0.981917
1556.000000;0.982965
1555.000000;0.983639
1554.000000;0.983513
1553.000000;0.983002
1552.000000;0.982921
1551.000000;0.983606
1550.000000;0.984686
1549.000000;0.985735
1548.000000;0.986766
1547.000000;0.987924
1546.000000;0.989012
1545.000000;0.989671
1544.000000;0.989865
1543.000000;0.989963
1542.000000;0.990311
1541.000000;0.990915
1540.000000;0.991521
1539.000000;0.992015
1538.000000;0.992673
1537.000000;0.993775
1536.000000;0.995251
1535.000000;0.996653
1534.000000;0.997506
1533.000000;0.997725
1532.000000;0.997664
1531.000000;0.997732
1530.000000;0.998043
1529.000000;0.998558
1528.000000;0.999324
1527.000000;1.000350
1526.000000;1.001374
1525.000000;1.002021
1524.000000;1.002232
1523.000000;1.002332
1522.000000;1.002617
1521.000000;1.002982
1520.000000;1.003162
1519.000000;1.003211
1518.000000;1.003555
1517.000000;1.004611
1516.000000;1.006375
1515.000000;1.008406
1514.000000;1.010096
1513.000000;1.010990
1512.000000;1.011055
1511.000000;1.010655
1510.000000;1.010273
1509.000000;1.010223
1508.000000;1.010570
1507.000000;1.011150
1506.000000;1.011714
1505.000000;1.012208
1504.000000;1.012536
1503.000000;1.012715
1502.000000;1.013010
1501.000000;1.013515
1500.000000;1.013946
1499.000000;1.014019
1498.000000;1.013905
1497.000000;1.014114
1496.000000;1.014931
1495.000000;1.016188
1494.000000;1.017574
1493.000000;1.018926
1492.000000;1.020099
1491.000000;1.020885
1490.000000;1.021311
1489.000000;1.021882
1488.000000;1.023164
1487.000000;1.024959
1486.000000;1.026240
1485.000000;1.026163
1484.000000;1.025009
1483.000000;1.023932
1482.000000;1.023822
1481.000000;1.024579
1480.000000;1.025487
1479.000000;1.026127
1478.000000;1.026690
1477.000000;1.027453
1476.000000;1.028276
1475.000000;1.028874
1474.000000;1.029357
1473.000000;1.030082
1472.000000;1.030992
1471.000000;1.031614
1470.000000;1.031792
1469.000000;1.032017
1468.000000;1.032814
1467.000000;1.034003
1466.000000;1.034937
1465.000000;1.035288
1464.000000;1.035300
1463.000000;1.035362
1462.000000;1.035639
1461.000000;1.036103
1460.000000;1.036614
1459.000000;1.036997
1458.000000;1.037250
1457.000000;1.037626
1456.000000;1.038349
1455.000000;1.039284
1454.000000;1.040053
1453.000000;1.040613
1452.000000;1.041296
1451.000000;1.042287
1450.000000;1.043412
1449.000000;1.044489
1448.000000;1.045501
1447.000000;1.046297
1446.000000;1.046514
1445.000000;1.046041
1444.000000;1.045402
1443.000000;1.045403
1442.000000;1.046394
1441.000000;1.047978
1440.000000;1.049407
1439.000000;1.050199
1438.000000;1.050461
1437.000000;1.050708
1436.000000;1.051328
1435.000000;1.052275
1434.000000;1.053255
1433.000000;1.054077
1432.000000;1.054755
1431.000000;1.055311
1430.000000;1.055671
1429.000000;1.055755
1428.000000;1.055547
1427.000000;1.055107
1426.000000;1.054717
1425.000000;1.054907
1424.000000;1.056035
1423.000000;1.057787
1422.000000;1.059354
1421.000000;1.060203
1420.000000;1.060513
1419.000000;1.060716
1418.000000;1.060931
1417.000000;1.061139
1416.000000;1.061526
1415.000000;1.062292
1414.000000;1.063323
1413.000000;1.064300
1412.000000;1.065066
1411.000000;1.065690
1410.000000;1.066213
1409.000000;1.066569
1408.000000;1.066775
1407.000000;1.066994
1406.000000;1.067362
1405.000000;1.067845
1404.000000;1.068281
1403.000000;1.068540
1402.000000;1.068680
1401.000000;1.069018
1400.000000;1.069887
1399.000000;1.071197
1398.000000;1.072375
1397.000000;1.072948
1396.000000;1.073047
1395.000000;1.073143
1394.000000;1.073402
1393.000000;1.073573
1392.000000;1.073483
1391.000000;1.073361
1390.000000;1.073601
1389.000000;1.074395
1388.000000;1.075665
1387.000000;1.077120
1386.000000;1.078281
1385.000000;1.078672
1384.000000;1.078215
1383.000000;1.077419
1382.000000;1.077018
1381.000000;1.077423
1380.000000;1.078541
1379.000000;1.080003
1378.000000;1.081394
1377.000000;1.082354
1376.000000;1.082716
1375.000000;1.082701
1374.000000;1.082852
1373.000000;1.083654
1372.000000;1.085145
1371.000000;1.086854
1370.000000;1.088141
1369.000000;1.088715
1368.000000;1.088864
1367.000000;1.089135
1366.000000;1.089755
1365.000000;1.090472
1364.000000;1.090992
1363.000000;1.091384
1362.000000;1.091900
1361.000000;1.092545
1360.000000;1.093084
1359.000000;1.093467
1358.000000;1.093980
1357.000000;1.094850
1356.000000;1.095917
1355.000000;1.096849
1354.000000;1.097457
1353.000000;1.097657
1352.000000;1.097363
1351.000000;1.096711
1350.000000;1.096231
1349.000000;1.096456
1348.000000;1.097344
1347.000000;1.098311
1346.000000;1.098847
1345.000000;1.098947
1344.000000;1.098991
1343.000000;1.099404
1342.000000;1.100396
1341.000000;1.101747
1340.000000;1.102822
1339.000000;1.103098
1338.000000;1.102755
1337.000000;1.102529
1336.000000;1.102956
1335.000000;1.103995
1334.000000;1.105312
1333.000000;1.106552
1332.000000;1.107321
1331.000000;1.107397
1330.000000;1.107194
1329.000000;1.107620
1328.000000;1.109088
1327.000000;1.110909
1326.000000;1.111962
1325.000000;1.111778
1324.000000;1.110668
1323.000000;1.109074
1322.000000;1.107332
1321.000000;1.105973
1320.000000;1.105575
1319.000000;1.106153
1318.000000;1.107177
1317.000000;1.108443
1316.000000;1.110447
1315.000000;1.113540
1314.000000;1.117008
1313.000000;1.119531
1312.000000;1.120537
1311.000000;1.120693
1310.000000;1.120954
1309.000000;1.121534
1308.000000;1.122019
1307.000000;1.122223
1306.000000;1.122502
1305.000000;1.123181
1304.000000;1.124015
1303.000000;1.124450
1302.000000;1.124302
1301.000000;1.123942
1300.000000;1.123868
1299.000000;1.124324
1298.000000;1.125291
1297.000000;1.126523
1296.000000;1.127511
1295.000000;1.127761
1294.000000;1.127373
1293.000000;1.127115
1292.000000;1.127635
1291.000000;1.128734
1290.000000;1.129684
1289.000000;1.130138
1288.000000;1.130391
1287.000000;1.130753
1286.000000;1.131092
1285.000000;1.131185
1284.000000;1.131237
1283.000000;1.131759
1282.000000;1.132965
1281.000000;1.134473
1280.000000;1.135630
1279.000000;1.136108
1278.000000;1.136171
1277.000000;1.136368
1276.000000;1.136978
1275.000000;1.137800
1274.000000;1.138485
1273.000000;1.138974
1272.000000;1.139486
1271.000000;1.140153
1270.000000;1.140846
1269.000000;1.141341
1268.000000;1.141457
1267.000000;1.141106
1266.000000;1.140412
1265.000000;1.139828
1264.000000;1.139906
1263.000000;1.140809
1262.000000;1.142195
1261.000000;1.143648
1260.000000;1.145093
1259.000000;1.146662
1258.000000;1.148266
1257.000000;1.149509
1256.000000;1.150010
1255.000000;1.149733
1254.000000;1.149016
1253.000000;1.148361
1252.000000;1.148179
1251.000000;1.148565
1250.000000;1.149295
1249.000000;1.150091
1248.000000;1.150886
1247.000000;1.151765
1246.000000;1.152641
1245.000000;1.153182
1244.000000;1.153153
1243.000000;1.152773
1242.000000;1.152576
1241.000000;1.152944
1240.000000;1.153834
1239.000000;1.154904
1238.000000;1.155745
1237.000000;1.156036
1236.000000;1.155777
1235.000000;1.155513
1234.000000;1.156063
1233.000000;1.157772
1232.000000;1.160066
1231.000000;1.161956
1230.000000;1.162916
1229.000000;1.163080
1228.000000;1.162753
1227.000000;1.162141
1226.000000;1.161584
1225.000000;1.161605
1224.000000;1.162449
1223.000000;1.163805
1222.000000;1.165140
1221.000000;1.166200
1220.000000;1.167036
1219.000000;1.167745
1218.000000;1.168387
1217.000000;1.169011
1216.000000;1.169588
1215.000000;1.169958
1214.000000;1.170005
1213.000000;1.169817
1212.000000;1.169615
1211.000000;1.169592
1210.000000;1.169874
1209.000000;1.170471
1208.000000;1.171226
1207.000000;1.171981
1206.000000;1.172832
1205.000000;1.173994
1204.000000;1.175332
1203.000000;1.176336
1202.000000;1.176686
1201.000000;1.176607
1200.000000;1.176495
