Criado como novo conjunto de dados;"0307_DANIEL.spp","31143.6 Secs"
cm-1;Abs
10000.000000;1.097473
9999.000000;1.096323
9998.000000;1.095185
9997.000000;1.094035
9996.000000;1.092914
9995.000000;1.091545
9994.000000;1.089723
9993.000000;1.087896
9992.000000;1.086610
9991.000000;1.085814
9990.000000;1.084956
9989.000000;1.083704
9988.000000;1.082224
9987.000000;1.080784
9986.000000;1.079455
9985.000000;1.078240
9984.000000;1.077180
9983.000000;1.076189
9982.000000;1.075074
9981.000000;1.073863
9980.000000;1.072865
9979.000000;1.072216
9978.000000;1.071571
9977.000000;1.070516
9976.000000;1.069109
9975.000000;1.067728
9974.000000;1.066476
9973.000000;1.065058
9972.000000;1.063327
9971.000000;1.061662
9970.000000;1.060616
9969.000000;1.060250
9968.000000;1.059971
9967.000000;1.059042
9966.000000;1.057232
9965.000000;1.054986
9964.000000;1.052997
9963.000000;1.051622
9962.000000;1.050675
9961.000000;1.049703
9960.000000;1.048412
9959.000000;1.046882
9958.000000;1.045426
9957.000000;1.044297
9956.000000;1.043493
9955.000000;1.042830
9954.000000;1.042142
9953.000000;1.041363
9952.000000;1.040460
9951.000000;1.039393
9950.000000;1.038193
9949.000000;1.036944
9948.000000;1.035600
9947.000000;1.033995
9946.000000;1.032159
9945.000000;1.030429
9944.000000;1.029017
9943.000000;1.027638
9942.000000;1.025944
9941.000000;1.024203
9940.000000;1.023065
9939.000000;1.022586
9938.000000;1.021962
9937.000000;1.020531
9936.000000;1.018676
9935.000000;1.017306
9934.000000;1.016669
9933.000000;1.016132
9932.000000;1.015037
9931.000000;1.013367
9930.000000;1.011507
9929.000000;1.009758
9928.000000;1.008282
9927.000000;1.007213
9926.000000;1.006538
9925.000000;1.005937
9924.000000;1.004939
9923.000000;1.003309
9922.000000;1.001222
9921.000000;0.999091
9920.000000;0.997268
9919.000000;0.995875
9918.000000;0.994822
9917.000000;0.993947
9916.000000;0.993105
9915.000000;0.992161
9914.000000;0.991010
9913.000000;0.989677
9912.000000;0.988325
9911.000000;0.987068
9910.000000;0.985803
9909.000000;0.984334
9908.000000;0.982638
9907.000000;0.980916
9906.000000;0.979386
9905.000000;0.978118
9904.000000;0.977054
9903.000000;0.976063
9902.000000;0.974942
9901.000000;0.973487
9900.000000;0.971653
9899.000000;0.969609
9898.000000;0.967613
9897.000000;0.965852
9896.000000;0.964411
9895.000000;0.963273
9894.000000;0.962312
9893.000000;0.961354
9892.000000;0.960300
9891.000000;0.959167
9890.000000;0.958002
9889.000000;0.956804
9888.000000;0.955543
9887.000000;0.954179
9886.000000;0.952672
9885.000000;0.951074
9884.000000;0.949613
9883.000000;0.948524
9882.000000;0.947736
9881.000000;0.946857
9880.000000;0.945615
9879.000000;0.944218
9878.000000;0.943064
9877.000000;0.942143
9876.000000;0.940946
9875.000000;0.939060
9874.000000;0.936683
9873.000000;0.934413
9872.000000;0.932617
9871.000000;0.931140
9870.000000;0.929617
9869.000000;0.927940
9868.000000;0.926382
9867.000000;0.925252
9866.000000;0.924494
9865.000000;0.923694
9864.000000;0.922510
9863.000000;0.921066
9862.000000;0.919761
9861.000000;0.918678
9860.000000;0.917384
9859.000000;0.915468
9858.000000;0.913164
9857.000000;0.911194
9856.000000;0.910004
9855.000000;0.909349
9854.000000;0.908656
9853.000000;0.907600
9852.000000;0.906214
9851.000000;0.904619
9850.000000;0.902867
9849.000000;0.901017
9848.000000;0.899196
9847.000000;0.897517
9846.000000;0.896022
9845.000000;0.894703
9844.000000;0.893503
9843.000000;0.892306
9842.000000;0.891003
9841.000000;0.889593
9840.000000;0.888169
9839.000000;0.886758
9838.000000;0.885244
9837.000000;0.883472
9836.000000;0.881437
9835.000000;0.879344
9834.000000;0.877443
9833.000000;0.875796
9832.000000;0.874208
9831.000000;0.872472
9830.000000;0.870687
9829.000000;0.869242
9828.000000;0.868410
9827.000000;0.867979
9826.000000;0.867360
9825.000000;0.866054
9824.000000;0.863990
9823.000000;0.861530
9822.000000;0.859230
9821.000000;0.857540
9820.000000;0.856550
9819.000000;0.855913
9818.000000;0.855072
9817.000000;0.853645
9816.000000;0.851651
9815.000000;0.849456
9814.000000;0.847499
9813.000000;0.845963
9812.000000;0.844613
9811.000000;0.843036
9810.000000;0.841143
9809.000000;0.839331
9808.000000;0.837957
9807.000000;0.836794
9806.000000;0.835288
9805.000000;0.833314
9804.000000;0.831351
9803.000000;0.829795
9802.000000;0.828461
9801.000000;0.826948
9800.000000;0.825257
9799.000000;0.823706
9798.000000;0.822364
9797.000000;0.820895
9796.000000;0.818983
9795.000000;0.816683
9794.000000;0.814253
9793.000000;0.811873
9792.000000;0.809632
9791.000000;0.807670
9790.000000;0.806162
9789.000000;0.805167
9788.000000;0.804512
9787.000000;0.803824
9786.000000;0.802722
9785.000000;0.801077
9784.000000;0.799109
9783.000000;0.797151
9782.000000;0.795330
9781.000000;0.793546
9780.000000;0.791771
9779.000000;0.790179
9778.000000;0.788881
9777.000000;0.787649
9776.000000;0.786094
9775.000000;0.784085
9774.000000;0.781855
9773.000000;0.779663
9772.000000;0.777538
9771.000000;0.775446
9770.000000;0.773524
9769.000000;0.771942
9768.000000;0.770563
9767.000000;0.768976
9766.000000;0.767006
9765.000000;0.765002
9764.000000;0.763450
9763.000000;0.762394
9762.000000;0.761433
9761.000000;0.760264
9760.000000;0.758981
9759.000000;0.757755
9758.000000;0.756465
9757.000000;0.754853
9756.000000;0.752907
9755.000000;0.750866
9754.000000;0.748867
9753.000000;0.746803
9752.000000;0.744579
9751.000000;0.742340
9750.000000;0.740323
9749.000000;0.738571
9748.000000;0.736925
9747.000000;0.735235
9746.000000;0.733461
9745.000000;0.731585
9744.000000;0.729558
9743.000000;0.727414
9742.000000;0.725331
9741.000000;0.723462
9740.000000;0.721757
9739.000000;0.720047
9738.000000;0.718317
9737.000000;0.716743
9736.000000;0.715401
9735.000000;0.714084
9734.000000;0.712527
9733.000000;0.710740
9732.000000;0.708970
9731.000000;0.707380
9730.000000;0.705896
9729.000000;0.704354
9728.000000;0.702630
9727.000000;0.700631
9726.000000;0.698328
9725.000000;0.695871
9724.000000;0.693516
9723.000000;0.691401
9722.000000;0.689508
9721.000000;0.687848
9720.000000;0.686475
9719.000000;0.685234
9718.000000;0.683741
9717.000000;0.681823
9716.000000;0.679803
9715.000000;0.678110
9714.000000;0.676720
9713.000000;0.675224
9712.000000;0.673374
9711.000000;0.671261
9710.000000;0.669010
9709.000000;0.666631
9708.000000;0.664227
9707.000000;0.662060
9706.000000;0.660234
9705.000000;0.658528
9704.000000;0.656675
9703.000000;0.654704
9702.000000;0.652867
9701.000000;0.651308
9700.000000;0.649909
9699.000000;0.648371
9698.000000;0.646400
9697.000000;0.643933
9696.000000;0.641244
9695.000000;0.638708
9694.000000;0.636393
9693.000000;0.634024
9692.000000;0.631439
9691.000000;0.628899
9690.000000;0.626802
9689.000000;0.625213
9688.000000;0.623864
9687.000000;0.622538
9686.000000;0.621208
9685.000000;0.619806
9684.000000;0.618114
9683.000000;0.615992
9682.000000;0.613583
9681.000000;0.611166
9680.000000;0.608859
9679.000000;0.606575
9678.000000;0.604217
9677.000000;0.601822
9676.000000;0.599496
9675.000000;0.597262
9674.000000;0.595057
9673.000000;0.592882
9672.000000;0.590896
9671.000000;0.589255
9670.000000;0.587902
9669.000000;0.586569
9668.000000;0.585027
9667.000000;0.583257
9666.000000;0.581351
9665.000000;0.579362
9664.000000;0.577301
9663.000000;0.575179
9662.000000;0.572942
9661.000000;0.570451
9660.000000;0.567642
9659.000000;0.564659
9658.000000;0.561772
9657.000000;0.559196
9656.000000;0.557018
9655.000000;0.555202
9654.000000;0.553544
9653.000000;0.551767
9652.000000;0.549772
9651.000000;0.547717
9650.000000;0.545752
9649.000000;0.543802
9648.000000;0.541757
9647.000000;0.539757
9646.000000;0.538004
9645.000000;0.536365
9644.000000;0.534438
9643.000000;0.532072
9642.000000;0.529556
9641.000000;0.527213
9640.000000;0.525065
9639.000000;0.522974
9638.000000;0.520895
9637.000000;0.518809
9636.000000;0.516607
9635.000000;0.514228
9634.000000;0.511805
9633.000000;0.509518
9632.000000;0.507376
9631.000000;0.505274
9630.000000;0.503168
9629.000000;0.501061
9628.000000;0.498904
9627.000000;0.496663
9626.000000;0.494428
9625.000000;0.492291
9624.000000;0.490177
9623.000000;0.487921
9622.000000;0.485468
9621.000000;0.482887
9620.000000;0.480230
9619.000000;0.477546
9618.000000;0.474997
9617.000000;0.472766
9616.000000;0.470825
9615.000000;0.468906
9614.000000;0.466760
9613.000000;0.464372
9612.000000;0.461926
9611.000000;0.459659
9610.000000;0.457720
9609.000000;0.456045
9608.000000;0.454305
9607.000000;0.452122
9606.000000;0.449434
9605.000000;0.446595
9604.000000;0.444016
9603.000000;0.441754
9602.000000;0.439497
9601.000000;0.436956
9600.000000;0.434193
9599.000000;0.431537
9598.000000;0.429191
9597.000000;0.427012
9596.000000;0.424735
9595.000000;0.422363
9594.000000;0.420205
9593.000000;0.418482
9592.000000;0.417018
9591.000000;0.415378
9590.000000;0.413229
9589.000000;0.410524
9588.000000;0.407477
9587.000000;0.404472
9586.000000;0.401874
9585.000000;0.399720
9584.000000;0.397633
9583.000000;0.395215
9582.000000;0.392518
9581.000000;0.389975
9580.000000;0.387886
9579.000000;0.386119
9578.000000;0.384279
9577.000000;0.382025
9576.000000;0.379254
9575.000000;0.376209
9574.000000;0.373412
9573.000000;0.371253
9572.000000;0.369525
9571.000000;0.367563
9570.000000;0.364955
9569.000000;0.361967
9568.000000;0.359134
9567.000000;0.356634
9566.000000;0.354267
9565.000000;0.351906
9564.000000;0.349660
9563.000000;0.347602
9562.000000;0.345538
9561.000000;0.343177
9560.000000;0.340457
9559.000000;0.337628
9558.000000;0.335038
9557.000000;0.332819
9556.000000;0.330781
9555.000000;0.328663
9554.000000;0.326490
9553.000000;0.324551
9552.000000;0.322918
9551.000000;0.321150
9550.000000;0.318717
9549.000000;0.315664
9548.000000;0.312642
9547.000000;0.310216
9546.000000;0.308332
9545.000000;0.306547
9544.000000;0.304591
9543.000000;0.302525
9542.000000;0.300450
9541.000000;0.298297
9540.000000;0.295976
9539.000000;0.293553
9538.000000;0.291169
9537.000000;0.288815
9536.000000;0.286352
9535.000000;0.283787
9534.000000;0.281436
9533.000000;0.279655
9532.000000;0.278373
9531.000000;0.277020
9530.000000;0.275034
9529.000000;0.272438
9528.000000;0.269799
9527.000000;0.267608
9526.000000;0.265813
9525.000000;0.264023
9524.000000;0.262019
9523.000000;0.259914
9522.000000;0.257865
9521.000000;0.255843
9520.000000;0.253756
9519.000000;0.251660
9518.000000;0.249690
9517.000000;0.247864
9516.000000;0.246075
9515.000000;0.244246
9514.000000;0.242387
9513.000000;0.240498
9512.000000;0.238579
9511.000000;0.236742
9510.000000;0.235151
9509.000000;0.233772
9508.000000;0.232311
9507.000000;0.230534
9506.000000;0.228520
9505.000000;0.226473
9504.000000;0.224411
9503.000000;0.222279
9502.000000;0.220285
9501.000000;0.218803
9500.000000;0.217817
9499.000000;0.216702
9498.000000;0.214848
9497.000000;0.212394
9496.000000;0.210094
9495.000000;0.208452
9494.000000;0.207248
9493.000000;0.205974
9492.000000;0.204527
9491.000000;0.203196
9490.000000;0.202075
9489.000000;0.200825
9488.000000;0.199152
9487.000000;0.197299
9486.000000;0.195807
9485.000000;0.194866
9484.000000;0.194130
9483.000000;0.193175
9482.000000;0.191928
9481.000000;0.190604
9480.000000;0.189404
9479.000000;0.188425
9478.000000;0.187652
9477.000000;0.186868
9476.000000;0.185693
9475.000000;0.183955
9474.000000;0.182002
9473.000000;0.180447
9472.000000;0.179599
9471.000000;0.179241
9470.000000;0.178943
9469.000000;0.178409
9468.000000;0.177548
9467.000000;0.176417
9466.000000;0.175226
9465.000000;0.174258
9464.000000;0.173666
9463.000000;0.173347
9462.000000;0.173057
9461.000000;0.172569
9460.000000;0.171754
9459.000000;0.170644
9458.000000;0.169477
9457.000000;0.168548
9456.000000;0.167953
9455.000000;0.167546
9454.000000;0.167194
9453.000000;0.166974
9452.000000;0.167011
9451.000000;0.167210
9450.000000;0.167261
9449.000000;0.166926
9448.000000;0.166268
9447.000000;0.165612
9446.000000;0.165307
9445.000000;0.165467
9444.000000;0.165892
9443.000000;0.166231
9442.000000;0.166270
9441.000000;0.166056
9440.000000;0.165774
9439.000000;0.165574
9438.000000;0.165505
9437.000000;0.165544
9436.000000;0.165636
9435.000000;0.165763
9434.000000;0.165988
9433.000000;0.166381
9432.000000;0.166877
9431.000000;0.167283
9430.000000;0.167455
9429.000000;0.167419
9428.000000;0.167277
9427.000000;0.167082
9426.000000;0.166881
9425.000000;0.166845
9424.000000;0.167241
9423.000000;0.168211
9422.000000;0.169571
9421.000000;0.170847
9420.000000;0.171567
9419.000000;0.171648
9418.000000;0.171500
9417.000000;0.171668
9416.000000;0.172305
9415.000000;0.173049
9414.000000;0.173438
9413.000000;0.173411
9412.000000;0.173355
9411.000000;0.173714
9410.000000;0.174626
9409.000000;0.175884
9408.000000;0.177118
9407.000000;0.178013
9406.000000;0.178481
9405.000000;0.178729
9404.000000;0.179154
9403.000000;0.180024
9402.000000;0.181233
9401.000000;0.182374
9400.000000;0.183146
9399.000000;0.183651
9398.000000;0.184247
9397.000000;0.185157
9396.000000;0.186314
9395.000000;0.187551
9394.000000;0.188800
9393.000000;0.190041
9392.000000;0.191185
9391.000000;0.192134
9390.000000;0.192921
9389.000000;0.193672
9388.000000;0.194483
9387.000000;0.195372
9386.000000;0.196312
9385.000000;0.197241
9384.000000;0.198105
9383.000000;0.198970
9382.000000;0.199994
9381.000000;0.201167
9380.000000;0.202187
9379.000000;0.202794
9378.000000;0.203190
9377.000000;0.203935
9376.000000;0.205392
9375.000000;0.207382
9374.000000;0.209394
9373.000000;0.210987
9372.000000;0.211996
9371.000000;0.212560
9370.000000;0.213049
9369.000000;0.213813
9368.000000;0.214867
9367.000000;0.215896
9366.000000;0.216634
9365.000000;0.217182
9364.000000;0.217917
9363.000000;0.219155
9362.000000;0.220920
9361.000000;0.222926
9360.000000;0.224730
9359.000000;0.226031
9358.000000;0.226901
9357.000000;0.227676
9356.000000;0.228604
9355.000000;0.229672
9354.000000;0.230768
9353.000000;0.231851
9352.000000;0.232922
9351.000000;0.233994
9350.000000;0.235171
9349.000000;0.236613
9348.000000;0.238301
9347.000000;0.239962
9346.000000;0.241360
9345.000000;0.242563
9344.000000;0.243768
9343.000000;0.244973
9342.000000;0.246008
9341.000000;0.246845
9340.000000;0.247701
9339.000000;0.248780
9338.000000;0.250070
9337.000000;0.251408
9336.000000;0.252650
9335.000000;0.253746
9334.000000;0.254727
9333.000000;0.255691
9332.000000;0.256740
9331.000000;0.257889
9330.000000;0.259035
9329.000000;0.260059
9328.000000;0.260945
9327.000000;0.261827
9326.000000;0.262912
9325.000000;0.264331
9324.000000;0.266026
9323.000000;0.267763
9322.000000;0.269284
9321.000000;0.270473
9320.000000;0.271408
9319.000000;0.272276
9318.000000;0.273231
9317.000000;0.274273
9316.000000;0.275281
9315.000000;0.276205
9314.000000;0.277170
9313.000000;0.278294
9312.000000;0.279471
9311.000000;0.280475
9310.000000;0.281321
9309.000000;0.282343
9308.000000;0.283800
9307.000000;0.285531
9306.000000;0.287126
9305.000000;0.288367
9304.000000;0.289363
9303.000000;0.290316
9302.000000;0.291290
9301.000000;0.292247
9300.000000;0.293173
9299.000000;0.294117
9298.000000;0.295157
9297.000000;0.296341
9296.000000;0.297642
9295.000000;0.298958
9294.000000;0.300182
9293.000000;0.301284
9292.000000;0.302324
9291.000000;0.303392
9290.000000;0.304527
9289.000000;0.305643
9288.000000;0.306564
9287.000000;0.307212
9286.000000;0.307749
9285.000000;0.308473
9284.000000;0.309530
9283.000000;0.310830
9282.000000;0.312240
9281.000000;0.313707
9280.000000;0.315128
9279.000000;0.316268
9278.000000;0.316979
9277.000000;0.317442
9276.000000;0.318024
9275.000000;0.318916
9274.000000;0.319990
9273.000000;0.321022
9272.000000;0.321943
9271.000000;0.322899
9270.000000;0.324119
9269.000000;0.325701
9268.000000;0.327412
9267.000000;0.328771
9266.000000;0.329437
9265.000000;0.329543
9264.000000;0.329566
9263.000000;0.329909
9262.000000;0.330699
9261.000000;0.331885
9260.000000;0.333317
9259.000000;0.334732
9258.000000;0.335873
9257.000000;0.336729
9256.000000;0.337547
9255.000000;0.338514
9254.000000;0.339546
9253.000000;0.340462
9252.000000;0.341233
9251.000000;0.341960
9250.000000;0.342696
9249.000000;0.343467
9248.000000;0.344388
9247.000000;0.345556
9246.000000;0.346809
9245.000000;0.347773
9244.000000;0.348241
9243.000000;0.348425
9242.000000;0.348755
9241.000000;0.349505
9240.000000;0.350667
9239.000000;0.352053
9238.000000;0.353411
9237.000000;0.354490
9236.000000;0.355181
9235.000000;0.355638
9234.000000;0.356165
9233.000000;0.356940
9232.000000;0.357916
9231.000000;0.358975
9230.000000;0.360063
9229.000000;0.361098
9228.000000;0.361923
9227.000000;0.362467
9226.000000;0.362909
9225.000000;0.363509
9224.000000;0.364346
9223.000000;0.365309
9222.000000;0.366300
9221.000000;0.367279
9220.000000;0.368148
9219.000000;0.368791
9218.000000;0.369272
9217.000000;0.369839
9216.000000;0.370650
9215.000000;0.371635
9214.000000;0.372672
9213.000000;0.373740
9212.000000;0.374817
9211.000000;0.375765
9210.000000;0.376472
9209.000000;0.377009
9208.000000;0.377542
9207.000000;0.378146
9206.000000;0.378825
9205.000000;0.379594
9204.000000;0.380415
9203.000000;0.381138
9202.000000;0.381649
9201.000000;0.382064
9200.000000;0.382632
9199.000000;0.383466
9198.000000;0.384488
9197.000000;0.385595
9196.000000;0.386728
9195.000000;0.387778
9194.000000;0.388572
9193.000000;0.389036
9192.000000;0.389307
9191.000000;0.389625
9190.000000;0.390144
9189.000000;0.390840
9188.000000;0.391542
9187.000000;0.392064
9186.000000;0.392380
9185.000000;0.392664
9184.000000;0.393112
9183.000000;0.393742
9182.000000;0.394416
9181.000000;0.395037
9180.000000;0.395616
9179.000000;0.396180
9178.000000;0.396732
9177.000000;0.397314
9176.000000;0.398012
9175.000000;0.398845
9174.000000;0.399728
9173.000000;0.400577
9172.000000;0.401387
9171.000000;0.402190
9170.000000;0.402984
9169.000000;0.403734
9168.000000;0.404412
9167.000000;0.405009
9166.000000;0.405548
9165.000000;0.406076
9164.000000;0.406610
9163.000000;0.407100
9162.000000;0.407494
9161.000000;0.407844
9160.000000;0.408286
9159.000000;0.408902
9158.000000;0.409632
9157.000000;0.410325
9156.000000;0.410847
9155.000000;0.411184
9154.000000;0.411468
9153.000000;0.411882
9152.000000;0.412482
9151.000000;0.413161
9150.000000;0.413806
9149.000000;0.414437
9148.000000;0.415084
9147.000000;0.415630
9146.000000;0.415923
9145.000000;0.416047
9144.000000;0.416318
9143.000000;0.416954
9142.000000;0.417860
9141.000000;0.418772
9140.000000;0.419517
9139.000000;0.420093
9138.000000;0.420564
9137.000000;0.420975
9136.000000;0.421325
9135.000000;0.421612
9134.000000;0.421908
9133.000000;0.422346
9132.000000;0.422973
9131.000000;0.423630
9130.000000;0.424107
9129.000000;0.424416
9128.000000;0.424796
9127.000000;0.425417
9126.000000;0.426179
9125.000000;0.426861
9124.000000;0.427361
9123.000000;0.427715
9122.000000;0.427988
9121.000000;0.428227
9120.000000;0.428453
9119.000000;0.428636
9118.000000;0.428716
9117.000000;0.428736
9116.000000;0.428892
9115.000000;0.429366
9114.000000;0.430134
9113.000000;0.430978
9112.000000;0.431667
9111.000000;0.432110
9110.000000;0.432370
9109.000000;0.432597
9108.000000;0.432892
9107.000000;0.433223
9106.000000;0.433514
9105.000000;0.433833
9104.000000;0.434366
9103.000000;0.435148
9102.000000;0.435930
9101.000000;0.436408
9100.000000;0.436554
9099.000000;0.436595
9098.000000;0.436735
9097.000000;0.436994
9096.000000;0.437313
9095.000000;0.437669
9094.000000;0.438080
9093.000000;0.438564
9092.000000;0.439097
9091.000000;0.439586
9090.000000;0.439900
9089.000000;0.440017
9088.000000;0.440108
9087.000000;0.440401
9086.000000;0.440954
9085.000000;0.441636
9084.000000;0.442329
9083.000000;0.443020
9082.000000;0.443707
9081.000000;0.444298
9080.000000;0.444689
9079.000000;0.444871
9078.000000;0.444924
9077.000000;0.444931
9076.000000;0.444959
9075.000000;0.445066
9074.000000;0.445286
9073.000000;0.445593
9072.000000;0.445919
9071.000000;0.446196
9070.000000;0.446397
9069.000000;0.446558
9068.000000;0.446760
9067.000000;0.447064
9066.000000;0.447457
9065.000000;0.447870
9064.000000;0.448266
9063.000000;0.448655
9062.000000;0.449030
9061.000000;0.449322
9060.000000;0.449463
9059.000000;0.449489
9058.000000;0.449548
9057.000000;0.449793
9056.000000;0.450243
9055.000000;0.450752
9054.000000;0.451138
9053.000000;0.451369
9052.000000;0.451584
9051.000000;0.451918
9050.000000;0.452342
9049.000000;0.452724
9048.000000;0.452999
9047.000000;0.453191
9046.000000;0.453304
9045.000000;0.453299
9044.000000;0.453230
9043.000000;0.453285
9042.000000;0.453597
9041.000000;0.454077
9040.000000;0.454522
9039.000000;0.454845
9038.000000;0.455131
9037.000000;0.455453
9036.000000;0.455742
9035.000000;0.455880
9034.000000;0.455865
9033.000000;0.455842
9032.000000;0.455968
9031.000000;0.456240
9030.000000;0.456485
9029.000000;0.456546
9028.000000;0.456487
9027.000000;0.456541
9026.000000;0.456836
9025.000000;0.457220
9024.000000;0.457464
9023.000000;0.457561
9022.000000;0.457706
9021.000000;0.457992
9020.000000;0.458271
9019.000000;0.458394
9018.000000;0.458449
9017.000000;0.458669
9016.000000;0.459155
9015.000000;0.459781
9014.000000;0.460316
9013.000000;0.460551
9012.000000;0.460383
9011.000000;0.459906
9010.000000;0.459420
9009.000000;0.459219
9008.000000;0.459355
9007.000000;0.459687
9006.000000;0.460140
9005.000000;0.460760
9004.000000;0.461479
9003.000000;0.461983
9002.000000;0.461974
9001.000000;0.461515
9000.000000;0.461000
8999.000000;0.460793
8998.000000;0.460944
8997.000000;0.461251
8996.000000;0.461488
8995.000000;0.461577
8994.000000;0.461579
8993.000000;0.461598
8992.000000;0.461693
8991.000000;0.461889
8990.000000;0.462211
8989.000000;0.462641
8988.000000;0.463040
8987.000000;0.463230
8986.000000;0.463197
8985.000000;0.463136
8984.000000;0.463234
8983.000000;0.463462
8982.000000;0.463658
8981.000000;0.463729
8980.000000;0.463691
8979.000000;0.463577
8978.000000;0.463431
8977.000000;0.463387
8976.000000;0.463579
8975.000000;0.463961
8974.000000;0.464323
8973.000000;0.464534
8972.000000;0.464673
8971.000000;0.464881
8970.000000;0.465185
8969.000000;0.465520
8968.000000;0.465819
8967.000000;0.466013
8966.000000;0.466019
8965.000000;0.465831
8964.000000;0.465598
8963.000000;0.465516
8962.000000;0.465618
8961.000000;0.465753
8960.000000;0.465752
8959.000000;0.465590
8958.000000;0.465389
8957.000000;0.465299
8956.000000;0.465389
8955.000000;0.465611
8954.000000;0.465839
8953.000000;0.465980
8952.000000;0.466040
8951.000000;0.466098
8950.000000;0.466202
8949.000000;0.466318
8948.000000;0.466378
8947.000000;0.466371
8946.000000;0.466371
8945.000000;0.466439
8944.000000;0.466544
8943.000000;0.466590
8942.000000;0.466560
8941.000000;0.466563
8940.000000;0.466709
8939.000000;0.466958
8938.000000;0.467156
8937.000000;0.467185
8936.000000;0.467053
8935.000000;0.466860
8934.000000;0.466742
8933.000000;0.466833
8932.000000;0.467161
8931.000000;0.467569
8930.000000;0.467808
8929.000000;0.467753
8928.000000;0.467498
8927.000000;0.467210
8926.000000;0.466981
8925.000000;0.466824
8924.000000;0.466718
8923.000000;0.466615
8922.000000;0.466467
8921.000000;0.466327
8920.000000;0.466355
8919.000000;0.466648
8918.000000;0.467100
8917.000000;0.467510
8916.000000;0.467766
8915.000000;0.467872
8914.000000;0.467843
8913.000000;0.467691
8912.000000;0.467497
8911.000000;0.467381
8910.000000;0.467360
8909.000000;0.467317
8908.000000;0.467147
8907.000000;0.466877
8906.000000;0.466622
8905.000000;0.466460
8904.000000;0.466405
8903.000000;0.466455
8902.000000;0.466625
8901.000000;0.466928
8900.000000;0.467338
8899.000000;0.467734
8898.000000;0.467911
8897.000000;0.467699
8896.000000;0.467132
8895.000000;0.466483
8894.000000;0.466060
8893.000000;0.465973
8892.000000;0.466095
8891.000000;0.466241
8890.000000;0.466337
8889.000000;0.466431
8888.000000;0.466581
8887.000000;0.466796
8886.000000;0.467043
8885.000000;0.467259
8884.000000;0.467342
8883.000000;0.467208
8882.000000;0.466911
8881.000000;0.466646
8880.000000;0.466558
8879.000000;0.466586
8878.000000;0.466572
8877.000000;0.466490
8876.000000;0.466465
8875.000000;0.466568
8874.000000;0.466714
8873.000000;0.466803
8872.000000;0.466853
8871.000000;0.466904
8870.000000;0.466908
8869.000000;0.466824
8868.000000;0.466727
8867.000000;0.466692
8866.000000;0.466624
8865.000000;0.466361
8864.000000;0.465968
8863.000000;0.465737
8862.000000;0.465842
8861.000000;0.466107
8860.000000;0.466195
8859.000000;0.465962
8858.000000;0.465544
8857.000000;0.465167
8856.000000;0.464985
8855.000000;0.465063
8854.000000;0.465389
8853.000000;0.465848
8852.000000;0.466222
8851.000000;0.466300
8850.000000;0.466010
8849.000000;0.465485
8848.000000;0.464994
8847.000000;0.464780
8846.000000;0.464906
8845.000000;0.465239
8844.000000;0.465572
8843.000000;0.465747
8842.000000;0.465702
8841.000000;0.465472
8840.000000;0.465194
8839.000000;0.465035
8838.000000;0.465031
8837.000000;0.465027
8836.000000;0.464852
8835.000000;0.464552
8834.000000;0.464369
8833.000000;0.464482
8832.000000;0.464824
8831.000000;0.465188
8830.000000;0.465404
8829.000000;0.465382
8828.000000;0.465093
8827.000000;0.464636
8826.000000;0.464273
8825.000000;0.464219
8824.000000;0.464378
8823.000000;0.464409
8822.000000;0.464142
8821.000000;0.463809
8820.000000;0.463756
8819.000000;0.464014
8818.000000;0.464281
8817.000000;0.464318
8816.000000;0.464223
8815.000000;0.464268
8814.000000;0.464589
8813.000000;0.465074
8812.000000;0.465484
8811.000000;0.465621
8810.000000;0.465439
8809.000000;0.465059
8808.000000;0.464667
8807.000000;0.464373
8806.000000;0.464187
8805.000000;0.464126
8804.000000;0.464268
8803.000000;0.464637
8802.000000;0.465110
8801.000000;0.465489
8800.000000;0.465650
8799.000000;0.465563
8798.000000;0.465225
8797.000000;0.464680
8796.000000;0.464100
8795.000000;0.463724
8794.000000;0.463649
8793.000000;0.463750
8792.000000;0.463845
8791.000000;0.463905
8790.000000;0.464034
8789.000000;0.464270
8788.000000;0.464508
8787.000000;0.464629
8786.000000;0.464655
8785.000000;0.464686
8784.000000;0.464717
8783.000000;0.464616
8782.000000;0.464326
8781.000000;0.464014
8780.000000;0.463902
8779.000000;0.464017
8778.000000;0.464193
8777.000000;0.464327
8776.000000;0.464487
8775.000000;0.464736
8774.000000;0.464982
8773.000000;0.465104
8772.000000;0.465126
8771.000000;0.465147
8770.000000;0.465153
8769.000000;0.465032
8768.000000;0.464784
8767.000000;0.464561
8766.000000;0.464474
8765.000000;0.464475
8764.000000;0.464457
8763.000000;0.464420
8762.000000;0.464460
8761.000000;0.464649
8760.000000;0.464960
8759.000000;0.465298
8758.000000;0.465554
8757.000000;0.465672
8756.000000;0.465674
8755.000000;0.465626
8754.000000;0.465575
8753.000000;0.465526
8752.000000;0.465463
8751.000000;0.465375
8750.000000;0.465228
8749.000000;0.464988
8748.000000;0.464678
8747.000000;0.464414
8746.000000;0.464349
8745.000000;0.464550
8744.000000;0.464920
8743.000000;0.465237
8742.000000;0.465330
8741.000000;0.465241
8740.000000;0.465183
8739.000000;0.465293
8738.000000;0.465484
8737.000000;0.465583
8736.000000;0.465576
8735.000000;0.465598
8734.000000;0.465711
8733.000000;0.465787
8732.000000;0.465652
8731.000000;0.465270
8730.000000;0.464796
8729.000000;0.464464
8728.000000;0.464443
8727.000000;0.464704
8726.000000;0.465020
8725.000000;0.465169
8724.000000;0.465146
8723.000000;0.465098
8722.000000;0.465072
8721.000000;0.464950
8720.000000;0.464683
8719.000000;0.464449
8718.000000;0.464470
8717.000000;0.464743
8716.000000;0.465053
8715.000000;0.465228
8714.000000;0.465297
8713.000000;0.465398
8712.000000;0.465610
8711.000000;0.465865
8710.000000;0.465993
8709.000000;0.465853
8708.000000;0.465486
8707.000000;0.465094
8706.000000;0.464837
8705.000000;0.464674
8704.000000;0.464449
8703.000000;0.464115
8702.000000;0.463813
8701.000000;0.463727
8700.000000;0.463901
8699.000000;0.464195
8698.000000;0.464386
8697.000000;0.464343
8696.000000;0.464124
8695.000000;0.463908
8694.000000;0.463815
8693.000000;0.463799
8692.000000;0.463724
8691.000000;0.463525
8690.000000;0.463258
8689.000000;0.463038
8688.000000;0.462970
8687.000000;0.463081
8686.000000;0.463265
8685.000000;0.463325
8684.000000;0.463133
8683.000000;0.462741
8682.000000;0.462292
8681.000000;0.461881
8680.000000;0.461537
8679.000000;0.461321
8678.000000;0.461304
8677.000000;0.461454
8676.000000;0.461606
8675.000000;0.461608
8674.000000;0.461441
8673.000000;0.461172
8672.000000;0.460837
8671.000000;0.460434
8670.000000;0.460004
8669.000000;0.459651
8668.000000;0.459461
8667.000000;0.459413
8666.000000;0.459396
8665.000000;0.459300
8664.000000;0.459091
8663.000000;0.458796
8662.000000;0.458450
8661.000000;0.458103
8660.000000;0.457842
8659.000000;0.457744
8658.000000;0.457792
8657.000000;0.457858
8656.000000;0.457804
8655.000000;0.457558
8654.000000;0.457122
8653.000000;0.456562
8652.000000;0.456023
8651.000000;0.455670
8650.000000;0.455534
8649.000000;0.455463
8648.000000;0.455276
8647.000000;0.454936
8646.000000;0.454525
8645.000000;0.454085
8644.000000;0.453584
8643.000000;0.453049
8642.000000;0.452632
8641.000000;0.452493
8640.000000;0.452623
8639.000000;0.452814
8638.000000;0.452814
8637.000000;0.452516
8636.000000;0.452029
8635.000000;0.451539
8634.000000;0.451144
8633.000000;0.450856
8632.000000;0.450711
8631.000000;0.450751
8630.000000;0.450866
8629.000000;0.450778
8628.000000;0.450321
8627.000000;0.449650
8626.000000;0.449067
8625.000000;0.448687
8624.000000;0.448402
8623.000000;0.448109
8622.000000;0.447823
8621.000000;0.447548
8620.000000;0.447219
8619.000000;0.446822
8618.000000;0.446431
8617.000000;0.446075
8616.000000;0.445682
8615.000000;0.445229
8614.000000;0.444827
8613.000000;0.444555
8612.000000;0.444322
8611.000000;0.443993
8610.000000;0.443577
8609.000000;0.443175
8608.000000;0.442800
8607.000000;0.442384
8606.000000;0.441946
8605.000000;0.441615
8604.000000;0.441471
8603.000000;0.441455
8602.000000;0.441457
8601.000000;0.441405
8600.000000;0.441238
8599.000000;0.440879
8598.000000;0.440320
8597.000000;0.439680
8596.000000;0.439115
8595.000000;0.438695
8594.000000;0.438394
8593.000000;0.438167
8592.000000;0.437990
8591.000000;0.437815
8590.000000;0.437564
8589.000000;0.437212
8588.000000;0.436839
8587.000000;0.436549
8586.000000;0.436324
8585.000000;0.436004
8584.000000;0.435457
8583.000000;0.434759
8582.000000;0.434154
8581.000000;0.433808
8580.000000;0.433651
8579.000000;0.433477
8578.000000;0.433180
8577.000000;0.432834
8576.000000;0.432573
8575.000000;0.432420
8574.000000;0.432272
8573.000000;0.432002
8572.000000;0.431571
8571.000000;0.431045
8570.000000;0.430529
8569.000000;0.430095
8568.000000;0.429742
8567.000000;0.429419
8566.000000;0.429080
8565.000000;0.428719
8564.000000;0.428359
8563.000000;0.428012
8562.000000;0.427668
8561.000000;0.427330
8560.000000;0.427029
8559.000000;0.426760
8558.000000;0.426459
8557.000000;0.426061
8556.000000;0.425614
8555.000000;0.425248
8554.000000;0.425023
8553.000000;0.424846
8552.000000;0.424566
8551.000000;0.424134
8550.000000;0.423618
8549.000000;0.423099
8548.000000;0.422625
8547.000000;0.422227
8546.000000;0.421905
8545.000000;0.421604
8544.000000;0.421253
8543.000000;0.420847
8542.000000;0.420458
8541.000000;0.420145
8540.000000;0.419899
8539.000000;0.419668
8538.000000;0.419387
8537.000000;0.418994
8536.000000;0.418475
8535.000000;0.417914
8534.000000;0.417445
8533.000000;0.417126
8532.000000;0.416903
8531.000000;0.416695
8530.000000;0.416456
8529.000000;0.416146
8528.000000;0.415729
8527.000000;0.415263
8526.000000;0.414893
8525.000000;0.414703
8524.000000;0.414604
8523.000000;0.414442
8522.000000;0.414168
8521.000000;0.413816
8520.000000;0.413360
8519.000000;0.412726
8518.000000;0.411963
8517.000000;0.411301
8516.000000;0.410959
8515.000000;0.410901
8514.000000;0.410859
8513.000000;0.410591
8512.000000;0.410118
8511.000000;0.409675
8510.000000;0.409451
8509.000000;0.409380
8508.000000;0.409229
8507.000000;0.408872
8506.000000;0.408402
8505.000000;0.407993
8504.000000;0.407696
8503.000000;0.407457
8502.000000;0.407234
8501.000000;0.407018
8500.000000;0.406754
8499.000000;0.406360
8498.000000;0.405848
8497.000000;0.405343
8496.000000;0.404926
8495.000000;0.404550
8494.000000;0.404142
8493.000000;0.403731
8492.000000;0.403400
8491.000000;0.403152
8490.000000;0.402899
8489.000000;0.402584
8488.000000;0.402233
8487.000000;0.401875
8486.000000;0.401468
8485.000000;0.400969
8484.000000;0.400414
8483.000000;0.399903
8482.000000;0.399507
8481.000000;0.399224
8480.000000;0.399030
8479.000000;0.398905
8478.000000;0.398814
8477.000000;0.398661
8476.000000;0.398333
8475.000000;0.397814
8474.000000;0.397230
8473.000000;0.396764
8472.000000;0.396493
8471.000000;0.396326
8470.000000;0.396111
8469.000000;0.395779
8468.000000;0.395375
8467.000000;0.394963
8466.000000;0.394562
8465.000000;0.394163
8464.000000;0.393770
8463.000000;0.393378
8462.000000;0.392960
8461.000000;0.392517
8460.000000;0.392122
8459.000000;0.391866
8458.000000;0.391742
8457.000000;0.391640
8456.000000;0.391459
8455.000000;0.391200
8454.000000;0.390922
8453.000000;0.390647
8452.000000;0.390355
8451.000000;0.390043
8450.000000;0.389740
8449.000000;0.389461
8448.000000;0.389175
8447.000000;0.388817
8446.000000;0.388341
8445.000000;0.387778
8444.000000;0.387237
8443.000000;0.386834
8442.000000;0.386574
8441.000000;0.386328
8440.000000;0.385957
8439.000000;0.385454
8438.000000;0.384962
8437.000000;0.384652
8436.000000;0.384591
8435.000000;0.384702
8434.000000;0.384808
8433.000000;0.384742
8432.000000;0.384443
8431.000000;0.383981
8430.000000;0.383467
8429.000000;0.382969
8428.000000;0.382499
8427.000000;0.382055
8426.000000;0.381628
8425.000000;0.381209
8424.000000;0.380830
8423.000000;0.380567
8422.000000;0.380464
8421.000000;0.380459
8420.000000;0.380432
8419.000000;0.380329
8418.000000;0.380188
8417.000000;0.380044
8416.000000;0.379869
8415.000000;0.379613
8414.000000;0.379261
8413.000000;0.378834
8412.000000;0.378368
8411.000000;0.377914
8410.000000;0.377533
8409.000000;0.377253
8408.000000;0.377039
8407.000000;0.376800
8406.000000;0.376451
8405.000000;0.375990
8404.000000;0.375550
8403.000000;0.375297
8402.000000;0.375239
8401.000000;0.375172
8400.000000;0.374882
8399.000000;0.374376
8398.000000;0.373843
8397.000000;0.373429
8396.000000;0.373150
8395.000000;0.372975
8394.000000;0.372871
8393.000000;0.372754
8392.000000;0.372537
8391.000000;0.372262
8390.000000;0.372062
8389.000000;0.371960
8388.000000;0.371803
8387.000000;0.371480
8386.000000;0.371077
8385.000000;0.370733
8384.000000;0.370444
8383.000000;0.370128
8382.000000;0.369810
8381.000000;0.369585
8380.000000;0.369431
8379.000000;0.369198
8378.000000;0.368795
8377.000000;0.368300
8376.000000;0.367867
8375.000000;0.367601
8374.000000;0.367514
8373.000000;0.367525
8372.000000;0.367490
8371.000000;0.367284
8370.000000;0.366893
8369.000000;0.366386
8368.000000;0.365833
8367.000000;0.365275
8366.000000;0.364774
8365.000000;0.364384
8364.000000;0.364107
8363.000000;0.363901
8362.000000;0.363741
8361.000000;0.363594
8360.000000;0.363363
8359.000000;0.362942
8358.000000;0.362356
8357.000000;0.361770
8356.000000;0.361345
8355.000000;0.361118
8354.000000;0.361024
8353.000000;0.360971
8352.000000;0.360874
8351.000000;0.360685
8350.000000;0.360413
8349.000000;0.360102
8348.000000;0.359774
8347.000000;0.359441
8346.000000;0.359148
8345.000000;0.358935
8344.000000;0.358764
8343.000000;0.358548
8342.000000;0.358272
8341.000000;0.358012
8340.000000;0.357814
8339.000000;0.357635
8338.000000;0.357410
8337.000000;0.357134
8336.000000;0.356817
8335.000000;0.356452
8334.000000;0.356062
8333.000000;0.355720
8332.000000;0.355484
8331.000000;0.355337
8330.000000;0.355240
8329.000000;0.355171
8328.000000;0.355091
8327.000000;0.354929
8326.000000;0.354649
8325.000000;0.354298
8324.000000;0.353930
8323.000000;0.353547
8322.000000;0.353156
8321.000000;0.352826
8320.000000;0.352611
8319.000000;0.352438
8318.000000;0.352185
8317.000000;0.351820
8316.000000;0.351414
8315.000000;0.351012
8314.000000;0.350608
8313.000000;0.350246
8312.000000;0.350053
8311.000000;0.350082
8310.000000;0.350198
8309.000000;0.350173
8308.000000;0.349903
8307.000000;0.349496
8306.000000;0.349132
8305.000000;0.348877
8304.000000;0.348635
8303.000000;0.348294
8302.000000;0.347881
8301.000000;0.347553
8300.000000;0.347416
8299.000000;0.347417
8298.000000;0.347421
8297.000000;0.347361
8296.000000;0.347250
8295.000000;0.347090
8294.000000;0.346844
8293.000000;0.346502
8292.000000;0.346135
8291.000000;0.345842
8290.000000;0.345668
8289.000000;0.345569
8288.000000;0.345426
8287.000000;0.345112
8286.000000;0.344612
8285.000000;0.344084
8284.000000;0.343735
8283.000000;0.343628
8282.000000;0.343640
8281.000000;0.343622
8280.000000;0.343520
8279.000000;0.343341
8278.000000;0.343088
8277.000000;0.342773
8276.000000;0.342428
8275.000000;0.342047
8274.000000;0.341603
8273.000000;0.341157
8272.000000;0.340883
8271.000000;0.340876
8270.000000;0.340986
8269.000000;0.340966
8268.000000;0.340743
8267.000000;0.340456
8266.000000;0.340220
8265.000000;0.340009
8264.000000;0.339793
8263.000000;0.339639
8262.000000;0.339593
8261.000000;0.339558
8260.000000;0.339383
8259.000000;0.339037
8258.000000;0.338621
8257.000000;0.338254
8256.000000;0.338004
8255.000000;0.337899
8254.000000;0.337895
8253.000000;0.337856
8252.000000;0.337648
8251.000000;0.337268
8250.000000;0.336846
8249.000000;0.336519
8248.000000;0.336346
8247.000000;0.336312
8246.000000;0.336339
8245.000000;0.336304
8244.000000;0.336108
8243.000000;0.335766
8242.000000;0.335388
8241.000000;0.335070
8240.000000;0.334848
8239.000000;0.334729
8238.000000;0.334708
8237.000000;0.334721
8236.000000;0.334647
8235.000000;0.334392
8234.000000;0.333970
8233.000000;0.333490
8232.000000;0.333098
8231.000000;0.332929
8230.000000;0.333015
8229.000000;0.333211
8228.000000;0.333273
8227.000000;0.333082
8226.000000;0.332767
8225.000000;0.332549
8224.000000;0.332519
8223.000000;0.332607
8222.000000;0.332722
8221.000000;0.332824
8220.000000;0.332863
8219.000000;0.332751
8218.000000;0.332442
8217.000000;0.331996
8216.000000;0.331544
8215.000000;0.331184
8214.000000;0.330943
8213.000000;0.330799
8212.000000;0.330705
8211.000000;0.330610
8210.000000;0.330475
8209.000000;0.330278
8208.000000;0.330005
8207.000000;0.329677
8206.000000;0.329357
8205.000000;0.329126
8204.000000;0.329013
8203.000000;0.328970
8202.000000;0.328934
8201.000000;0.328899
8200.000000;0.328897
8199.000000;0.328927
8198.000000;0.328919
8197.000000;0.328785
8196.000000;0.328501
8195.000000;0.328133
8194.000000;0.327800
8193.000000;0.327609
8192.000000;0.327610
8191.000000;0.327772
8190.000000;0.327980
8189.000000;0.328068
8188.000000;0.327920
8187.000000;0.327562
8186.000000;0.327148
8185.000000;0.326831
8184.000000;0.326655
8183.000000;0.326555
8182.000000;0.326447
8181.000000;0.326289
8180.000000;0.326095
8179.000000;0.325910
8178.000000;0.325772
8177.000000;0.325660
8176.000000;0.325493
8175.000000;0.325219
8174.000000;0.324894
8173.000000;0.324644
8172.000000;0.324521
8171.000000;0.324455
8170.000000;0.324355
8169.000000;0.324229
8168.000000;0.324146
8167.000000;0.324119
8166.000000;0.324086
8165.000000;0.324021
8164.000000;0.323964
8163.000000;0.323934
8162.000000;0.323859
8161.000000;0.323672
8160.000000;0.323428
8159.000000;0.323252
8158.000000;0.323175
8157.000000;0.323110
8156.000000;0.322991
8155.000000;0.322868
8154.000000;0.322804
8153.000000;0.322754
8152.000000;0.322633
8151.000000;0.322445
8150.000000;0.322281
8149.000000;0.322180
8148.000000;0.322082
8147.000000;0.321938
8146.000000;0.321809
8145.000000;0.321793
8144.000000;0.321882
8143.000000;0.321960
8142.000000;0.321927
8141.000000;0.321804
8140.000000;0.321685
8139.000000;0.321625
8138.000000;0.321573
8137.000000;0.321441
8136.000000;0.321206
8135.000000;0.320938
8134.000000;0.320730
8133.000000;0.320612
8132.000000;0.320545
8131.000000;0.320475
8130.000000;0.320373
8129.000000;0.320234
8128.000000;0.320076
8127.000000;0.319932
8126.000000;0.319828
8125.000000;0.319762
8124.000000;0.319724
8123.000000;0.319716
8122.000000;0.319735
8121.000000;0.319740
8120.000000;0.319673
8119.000000;0.319537
8118.000000;0.319400
8117.000000;0.319325
8116.000000;0.319314
8115.000000;0.319331
8114.000000;0.319331
8113.000000;0.319280
8112.000000;0.319150
8111.000000;0.318948
8110.000000;0.318711
8109.000000;0.318478
8108.000000;0.318264
8107.000000;0.318100
8106.000000;0.318028
8105.000000;0.318042
8104.000000;0.318046
8103.000000;0.317930
8102.000000;0.317687
8101.000000;0.317434
8100.000000;0.317288
8099.000000;0.317255
8098.000000;0.317256
8097.000000;0.317250
8096.000000;0.317282
8095.000000;0.317403
8094.000000;0.317560
8093.000000;0.317631
8092.000000;0.317549
8091.000000;0.317374
8090.000000;0.317212
8089.000000;0.317105
8088.000000;0.317022
8087.000000;0.316923
8086.000000;0.316807
8085.000000;0.316701
8084.000000;0.316649
8083.000000;0.316692
8082.000000;0.316807
8081.000000;0.316892
8080.000000;0.316833
8079.000000;0.316627
8078.000000;0.316386
8077.000000;0.316214
8076.000000;0.316118
8075.000000;0.316031
8074.000000;0.315902
8073.000000;0.315740
8072.000000;0.315601
8071.000000;0.315541
8070.000000;0.315577
8069.000000;0.315677
8068.000000;0.315789
8067.000000;0.315874
8066.000000;0.315901
8065.000000;0.315845
8064.000000;0.315723
8063.000000;0.315610
8062.000000;0.315572
8061.000000;0.315594
8060.000000;0.315615
8059.000000;0.315622
8058.000000;0.315639
8057.000000;0.315638
8056.000000;0.315548
8055.000000;0.315363
8054.000000;0.315169
8053.000000;0.315037
8052.000000;0.314939
8051.000000;0.314813
8050.000000;0.314656
8049.000000;0.314513
8048.000000;0.314407
8047.000000;0.314337
8046.000000;0.314320
8045.000000;0.314380
8044.000000;0.314507
8043.000000;0.314630
8042.000000;0.314655
8041.000000;0.314545
8040.000000;0.314377
8039.000000;0.314295
8038.000000;0.314349
8037.000000;0.314408
8036.000000;0.314291
8035.000000;0.313991
8034.000000;0.313693
8033.000000;0.313554
8032.000000;0.313560
8031.000000;0.313617
8030.000000;0.313697
8029.000000;0.313820
8028.000000;0.313953
8027.000000;0.314021
8026.000000;0.313975
8025.000000;0.313825
8024.000000;0.313623
8023.000000;0.313452
8022.000000;0.313385
8021.000000;0.313420
8020.000000;0.313484
8019.000000;0.313543
8018.000000;0.313636
8017.000000;0.313751
8016.000000;0.313762
8015.000000;0.313579
8014.000000;0.313293
8013.000000;0.313088
8012.000000;0.313032
8011.000000;0.313042
8010.000000;0.313029
8009.000000;0.312980
8008.000000;0.312916
8007.000000;0.312848
8006.000000;0.312795
8005.000000;0.312756
8004.000000;0.312680
8003.000000;0.312538
8002.000000;0.312417
8001.000000;0.312454
8000.000000;0.312664
7999.000000;0.312888
7998.000000;0.312958
7997.000000;0.312846
7996.000000;0.312657
7995.000000;0.312522
7994.000000;0.312517
7993.000000;0.312619
7992.000000;0.312702
7991.000000;0.312644
7990.000000;0.312458
7989.000000;0.312294
7988.000000;0.312265
7987.000000;0.312332
7986.000000;0.312376
7985.000000;0.312346
7984.000000;0.312292
7983.000000;0.312268
7982.000000;0.312256
7981.000000;0.312217
7980.000000;0.312164
7979.000000;0.312164
7978.000000;0.312240
7977.000000;0.312315
7976.000000;0.312287
7975.000000;0.312165
7974.000000;0.312068
7973.000000;0.312067
7972.000000;0.312094
7971.000000;0.312050
7970.000000;0.311945
7969.000000;0.311870
7968.000000;0.311856
7967.000000;0.311861
7966.000000;0.311877
7965.000000;0.311952
7964.000000;0.312085
7963.000000;0.312183
7962.000000;0.312158
7961.000000;0.312026
7960.000000;0.311881
7959.000000;0.311796
7958.000000;0.311794
7957.000000;0.311858
7956.000000;0.311946
7955.000000;0.311998
7954.000000;0.311963
7953.000000;0.311823
7952.000000;0.311604
7951.000000;0.311388
7950.000000;0.311280
7949.000000;0.311313
7948.000000;0.311402
7947.000000;0.311426
7946.000000;0.311372
7945.000000;0.311322
7944.000000;0.311331
7943.000000;0.311382
7942.000000;0.311463
7941.000000;0.311590
7940.000000;0.311733
7939.000000;0.311787
7938.000000;0.311693
7937.000000;0.311532
7936.000000;0.311433
7935.000000;0.311433
7934.000000;0.311483
7933.000000;0.311535
7932.000000;0.311586
7931.000000;0.311636
7930.000000;0.311671
7929.000000;0.311683
7928.000000;0.311677
7927.000000;0.311654
7926.000000;0.311627
7925.000000;0.311615
7924.000000;0.311623
7923.000000;0.311625
7922.000000;0.311599
7921.000000;0.311576
7920.000000;0.311598
7919.000000;0.311641
7918.000000;0.311625
7917.000000;0.311497
7916.000000;0.311293
7915.000000;0.311105
7914.000000;0.311000
7913.000000;0.310991
7912.000000;0.311058
7911.000000;0.311185
7910.000000;0.311341
7909.000000;0.311472
7908.000000;0.311524
7907.000000;0.311493
7906.000000;0.311436
7905.000000;0.311407
7904.000000;0.311411
7903.000000;0.311423
7902.000000;0.311441
7901.000000;0.311480
7900.000000;0.311537
7899.000000;0.311586
7898.000000;0.311618
7897.000000;0.311647
7896.000000;0.311670
7895.000000;0.311667
7894.000000;0.311636
7893.000000;0.311603
7892.000000;0.311588
7891.000000;0.311598
7890.000000;0.311645
7889.000000;0.311740
7888.000000;0.311853
7887.000000;0.311931
7886.000000;0.311953
7885.000000;0.311947
7884.000000;0.311932
7883.000000;0.311888
7882.000000;0.311799
7881.000000;0.311687
7880.000000;0.311582
7879.000000;0.311487
7878.000000;0.311402
7877.000000;0.311364
7876.000000;0.311420
7875.000000;0.311570
7874.000000;0.311746
7873.000000;0.311863
7872.000000;0.311879
7871.000000;0.311825
7870.000000;0.311778
7869.000000;0.311791
7868.000000;0.311844
7867.000000;0.311879
7866.000000;0.311875
7865.000000;0.311858
7864.000000;0.311840
7863.000000;0.311802
7862.000000;0.311756
7861.000000;0.311777
7860.000000;0.311919
7859.000000;0.312133
7858.000000;0.312310
7857.000000;0.312390
7856.000000;0.312403
7855.000000;0.312399
7854.000000;0.312386
7853.000000;0.312349
7852.000000;0.312280
7851.000000;0.312202
7850.000000;0.312149
7849.000000;0.312150
7848.000000;0.312207
7847.000000;0.312306
7846.000000;0.312434
7845.000000;0.312570
7844.000000;0.312666
7843.000000;0.312675
7842.000000;0.312618
7841.000000;0.312579
7840.000000;0.312613
7839.000000;0.312691
7838.000000;0.312742
7837.000000;0.312745
7836.000000;0.312737
7835.000000;0.312749
7834.000000;0.312775
7833.000000;0.312801
7832.000000;0.312824
7831.000000;0.312858
7830.000000;0.312936
7829.000000;0.313086
7828.000000;0.313282
7827.000000;0.313442
7826.000000;0.313506
7825.000000;0.313502
7824.000000;0.313505
7823.000000;0.313546
7822.000000;0.313604
7821.000000;0.313671
7820.000000;0.313757
7819.000000;0.313841
7818.000000;0.313870
7817.000000;0.313839
7816.000000;0.313818
7815.000000;0.313865
7814.000000;0.313947
7813.000000;0.313993
7812.000000;0.313988
7811.000000;0.313971
7810.000000;0.313964
7809.000000;0.313951
7808.000000;0.313934
7807.000000;0.313949
7806.000000;0.314013
7805.000000;0.314094
7804.000000;0.314146
7803.000000;0.314168
7802.000000;0.314191
7801.000000;0.314242
7800.000000;0.314328
7799.000000;0.314448
7798.000000;0.314607
7797.000000;0.314786
7796.000000;0.314942
7795.000000;0.315029
7794.000000;0.315036
7793.000000;0.314997
7792.000000;0.314964
7791.000000;0.314968
7790.000000;0.315010
7789.000000;0.315078
7788.000000;0.315173
7787.000000;0.315289
7786.000000;0.315396
7785.000000;0.315443
7784.000000;0.315419
7783.000000;0.315378
7782.000000;0.315395
7781.000000;0.315490
7780.000000;0.315609
7779.000000;0.315687
7778.000000;0.315710
7777.000000;0.315711
7776.000000;0.315731
7775.000000;0.315787
7774.000000;0.315870
7773.000000;0.315961
7772.000000;0.316049
7771.000000;0.316136
7770.000000;0.316227
7769.000000;0.316309
7768.000000;0.316356
7767.000000;0.316380
7766.000000;0.316453
7765.000000;0.316652
7764.000000;0.316955
7763.000000;0.317225
7762.000000;0.317318
7761.000000;0.317224
7760.000000;0.317075
7759.000000;0.317030
7758.000000;0.317137
7757.000000;0.317332
7756.000000;0.317531
7755.000000;0.317707
7754.000000;0.317865
7753.000000;0.317986
7752.000000;0.318038
7751.000000;0.318039
7750.000000;0.318059
7749.000000;0.318131
7748.000000;0.318210
7747.000000;0.318246
7746.000000;0.318270
7745.000000;0.318356
7744.000000;0.318517
7743.000000;0.318673
7742.000000;0.318749
7741.000000;0.318765
7740.000000;0.318790
7739.000000;0.318852
7738.000000;0.318916
7737.000000;0.318934
7736.000000;0.318920
7735.000000;0.318951
7734.000000;0.319111
7733.000000;0.319404
7732.000000;0.319728
7731.000000;0.319944
7730.000000;0.320002
7729.000000;0.320001
7728.000000;0.320084
7727.000000;0.320284
7726.000000;0.320501
7725.000000;0.320614
7724.000000;0.320602
7723.000000;0.320534
7722.000000;0.320488
7721.000000;0.320495
7720.000000;0.320565
7719.000000;0.320718
7718.000000;0.320970
7717.000000;0.321293
7716.000000;0.321613
7715.000000;0.321841
7714.000000;0.321927
7713.000000;0.321893
7712.000000;0.321822
7711.000000;0.321798
7710.000000;0.321853
7709.000000;0.321963
7708.000000;0.322088
7707.000000;0.322205
7706.000000;0.322308
7705.000000;0.322404
7704.000000;0.322512
7703.000000;0.322648
7702.000000;0.322795
7701.000000;0.322915
7700.000000;0.322999
7699.000000;0.323086
7698.000000;0.323210
7697.000000;0.323353
7696.000000;0.323470
7695.000000;0.323553
7694.000000;0.323638
7693.000000;0.323759
7692.000000;0.323922
7691.000000;0.324137
7690.000000;0.324420
7689.000000;0.324752
7688.000000;0.325053
7687.000000;0.325234
7686.000000;0.325267
7685.000000;0.325194
7684.000000;0.325087
7683.000000;0.325014
7682.000000;0.325027
7681.000000;0.325144
7680.000000;0.325343
7679.000000;0.325575
7678.000000;0.325799
7677.000000;0.325998
7676.000000;0.326170
7675.000000;0.326318
7674.000000;0.326456
7673.000000;0.326598
7672.000000;0.326756
7671.000000;0.326940
7670.000000;0.327160
7669.000000;0.327402
7668.000000;0.327618
7667.000000;0.327757
7666.000000;0.327815
7665.000000;0.327865
7664.000000;0.327999
7663.000000;0.328243
7662.000000;0.328517
7661.000000;0.328702
7660.000000;0.328743
7659.000000;0.328699
7658.000000;0.328689
7657.000000;0.328802
7656.000000;0.329053
7655.000000;0.329393
7654.000000;0.329747
7653.000000;0.330056
7652.000000;0.330316
7651.000000;0.330557
7650.000000;0.330782
7649.000000;0.330941
7648.000000;0.330999
7647.000000;0.331017
7646.000000;0.331111
7645.000000;0.331335
7644.000000;0.331626
7643.000000;0.331886
7642.000000;0.332074
7641.000000;0.332215
7640.000000;0.332339
7639.000000;0.332452
7638.000000;0.332556
7637.000000;0.332668
7636.000000;0.332815
7635.000000;0.333014
7634.000000;0.333253
7633.000000;0.333493
7632.000000;0.333707
7631.000000;0.333899
7630.000000;0.334101
7629.000000;0.334321
7628.000000;0.334539
7627.000000;0.334742
7626.000000;0.334948
7625.000000;0.335184
7624.000000;0.335457
7623.000000;0.335760
7622.000000;0.336082
7621.000000;0.336410
7620.000000;0.336715
7619.000000;0.336963
7618.000000;0.337129
7617.000000;0.337208
7616.000000;0.337237
7615.000000;0.337289
7614.000000;0.337430
7613.000000;0.337667
7612.000000;0.337955
7611.000000;0.338249
7610.000000;0.338540
7609.000000;0.338830
7608.000000;0.339109
7607.000000;0.339369
7606.000000;0.339624
7605.000000;0.339886
7604.000000;0.340140
7603.000000;0.340356
7602.000000;0.340535
7601.000000;0.340709
7600.000000;0.340921
7599.000000;0.341187
7598.000000;0.341490
7597.000000;0.341789
7596.000000;0.342061
7595.000000;0.342328
7594.000000;0.342627
7593.000000;0.342951
7592.000000;0.343242
7591.000000;0.343450
7590.000000;0.343591
7589.000000;0.343736
7588.000000;0.343933
7587.000000;0.344176
7586.000000;0.344419
7585.000000;0.344641
7584.000000;0.344868
7583.000000;0.345160
7582.000000;0.345537
7581.000000;0.345946
7580.000000;0.346298
7579.000000;0.346553
7578.000000;0.346757
7577.000000;0.346999
7576.000000;0.347344
7575.000000;0.347782
7574.000000;0.348225
7573.000000;0.348568
7572.000000;0.348784
7571.000000;0.348958
7570.000000;0.349199
7569.000000;0.349536
7568.000000;0.349919
7567.000000;0.350286
7566.000000;0.350598
7565.000000;0.350811
7564.000000;0.350913
7563.000000;0.350978
7562.000000;0.351142
7561.000000;0.351466
7560.000000;0.351884
7559.000000;0.352294
7558.000000;0.352664
7557.000000;0.353016
7556.000000;0.353359
7555.000000;0.353669
7554.000000;0.353942
7553.000000;0.354214
7552.000000;0.354532
7551.000000;0.354914
7550.000000;0.355332
7549.000000;0.355728
7548.000000;0.356065
7547.000000;0.356362
7546.000000;0.356663
7545.000000;0.356975
7544.000000;0.357286
7543.000000;0.357617
7542.000000;0.358021
7541.000000;0.358495
7540.000000;0.358957
7539.000000;0.359328
7538.000000;0.359611
7537.000000;0.359860
7536.000000;0.360124
7535.000000;0.360433
7534.000000;0.360807
7533.000000;0.361223
7532.000000;0.361609
7531.000000;0.361913
7530.000000;0.362161
7529.000000;0.362418
7528.000000;0.362732
7527.000000;0.363105
7526.000000;0.363527
7525.000000;0.363972
7524.000000;0.364409
7523.000000;0.364828
7522.000000;0.365242
7521.000000;0.365662
7520.000000;0.366070
7519.000000;0.366442
7518.000000;0.366767
7517.000000;0.367043
7516.000000;0.367295
7515.000000;0.367586
7514.000000;0.367980
7513.000000;0.368467
7512.000000;0.368955
7511.000000;0.369369
7510.000000;0.369707
7509.000000;0.370003
7508.000000;0.370286
7507.000000;0.370598
7506.000000;0.370990
7505.000000;0.371466
7504.000000;0.371969
7503.000000;0.372453
7502.000000;0.372927
7501.000000;0.373402
7500.000000;0.373841
7499.000000;0.374210
7498.000000;0.374517
7497.000000;0.374821
7496.000000;0.375119
7495.000000;0.375421
7494.000000;0.375841
7493.000000;0.376290
7492.000000;0.376737
7491.000000;0.377148
7490.000000;0.377548
7489.000000;0.377929
7488.000000;0.378251
7487.000000;0.378520
7486.000000;0.378828
7485.000000;0.379233
7484.000000;0.379662
7483.000000;0.380013
7482.000000;0.380304
7481.000000;0.380644
7480.000000;0.381077
7479.000000;0.381538
7478.000000;0.381957
7477.000000;0.382348
7476.000000;0.382768
7475.000000;0.383259
7474.000000;0.383815
7473.000000;0.384392
7472.000000;0.384930
7471.000000;0.385393
7470.000000;0.385795
7469.000000;0.386161
7468.000000;0.386507
7467.000000;0.386859
7466.000000;0.387256
7465.000000;0.387711
7464.000000;0.388190
7463.000000;0.388661
7462.000000;0.389129
7461.000000;0.389593
7460.000000;0.390002
7459.000000;0.390298
7458.000000;0.390510
7457.000000;0.390742
7456.000000;0.391084
7455.000000;0.391545
7454.000000;0.392053
7453.000000;0.392513
7452.000000;0.392886
7451.000000;0.393222
7450.000000;0.393616
7449.000000;0.394106
7448.000000;0.394650
7447.000000;0.395182
7446.000000;0.395666
7445.000000;0.396094
7444.000000;0.396485
7443.000000;0.396877
7442.000000;0.397286
7441.000000;0.397667
7440.000000;0.397974
7439.000000;0.398254
7438.000000;0.398598
7437.000000;0.399003
7436.000000;0.399370
7435.000000;0.399663
7434.000000;0.399977
7433.000000;0.400417
7432.000000;0.400961
7431.000000;0.401496
7430.000000;0.401946
7429.000000;0.402310
7428.000000;0.402639
7427.000000;0.402992
7426.000000;0.403380
7425.000000;0.403740
7424.000000;0.404012
7423.000000;0.404270
7422.000000;0.404671
7421.000000;0.405237
7420.000000;0.405780
7419.000000;0.406113
7418.000000;0.406275
7417.000000;0.406454
7416.000000;0.406772
7415.000000;0.407201
7414.000000;0.407651
7413.000000;0.408053
7412.000000;0.408401
7411.000000;0.408751
7410.000000;0.409137
7409.000000;0.409504
7408.000000;0.409786
7407.000000;0.410039
7406.000000;0.410377
7405.000000;0.410790
7404.000000;0.411159
7403.000000;0.411483
7402.000000;0.411923
7401.000000;0.412562
7400.000000;0.413266
7399.000000;0.413839
7398.000000;0.414187
7397.000000;0.414347
7396.000000;0.414463
7395.000000;0.414705
7394.000000;0.415063
7393.000000;0.415320
7392.000000;0.415354
7391.000000;0.415344
7390.000000;0.415542
7389.000000;0.415952
7388.000000;0.416446
7387.000000;0.417051
7386.000000;0.417830
7385.000000;0.418556
7384.000000;0.418908
7383.000000;0.418994
7382.000000;0.419261
7381.000000;0.419789
7380.000000;0.420140
7379.000000;0.420157
7378.000000;0.420445
7377.000000;0.421549
7376.000000;0.423014
7375.000000;0.423844
7374.000000;0.423767
7373.000000;0.423513
7372.000000;0.423844
7371.000000;0.424761
7370.000000;0.425691
7369.000000;0.426071
7368.000000;0.425765
7367.000000;0.425207
7366.000000;0.425106
7365.000000;0.425759
7364.000000;0.426764
7363.000000;0.427547
7362.000000;0.427979
7361.000000;0.428240
7360.000000;0.428364
7359.000000;0.428384
7358.000000;0.428745
7357.000000;0.429819
7356.000000;0.431101
7355.000000;0.431623
7354.000000;0.431259
7353.000000;0.430932
7352.000000;0.431389
7351.000000;0.432471
7350.000000;0.433630
7349.000000;0.434477
7348.000000;0.434716
7347.000000;0.434322
7346.000000;0.433955
7345.000000;0.434413
7344.000000;0.435576
7343.000000;0.436642
7342.000000;0.437489
7341.000000;0.438761
7340.000000;0.440394
7339.000000;0.441213
7338.000000;0.440678
7337.000000;0.439942
7336.000000;0.440280
7335.000000;0.441424
7334.000000;0.442267
7333.000000;0.442455
7332.000000;0.442412
7331.000000;0.442475
7330.000000;0.442874
7329.000000;0.443865
7328.000000;0.445088
7327.000000;0.445565
7326.000000;0.445171
7325.000000;0.445217
7324.000000;0.446606
7323.000000;0.448353
7322.000000;0.449002
7321.000000;0.448711
7320.000000;0.448850
7319.000000;0.449982
7318.000000;0.451375
7317.000000;0.452338
7316.000000;0.452907
7315.000000;0.453286
7314.000000;0.453603
7313.000000;0.454256
7312.000000;0.455524
7311.000000;0.456835
7310.000000;0.457447
7309.000000;0.457743
7308.000000;0.458682
7307.000000;0.460113
7306.000000;0.460881
7305.000000;0.460715
7304.000000;0.460782
7303.000000;0.461951
7302.000000;0.463650
7301.000000;0.464906
7300.000000;0.465539
7299.000000;0.465870
7298.000000;0.466079
7297.000000;0.466545
7296.000000;0.467973
7295.000000;0.470309
7294.000000;0.472252
7293.000000;0.472741
7292.000000;0.472515
7291.000000;0.473235
7290.000000;0.475381
7289.000000;0.477925
7288.000000;0.479737
7287.000000;0.480595
7286.000000;0.480957
7285.000000;0.481359
7284.000000;0.482132
7283.000000;0.483299
7282.000000;0.484582
7281.000000;0.485715
7280.000000;0.486757
7279.000000;0.487967
7278.000000;0.489401
7277.000000;0.490880
7276.000000;0.492326
7275.000000;0.493811
7274.000000;0.495353
7273.000000;0.496846
7272.000000;0.498214
7271.000000;0.499535
7270.000000;0.500992
7269.000000;0.502698
7268.000000;0.504544
7267.000000;0.506254
7266.000000;0.507722
7265.000000;0.509271
7264.000000;0.511339
7263.000000;0.513863
7262.000000;0.516217
7261.000000;0.517918
7260.000000;0.519196
7259.000000;0.520636
7258.000000;0.522463
7257.000000;0.524462
7256.000000;0.526484
7255.000000;0.528674
7254.000000;0.531099
7253.000000;0.533487
7252.000000;0.535538
7251.000000;0.537314
7250.000000;0.539187
7249.000000;0.541422
7248.000000;0.543901
7247.000000;0.546266
7246.000000;0.548452
7245.000000;0.550949
7244.000000;0.554135
7243.000000;0.557490
7242.000000;0.560017
7241.000000;0.561603
7240.000000;0.563365
7239.000000;0.566249
7238.000000;0.569806
7237.000000;0.572832
7236.000000;0.574930
7235.000000;0.576984
7234.000000;0.579999
7233.000000;0.583821
7232.000000;0.587251
7231.000000;0.589417
7230.000000;0.590875
7229.000000;0.593111
7228.000000;0.596929
7227.000000;0.601541
7226.000000;0.605467
7225.000000;0.608142
7224.000000;0.610268
7223.000000;0.612826
7222.000000;0.616152
7221.000000;0.619902
7220.000000;0.623510
7219.000000;0.626642
7218.000000;0.629511
7217.000000;0.632741
7216.000000;0.636704
7215.000000;0.641047
7214.000000;0.645072
7213.000000;0.648547
7212.000000;0.651927
7211.000000;0.655717
7210.000000;0.659910
7209.000000;0.664221
7208.000000;0.668616
7207.000000;0.673279
7206.000000;0.678191
7205.000000;0.683022
7204.000000;0.687415
7203.000000;0.691324
7202.000000;0.695113
7201.000000;0.699283
7200.000000;0.703986
7199.000000;0.708859
7198.000000;0.713464
7197.000000;0.717840
7196.000000;0.722406
7195.000000;0.727326
7194.000000;0.732279
7193.000000;0.737016
7192.000000;0.741803
7191.000000;0.747005
7190.000000;0.752498
7189.000000;0.757852
7188.000000;0.762941
7187.000000;0.767952
7186.000000;0.772920
7185.000000;0.777754
7184.000000;0.782698
7183.000000;0.788204
7182.000000;0.794199
7181.000000;0.800042
7180.000000;0.805449
7179.000000;0.810967
7178.000000;0.817149
7177.000000;0.823706
7176.000000;0.829885
7175.000000;0.835397
7174.000000;0.840586
7173.000000;0.845897
7172.000000;0.851560
7171.000000;0.857684
7170.000000;0.864217
7169.000000;0.870784
7168.000000;0.876985
7167.000000;0.882824
7166.000000;0.888569
7165.000000;0.894296
7164.000000;0.900021
7163.000000;0.906051
7162.000000;0.912593
7161.000000;0.919209
7160.000000;0.925241
7159.000000;0.930825
7158.000000;0.936856
7157.000000;0.943744
7156.000000;0.950840
7155.000000;0.957373
7154.000000;0.963434
7153.000000;0.969601
7152.000000;0.975979
7151.000000;0.982162
7150.000000;0.987955
7149.000000;0.993682
7148.000000;0.999782
7147.000000;1.006320
7146.000000;1.012964
7145.000000;1.019331
7144.000000;1.025356
7143.000000;1.031406
7142.000000;1.038068
7141.000000;1.045575
7140.000000;1.053277
7139.000000;1.060013
7138.000000;1.065389
7137.000000;1.070417
7136.000000;1.076389
7135.000000;1.083332
7134.000000;1.090152
7133.000000;1.096156
7132.000000;1.101803
7131.000000;1.107839
7130.000000;1.114333
7129.000000;1.120873
7128.000000;1.127208
7127.000000;1.133236
7126.000000;1.138776
7125.000000;1.143941
7124.000000;1.149391
7123.000000;1.155654
7122.000000;1.162393
7121.000000;1.168873
7120.000000;1.174948
7119.000000;1.180986
7118.000000;1.186941
7117.000000;1.192302
7116.000000;1.197078
7115.000000;1.202108
7114.000000;1.208011
7113.000000;1.214383
7112.000000;1.220424
7111.000000;1.225940
7110.000000;1.231342
7109.000000;1.236930
7108.000000;1.242575
7107.000000;1.248002
7106.000000;1.253043
7105.000000;1.257684
7104.000000;1.262170
7103.000000;1.266991
7102.000000;1.272473
7101.000000;1.278383
7100.000000;1.284094
7099.000000;1.289114
7098.000000;1.293511
7097.000000;1.297871
7096.000000;1.302742
7095.000000;1.308041
7094.000000;1.313126
7093.000000;1.317533
7092.000000;1.321444
7091.000000;1.325303
7090.000000;1.329224
7089.000000;1.333085
7088.000000;1.336998
7087.000000;1.341317
7086.000000;1.346125
7085.000000;1.351000
7084.000000;1.355433
7083.000000;1.359369
7082.000000;1.363248
7081.000000;1.367537
7080.000000;1.372191
7079.000000;1.376556
7078.000000;1.379939
7077.000000;1.382298
7076.000000;1.384246
7075.000000;1.386458
7074.000000;1.389313
7073.000000;1.392925
7072.000000;1.397080
7071.000000;1.401131
7070.000000;1.404452
7069.000000;1.407197
7068.000000;1.410230
7067.000000;1.414076
7066.000000;1.418299
7065.000000;1.422148
7064.000000;1.425443
7063.000000;1.428484
7062.000000;1.431417
7061.000000;1.434189
7060.000000;1.436911
7059.000000;1.439777
7058.000000;1.442712
7057.000000;1.445525
7056.000000;1.448284
7055.000000;1.451114
7054.000000;1.453755
7053.000000;1.455731
7052.000000;1.457027
7051.000000;1.458279
7050.000000;1.460148
7049.000000;1.462696
7048.000000;1.465494
7047.000000;1.468166
7046.000000;1.470684
7045.000000;1.473168
7044.000000;1.475531
7043.000000;1.477467
7042.000000;1.478897
7041.000000;1.480315
7040.000000;1.482401
7039.000000;1.485239
7038.000000;1.488126
7037.000000;1.490288
7036.000000;1.491581
7035.000000;1.492415
7034.000000;1.493295
7033.000000;1.494600
7032.000000;1.496525
7031.000000;1.498979
7030.000000;1.501636
7029.000000;1.504164
7028.000000;1.506297
7027.000000;1.507745
7026.000000;1.508407
7025.000000;1.508773
7024.000000;1.509695
7023.000000;1.511544
7022.000000;1.513852
7021.000000;1.515923
7020.000000;1.517503
7019.000000;1.518698
7018.000000;1.519622
7017.000000;1.520390
7016.000000;1.521168
7015.000000;1.522008
7014.000000;1.522893
7013.000000;1.523948
7012.000000;1.525242
7011.000000;1.526311
7010.000000;1.526471
7009.000000;1.525906
7008.000000;1.525857
7007.000000;1.527224
7006.000000;1.529451
7005.000000;1.531274
7004.000000;1.532185
7003.000000;1.532587
7002.000000;1.532873
7001.000000;1.533131
7000.000000;1.533595
6999.000000;1.534566
6998.000000;1.535777
6997.000000;1.536486
6996.000000;1.536421
6995.000000;1.536172
6994.000000;1.536438
6993.000000;1.537273
6992.000000;1.538276
6991.000000;1.539231
6990.000000;1.540283
6989.000000;1.541550
6988.000000;1.542786
6987.000000;1.543516
6986.000000;1.543555
6985.000000;1.543322
6984.000000;1.543499
6983.000000;1.544291
6982.000000;1.545200
6981.000000;1.545607
6980.000000;1.545427
6979.000000;1.545103
6978.000000;1.545153
6977.000000;1.545802
6976.000000;1.546851
6975.000000;1.547791
6974.000000;1.548238
6973.000000;1.548250
6972.000000;1.548008
6971.000000;1.547283
6970.000000;1.545732
6969.000000;1.543774
6968.000000;1.542547
6967.000000;1.542768
6966.000000;1.544059
6965.000000;1.545614
6964.000000;1.547041
6963.000000;1.548212
6962.000000;1.548800
6961.000000;1.548572
6960.000000;1.547857
6959.000000;1.547221
6958.000000;1.546882
6957.000000;1.546792
6956.000000;1.546962
6955.000000;1.547266
6954.000000;1.547245
6953.000000;1.546606
6952.000000;1.545703
6951.000000;1.545093
6950.000000;1.544796
6949.000000;1.544438
6948.000000;1.543930
6947.000000;1.543581
6946.000000;1.543659
6945.000000;1.544211
6944.000000;1.545102
6943.000000;1.545839
6942.000000;1.545665
6941.000000;1.544394
6940.000000;1.542960
6939.000000;1.542524
6938.000000;1.543113
6937.000000;1.543676
6936.000000;1.543384
6935.000000;1.542370
6934.000000;1.541204
6933.000000;1.540232
6932.000000;1.539562
6931.000000;1.539175
6930.000000;1.538825
6929.000000;1.538190
6928.000000;1.537304
6927.000000;1.536570
6926.000000;1.536261
6925.000000;1.536229
6924.000000;1.536178
6923.000000;1.535936
6922.000000;1.535432
6921.000000;1.534692
6920.000000;1.534009
6919.000000;1.533823
6918.000000;1.534234
6917.000000;1.534771
6916.000000;1.534741
6915.000000;1.533760
6914.000000;1.532000
6913.000000;1.530082
6912.000000;1.528689
6911.000000;1.528131
6910.000000;1.528254
6909.000000;1.528765
6908.000000;1.529470
6907.000000;1.530085
6906.000000;1.530113
6905.000000;1.529254
6904.000000;1.527780
6903.000000;1.526220
6902.000000;1.524815
6901.000000;1.523606
6900.000000;1.522790
6899.000000;1.522481
6898.000000;1.522264
6897.000000;1.521556
6896.000000;1.520445
6895.000000;1.519646
6894.000000;1.519554
6893.000000;1.519817
6892.000000;1.519941
6891.000000;1.519882
6890.000000;1.519839
6889.000000;1.519839
6888.000000;1.519737
6887.000000;1.519395
6886.000000;1.518643
6885.000000;1.517322
6884.000000;1.515558
6883.000000;1.513806
6882.000000;1.512445
6881.000000;1.511486
6880.000000;1.510745
6879.000000;1.510059
6878.000000;1.509284
6877.000000;1.508371
6876.000000;1.507539
6875.000000;1.507085
6874.000000;1.506883
6873.000000;1.506365
6872.000000;1.505203
6871.000000;1.503755
6870.000000;1.502607
6869.000000;1.501888
6868.000000;1.501302
6867.000000;1.500649
6866.000000;1.500017
6865.000000;1.499552
6864.000000;1.499289
6863.000000;1.499182
6862.000000;1.499060
6861.000000;1.498561
6860.000000;1.497314
6859.000000;1.495354
6858.000000;1.493235
6857.000000;1.491650
6856.000000;1.490886
6855.000000;1.490654
6854.000000;1.490430
6853.000000;1.489927
6852.000000;1.489215
6851.000000;1.488381
6850.000000;1.487188
6849.000000;1.485247
6848.000000;1.482581
6847.000000;1.479874
6846.000000;1.477955
6845.000000;1.477003
6844.000000;1.476338
6843.000000;1.475090
6842.000000;1.473093
6841.000000;1.471002
6840.000000;1.469549
6839.000000;1.468808
6838.000000;1.468207
6837.000000;1.467156
6836.000000;1.465530
6835.000000;1.463590
6834.000000;1.461670
6833.000000;1.459984
6832.000000;1.458542
6831.000000;1.457138
6830.000000;1.455525
6829.000000;1.453666
6828.000000;1.451707
6827.000000;1.449701
6826.000000;1.447544
6825.000000;1.445275
6824.000000;1.443193
6823.000000;1.441486
6822.000000;1.439890
6821.000000;1.438001
6820.000000;1.435811
6819.000000;1.433657
6818.000000;1.431686
6817.000000;1.429641
6816.000000;1.427249
6815.000000;1.424589
6814.000000;1.421987
6813.000000;1.419655
6812.000000;1.417519
6811.000000;1.415310
6810.000000;1.412815
6809.000000;1.410093
6808.000000;1.407469
6807.000000;1.405208
6806.000000;1.403219
6805.000000;1.401186
6804.000000;1.398951
6803.000000;1.396634
6802.000000;1.394362
6801.000000;1.392033
6800.000000;1.389456
6799.000000;1.386653
6798.000000;1.383938
6797.000000;1.381670
6796.000000;1.379925
6795.000000;1.378359
6794.000000;1.376431
6793.000000;1.373842
6792.000000;1.370761
6791.000000;1.367629
6790.000000;1.364749
6789.000000;1.362124
6788.000000;1.359586
6787.000000;1.356978
6786.000000;1.354211
6785.000000;1.351278
6784.000000;1.348239
6783.000000;1.345181
6782.000000;1.342175
6781.000000;1.339314
6780.000000;1.336704
6779.000000;1.334346
6778.000000;1.332079
6777.000000;1.329721
6776.000000;1.327251
6775.000000;1.324754
6774.000000;1.322245
6773.000000;1.319641
6772.000000;1.316874
6771.000000;1.313928
6770.000000;1.310823
6769.000000;1.307700
6768.000000;1.304842
6767.000000;1.302399
6766.000000;1.300113
6765.000000;1.297497
6764.000000;1.294359
6763.000000;1.291005
6762.000000;1.287881
6761.000000;1.285162
6760.000000;1.282723
6759.000000;1.280332
6758.000000;1.277788
6757.000000;1.275010
6756.000000;1.272101
6755.000000;1.269249
6754.000000;1.266489
6753.000000;1.263669
6752.000000;1.260710
6751.000000;1.257747
6750.000000;1.254893
6749.000000;1.252014
6748.000000;1.248933
6747.000000;1.245789
6746.000000;1.242967
6745.000000;1.240636
6744.000000;1.238516
6743.000000;1.236164
6742.000000;1.233402
6741.000000;1.230388
6740.000000;1.227378
6739.000000;1.224519
6738.000000;1.221831
6737.000000;1.219254
6736.000000;1.216672
6735.000000;1.213968
6734.000000;1.211095
6733.000000;1.208099
6732.000000;1.205080
6731.000000;1.202127
6730.000000;1.199289
6729.000000;1.196555
6728.000000;1.193853
6727.000000;1.191101
6726.000000;1.188301
6725.000000;1.185556
6724.000000;1.182968
6723.000000;1.180508
6722.000000;1.178040
6721.000000;1.175461
6720.000000;1.172765
6719.000000;1.169980
6718.000000;1.167137
6717.000000;1.164346
6716.000000;1.161798
6715.000000;1.159559
6714.000000;1.157402
6713.000000;1.154989
6712.000000;1.152248
6711.000000;1.149446
6710.000000;1.146849
6709.000000;1.144375
6708.000000;1.141731
6707.000000;1.138818
6706.000000;1.135867
6705.000000;1.133100
6704.000000;1.130586
6703.000000;1.128144
6702.000000;1.125720
6701.000000;1.123141
6700.000000;1.120281
6699.000000;1.117370
6698.000000;1.114544
6697.000000;1.111994
6696.000000;1.109687
6695.000000;1.107430
6694.000000;1.105031
6693.000000;1.102488
6692.000000;1.099932
6691.000000;1.097446
6690.000000;1.094968
6689.000000;1.092382
6688.000000;1.089650
6687.000000;1.086857
6686.000000;1.084149
6685.000000;1.081617
6684.000000;1.079227
6683.000000;1.076847
6682.000000;1.074373
6681.000000;1.071826
6680.000000;1.069309
6679.000000;1.066879
6678.000000;1.064500
6677.000000;1.062110
6676.000000;1.059684
6675.000000;1.057221
6674.000000;1.054725
6673.000000;1.052228
6672.000000;1.049791
6671.000000;1.047440
6670.000000;1.045115
6669.000000;1.042711
6668.000000;1.040151
6667.000000;1.037427
6666.000000;1.034623
6665.000000;1.031908
6664.000000;1.029455
6663.000000;1.027286
6662.000000;1.025243
6661.000000;1.023130
6660.000000;1.020876
6659.000000;1.018511
6658.000000;1.016081
6657.000000;1.013625
6656.000000;1.011198
6655.000000;1.008819
6654.000000;1.006421
6653.000000;1.003949
6652.000000;1.001496
6651.000000;0.999224
6650.000000;0.997134
6649.000000;0.995017
6648.000000;0.992695
6647.000000;0.990237
6646.000000;0.987880
6645.000000;0.985785
6644.000000;0.983917
6643.000000;0.982092
6642.000000;0.980084
6641.000000;0.977744
6640.000000;0.975120
6639.000000;0.972458
6638.000000;0.970020
6637.000000;0.967865
6636.000000;0.965841
6635.000000;0.963765
6634.000000;0.961594
6633.000000;0.959395
6632.000000;0.957209
6631.000000;0.954987
6630.000000;0.952665
6629.000000;0.950304
6628.000000;0.948088
6627.000000;0.946141
6626.000000;0.944340
6625.000000;0.942392
6624.000000;0.940129
6623.000000;0.937677
6622.000000;0.935288
6621.000000;0.933068
6620.000000;0.930962
6619.000000;0.928938
6618.000000;0.927039
6617.000000;0.925242
6616.000000;0.923386
6615.000000;0.921322
6614.000000;0.919075
6613.000000;0.916779
6612.000000;0.914526
6611.000000;0.912334
6610.000000;0.910229
6609.000000;0.908254
6608.000000;0.906411
6607.000000;0.904642
6606.000000;0.902870
6605.000000;0.901017
6604.000000;0.898987
6603.000000;0.896728
6602.000000;0.894329
6601.000000;0.892010
6600.000000;0.889944
6599.000000;0.888116
6598.000000;0.886358
6597.000000;0.884520
6596.000000;0.882586
6595.000000;0.880647
6594.000000;0.878775
6593.000000;0.876950
6592.000000;0.875105
6591.000000;0.873223
6590.000000;0.871356
6589.000000;0.869546
6588.000000;0.867748
6587.000000;0.865877
6586.000000;0.863906
6585.000000;0.861893
6584.000000;0.859904
6583.000000;0.857973
6582.000000;0.856108
6581.000000;0.854304
6580.000000;0.852532
6579.000000;0.850743
6578.000000;0.848914
6577.000000;0.847045
6576.000000;0.845118
6575.000000;0.843126
6574.000000;0.841150
6573.000000;0.839330
6572.000000;0.837727
6571.000000;0.836237
6570.000000;0.834693
6569.000000;0.833027
6568.000000;0.831283
6567.000000;0.829512
6566.000000;0.827722
6565.000000;0.825929
6564.000000;0.824167
6563.000000;0.822427
6562.000000;0.820633
6561.000000;0.818719
6560.000000;0.816719
6559.000000;0.814757
6558.000000;0.812957
6557.000000;0.811360
6556.000000;0.809903
6555.000000;0.808470
6554.000000;0.806970
6553.000000;0.805389
6552.000000;0.803752
6551.000000;0.802065
6550.000000;0.800320
6549.000000;0.798541
6548.000000;0.796784
6547.000000;0.795077
6546.000000;0.793410
6545.000000;0.791782
6544.000000;0.790229
6543.000000;0.788767
6542.000000;0.787334
6541.000000;0.785829
6540.000000;0.784212
6539.000000;0.782542
6538.000000;0.780916
6537.000000;0.779378
6536.000000;0.777882
6535.000000;0.776341
6534.000000;0.774710
6533.000000;0.773030
6532.000000;0.771380
6531.000000;0.769798
6530.000000;0.768250
6529.000000;0.766678
6528.000000;0.765071
6527.000000;0.763477
6526.000000;0.761962
6525.000000;0.760547
6524.000000;0.759176
6523.000000;0.757749
6522.000000;0.756202
6521.000000;0.754570
6520.000000;0.752966
6519.000000;0.751483
6518.000000;0.750126
6517.000000;0.748826
6516.000000;0.747516
6515.000000;0.746174
6514.000000;0.744805
6513.000000;0.743414
6512.000000;0.741986
6511.000000;0.740499
6510.000000;0.738951
6509.000000;0.737389
6508.000000;0.735898
6507.000000;0.734534
6506.000000;0.733262
6505.000000;0.731981
6504.000000;0.730621
6503.000000;0.729201
6502.000000;0.727798
6501.000000;0.726457
6500.000000;0.725170
6499.000000;0.723907
6498.000000;0.722643
6497.000000;0.721363
6496.000000;0.720052
6495.000000;0.718710
6494.000000;0.717340
6493.000000;0.715928
6492.000000;0.714459
6491.000000;0.712953
6490.000000;0.711464
6489.000000;0.710031
6488.000000;0.708661
6487.000000;0.707367
6486.000000;0.706181
6485.000000;0.705095
6484.000000;0.704016
6483.000000;0.702841
6482.000000;0.701569
6481.000000;0.700275
6480.000000;0.698990
6479.000000;0.697660
6478.000000;0.696258
6477.000000;0.694854
6476.000000;0.693543
6475.000000;0.692327
6474.000000;0.691128
6473.000000;0.689884
6472.000000;0.688599
6471.000000;0.687312
6470.000000;0.686064
6469.000000;0.684881
6468.000000;0.683760
6467.000000;0.682671
6466.000000;0.681575
6465.000000;0.680459
6464.000000;0.679319
6463.000000;0.678143
6462.000000;0.676926
6461.000000;0.675705
6460.000000;0.674526
6459.000000;0.673396
6458.000000;0.672279
6457.000000;0.671142
6456.000000;0.669986
6455.000000;0.668827
6454.000000;0.667671
6453.000000;0.666515
6452.000000;0.665349
6451.000000;0.664165
6450.000000;0.662975
6449.000000;0.661801
6448.000000;0.660653
6447.000000;0.659522
6446.000000;0.658414
6445.000000;0.657357
6444.000000;0.656355
6443.000000;0.655346
6442.000000;0.654268
6441.000000;0.653128
6440.000000;0.651987
6439.000000;0.650870
6438.000000;0.649758
6437.000000;0.648648
6436.000000;0.647579
6435.000000;0.646565
6434.000000;0.645573
6433.000000;0.644571
6432.000000;0.643573
6431.000000;0.642595
6430.000000;0.641610
6429.000000;0.640579
6428.000000;0.639506
6427.000000;0.638430
6426.000000;0.637377
6425.000000;0.636333
6424.000000;0.635292
6423.000000;0.634271
6422.000000;0.633305
6421.000000;0.632398
6420.000000;0.631509
6419.000000;0.630583
6418.000000;0.629607
6417.000000;0.628629
6416.000000;0.627696
6415.000000;0.626788
6414.000000;0.625836
6413.000000;0.624810
6412.000000;0.623759
6411.000000;0.622746
6410.000000;0.621787
6409.000000;0.620848
6408.000000;0.619898
6407.000000;0.618934
6406.000000;0.617970
6405.000000;0.617020
6404.000000;0.616085
6403.000000;0.615146
6402.000000;0.614189
6401.000000;0.613240
6400.000000;0.612340
6399.000000;0.611495
6398.000000;0.610652
6397.000000;0.609767
6396.000000;0.608855
6395.000000;0.607965
6394.000000;0.607111
6393.000000;0.606260
6392.000000;0.605375
6391.000000;0.604448
6390.000000;0.603504
6389.000000;0.602588
6388.000000;0.601737
6387.000000;0.600951
6386.000000;0.600173
6385.000000;0.599332
6384.000000;0.598413
6383.000000;0.597469
6382.000000;0.596564
6381.000000;0.595721
6380.000000;0.594921
6379.000000;0.594136
6378.000000;0.593345
6377.000000;0.592529
6376.000000;0.591672
6375.000000;0.590786
6374.000000;0.589904
6373.000000;0.589059
6372.000000;0.588253
6371.000000;0.587472
6370.000000;0.586717
6369.000000;0.586001
6368.000000;0.585313
6367.000000;0.584607
6366.000000;0.583835
6365.000000;0.583000
6364.000000;0.582150
6363.000000;0.581328
6362.000000;0.580546
6361.000000;0.579791
6360.000000;0.579051
6359.000000;0.578305
6358.000000;0.577529
6357.000000;0.576723
6356.000000;0.575913
6355.000000;0.575134
6354.000000;0.574400
6353.000000;0.573699
6352.000000;0.573015
6351.000000;0.572327
6350.000000;0.571616
6349.000000;0.570871
6348.000000;0.570095
6347.000000;0.569305
6346.000000;0.568524
6345.000000;0.567776
6344.000000;0.567070
6343.000000;0.566398
6342.000000;0.565752
6341.000000;0.565136
6340.000000;0.564555
6339.000000;0.563984
6338.000000;0.563366
6337.000000;0.562661
6336.000000;0.561879
6335.000000;0.561069
6334.000000;0.560288
6333.000000;0.559574
6332.000000;0.558929
6331.000000;0.558318
6330.000000;0.557690
6329.000000;0.557024
6328.000000;0.556347
6327.000000;0.555693
6326.000000;0.555064
6325.000000;0.554435
6324.000000;0.553792
6323.000000;0.553142
6322.000000;0.552488
6321.000000;0.551818
6320.000000;0.551127
6319.000000;0.550440
6318.000000;0.549787
6317.000000;0.549161
6316.000000;0.548518
6315.000000;0.547835
6314.000000;0.547150
6313.000000;0.546528
6312.000000;0.545986
6311.000000;0.545469
6310.000000;0.544911
6309.000000;0.544294
6308.000000;0.543643
6307.000000;0.542987
6306.000000;0.542349
6305.000000;0.541759
6304.000000;0.541234
6303.000000;0.540750
6302.000000;0.540247
6301.000000;0.539692
6300.000000;0.539084
6299.000000;0.538437
6298.000000;0.537767
6297.000000;0.537109
6296.000000;0.536507
6295.000000;0.535971
6294.000000;0.535465
6293.000000;0.534957
6292.000000;0.534448
6291.000000;0.533944
6290.000000;0.533420
6289.000000;0.532839
6288.000000;0.532204
6287.000000;0.531562
6286.000000;0.530963
6285.000000;0.530417
6284.000000;0.529893
6283.000000;0.529356
6282.000000;0.528803
6281.000000;0.528263
6280.000000;0.527750
6279.000000;0.527234
6278.000000;0.526684
6277.000000;0.526115
6276.000000;0.525581
6275.000000;0.525096
6274.000000;0.524612
6273.000000;0.524087
6272.000000;0.523539
6271.000000;0.523013
6270.000000;0.522520
6269.000000;0.522042
6268.000000;0.521572
6267.000000;0.521111
6266.000000;0.520646
6265.000000;0.520150
6264.000000;0.519621
6263.000000;0.519087
6262.000000;0.518569
6261.000000;0.518077
6260.000000;0.517609
6259.000000;0.517160
6258.000000;0.516715
6257.000000;0.516253
6256.000000;0.515771
6255.000000;0.515278
6254.000000;0.514773
6253.000000;0.514258
6252.000000;0.513751
6251.000000;0.513274
6250.000000;0.512832
6249.000000;0.512405
6248.000000;0.511975
6247.000000;0.511534
6246.000000;0.511075
6245.000000;0.510595
6244.000000;0.510100
6243.000000;0.509606
6242.000000;0.509121
6241.000000;0.508644
6240.000000;0.508174
6239.000000;0.507711
6238.000000;0.507251
6237.000000;0.506791
6236.000000;0.506329
6235.000000;0.505870
6234.000000;0.505425
6233.000000;0.505004
6232.000000;0.504610
6231.000000;0.504221
6230.000000;0.503799
6229.000000;0.503333
6228.000000;0.502858
6227.000000;0.502413
6226.000000;0.501997
6225.000000;0.501582
6224.000000;0.501156
6223.000000;0.500743
6222.000000;0.500354
6221.000000;0.499974
6220.000000;0.499578
6219.000000;0.499161
6218.000000;0.498734
6217.000000;0.498311
6216.000000;0.497909
6215.000000;0.497550
6214.000000;0.497231
6213.000000;0.496916
6212.000000;0.496565
6211.000000;0.496169
6210.000000;0.495759
6209.000000;0.495357
6208.000000;0.494955
6207.000000;0.494523
6206.000000;0.494062
6205.000000;0.493612
6204.000000;0.493217
6203.000000;0.492883
6202.000000;0.492563
6201.000000;0.492217
6200.000000;0.491841
6199.000000;0.491450
6198.000000;0.491040
6197.000000;0.490599
6196.000000;0.490150
6195.000000;0.489745
6194.000000;0.489411
6193.000000;0.489109
6192.000000;0.488786
6191.000000;0.488430
6190.000000;0.488064
6189.000000;0.487709
6188.000000;0.487368
6187.000000;0.487038
6186.000000;0.486722
6185.000000;0.486409
6184.000000;0.486065
6183.000000;0.485668
6182.000000;0.485233
6181.000000;0.484799
6180.000000;0.484388
6179.000000;0.484008
6178.000000;0.483659
6177.000000;0.483343
6176.000000;0.483041
6175.000000;0.482713
6174.000000;0.482331
6173.000000;0.481914
6172.000000;0.481509
6171.000000;0.481146
6170.000000;0.480821
6169.000000;0.480518
6168.000000;0.480233
6167.000000;0.479968
6166.000000;0.479719
6165.000000;0.479469
6164.000000;0.479196
6163.000000;0.478883
6162.000000;0.478526
6161.000000;0.478146
6160.000000;0.477771
6159.000000;0.477409
6158.000000;0.477047
6157.000000;0.476680
6156.000000;0.476331
6155.000000;0.476022
6154.000000;0.475739
6153.000000;0.475447
6152.000000;0.475127
6151.000000;0.474800
6150.000000;0.474502
6149.000000;0.474245
6148.000000;0.474005
6147.000000;0.473741
6146.000000;0.473435
6145.000000;0.473101
6144.000000;0.472769
6143.000000;0.472454
6142.000000;0.472157
6141.000000;0.471883
6140.000000;0.471636
6139.000000;0.471400
6138.000000;0.471139
6137.000000;0.470825
6136.000000;0.470472
6135.000000;0.470115
6134.000000;0.469783
6133.000000;0.469491
6132.000000;0.469248
6131.000000;0.469037
6130.000000;0.468806
6129.000000;0.468511
6128.000000;0.468166
6127.000000;0.467835
6126.000000;0.467555
6125.000000;0.467306
6124.000000;0.467047
6123.000000;0.466776
6122.000000;0.466522
6121.000000;0.466299
6120.000000;0.466080
6119.000000;0.465836
6118.000000;0.465563
6117.000000;0.465283
6116.000000;0.465014
6115.000000;0.464751
6114.000000;0.464474
6113.000000;0.464169
6112.000000;0.463846
6111.000000;0.463535
6110.000000;0.463261
6109.000000;0.463028
6108.000000;0.462810
6107.000000;0.462575
6106.000000;0.462306
6105.000000;0.462009
6104.000000;0.461719
6103.000000;0.461474
6102.000000;0.461290
6101.000000;0.461137
6100.000000;0.460962
6099.000000;0.460729
6098.000000;0.460443
6097.000000;0.460137
6096.000000;0.459836
6095.000000;0.459546
6094.000000;0.459274
6093.000000;0.459034
6092.000000;0.458821
6091.000000;0.458605
6090.000000;0.458361
6089.000000;0.458107
6088.000000;0.457892
6087.000000;0.457734
6086.000000;0.457591
6085.000000;0.457403
6084.000000;0.457161
6083.000000;0.456915
6082.000000;0.456709
6081.000000;0.456526
6080.000000;0.456313
6079.000000;0.456046
6078.000000;0.455755
6077.000000;0.455492
6076.000000;0.455281
6075.000000;0.455110
6074.000000;0.454957
6073.000000;0.454803
6072.000000;0.454637
6071.000000;0.454453
6070.000000;0.454256
6069.000000;0.454053
6068.000000;0.453844
6067.000000;0.453619
6066.000000;0.453383
6065.000000;0.453155
6064.000000;0.452950
6063.000000;0.452759
6062.000000;0.452564
6061.000000;0.452363
6060.000000;0.452164
6059.000000;0.451974
6058.000000;0.451796
6057.000000;0.451626
6056.000000;0.451460
6055.000000;0.451290
6054.000000;0.451115
6053.000000;0.450933
6052.000000;0.450735
6051.000000;0.450508
6050.000000;0.450260
6049.000000;0.450037
6048.000000;0.449871
6047.000000;0.449748
6046.000000;0.449618
6045.000000;0.449454
6044.000000;0.449270
6043.000000;0.449090
6042.000000;0.448920
6041.000000;0.448753
6040.000000;0.448585
6039.000000;0.448425
6038.000000;0.448278
6037.000000;0.448145
6036.000000;0.448018
6035.000000;0.447887
6034.000000;0.447747
6033.000000;0.447600
6032.000000;0.447445
6031.000000;0.447275
6030.000000;0.447094
6029.000000;0.446923
6028.000000;0.446787
6027.000000;0.446682
6026.000000;0.446582
6025.000000;0.446460
6024.000000;0.446308
6023.000000;0.446137
6022.000000;0.445973
6021.000000;0.445837
6020.000000;0.445723
6019.000000;0.445598
6018.000000;0.445436
6017.000000;0.445251
6016.000000;0.445072
6015.000000;0.444909
6014.000000;0.444755
6013.000000;0.444622
6012.000000;0.444532
6011.000000;0.444471
6010.000000;0.444390
6009.000000;0.444262
6008.000000;0.444114
6007.000000;0.443987
6006.000000;0.443896
6005.000000;0.443826
6004.000000;0.443754
6003.000000;0.443658
6002.000000;0.443530
6001.000000;0.443399
6000.000000;0.443305
5999.000000;0.443250
5998.000000;0.443192
5997.000000;0.443095
5996.000000;0.442974
5995.000000;0.442859
5994.000000;0.442759
5993.000000;0.442663
5992.000000;0.442580
5991.000000;0.442528
5990.000000;0.442494
5989.000000;0.442450
5988.000000;0.442385
5987.000000;0.442313
5986.000000;0.442235
5985.000000;0.442134
5984.000000;0.442004
5983.000000;0.441866
5982.000000;0.441750
5981.000000;0.441666
5980.000000;0.441607
5979.000000;0.441566
5978.000000;0.441542
5977.000000;0.441527
5976.000000;0.441495
5975.000000;0.441430
5974.000000;0.441343
5973.000000;0.441266
5972.000000;0.441215
5971.000000;0.441168
5970.000000;0.441098
5969.000000;0.441020
5968.000000;0.440978
5967.000000;0.440981
5966.000000;0.440991
5965.000000;0.440965
5964.000000;0.440906
5963.000000;0.440845
5962.000000;0.440802
5961.000000;0.440771
5960.000000;0.440737
5959.000000;0.440689
5958.000000;0.440617
5957.000000;0.440534
5956.000000;0.440465
5955.000000;0.440433
5954.000000;0.440439
5953.000000;0.440463
5952.000000;0.440487
5951.000000;0.440487
5950.000000;0.440446
5949.000000;0.440370
5948.000000;0.440298
5947.000000;0.440270
5946.000000;0.440282
5945.000000;0.440300
5944.000000;0.440293
5943.000000;0.440260
5942.000000;0.440221
5941.000000;0.440198
5940.000000;0.440195
5939.000000;0.440198
5938.000000;0.440195
5937.000000;0.440199
5936.000000;0.440239
5935.000000;0.440309
5934.000000;0.440367
5933.000000;0.440384
5932.000000;0.440378
5931.000000;0.440384
5930.000000;0.440406
5929.000000;0.440426
5928.000000;0.440439
5927.000000;0.440461
5926.000000;0.440500
5925.000000;0.440545
5924.000000;0.440581
5923.000000;0.440601
5922.000000;0.440598
5921.000000;0.440575
5920.000000;0.440547
5919.000000;0.440526
5918.000000;0.440509
5917.000000;0.440482
5916.000000;0.440452
5915.000000;0.440443
5914.000000;0.440469
5913.000000;0.440525
5912.000000;0.440585
5911.000000;0.440619
5910.000000;0.440603
5909.000000;0.440548
5908.000000;0.440503
5907.000000;0.440509
5906.000000;0.440563
5905.000000;0.440631
5904.000000;0.440701
5903.000000;0.440784
5902.000000;0.440884
5901.000000;0.440980
5900.000000;0.441059
5899.000000;0.441128
5898.000000;0.441197
5897.000000;0.441263
5896.000000;0.441316
5895.000000;0.441356
5894.000000;0.441380
5893.000000;0.441386
5892.000000;0.441389
5891.000000;0.441422
5890.000000;0.441503
5889.000000;0.441611
5888.000000;0.441711
5887.000000;0.441793
5886.000000;0.441875
5885.000000;0.441976
5884.000000;0.442094
5883.000000;0.442207
5882.000000;0.442297
5881.000000;0.442364
5880.000000;0.442422
5879.000000;0.442495
5878.000000;0.442591
5877.000000;0.442698
5876.000000;0.442796
5875.000000;0.442879
5874.000000;0.442956
5873.000000;0.443040
5872.000000;0.443136
5871.000000;0.443248
5870.000000;0.443380
5869.000000;0.443528
5868.000000;0.443674
5867.000000;0.443794
5866.000000;0.443889
5865.000000;0.443978
5864.000000;0.444082
5863.000000;0.444198
5862.000000;0.444320
5861.000000;0.444452
5860.000000;0.444608
5859.000000;0.444780
5858.000000;0.444944
5857.000000;0.445084
5856.000000;0.445215
5855.000000;0.445365
5854.000000;0.445548
5853.000000;0.445755
5852.000000;0.445958
5851.000000;0.446140
5850.000000;0.446308
5849.000000;0.446485
5848.000000;0.446685
5847.000000;0.446894
5846.000000;0.447086
5845.000000;0.447252
5844.000000;0.447405
5843.000000;0.447556
5842.000000;0.447715
5841.000000;0.447890
5840.000000;0.448092
5839.000000;0.448315
5838.000000;0.448540
5837.000000;0.448752
5836.000000;0.448952
5835.000000;0.449142
5834.000000;0.449320
5833.000000;0.449502
5832.000000;0.449717
5831.000000;0.449980
5830.000000;0.450274
5829.000000;0.450561
5828.000000;0.450819
5827.000000;0.451041
5826.000000;0.451239
5825.000000;0.451440
5824.000000;0.451671
5823.000000;0.451940
5822.000000;0.452225
5821.000000;0.452493
5820.000000;0.452735
5819.000000;0.452961
5818.000000;0.453189
5817.000000;0.453436
5816.000000;0.453718
5815.000000;0.454036
5814.000000;0.454368
5813.000000;0.454693
5812.000000;0.455000
5811.000000;0.455285
5810.000000;0.455543
5809.000000;0.455786
5808.000000;0.456044
5807.000000;0.456345
5806.000000;0.456681
5805.000000;0.457018
5804.000000;0.457321
5803.000000;0.457587
5802.000000;0.457848
5801.000000;0.458145
5800.000000;0.458491
5799.000000;0.458861
5798.000000;0.459216
5797.000000;0.459541
5796.000000;0.459857
5795.000000;0.460193
5794.000000;0.460561
5793.000000;0.460952
5792.000000;0.461343
5791.000000;0.461710
5790.000000;0.462045
5789.000000;0.462371
5788.000000;0.462712
5787.000000;0.463068
5786.000000;0.463415
5785.000000;0.463748
5784.000000;0.464090
5783.000000;0.464461
5782.000000;0.464863
5781.000000;0.465282
5780.000000;0.465703
5779.000000;0.466104
5778.000000;0.466478
5777.000000;0.466853
5776.000000;0.467260
5775.000000;0.467691
5774.000000;0.468108
5773.000000;0.468503
5772.000000;0.468904
5771.000000;0.469320
5770.000000;0.469724
5769.000000;0.470105
5768.000000;0.470496
5767.000000;0.470934
5766.000000;0.471403
5765.000000;0.471865
5764.000000;0.472307
5763.000000;0.472741
5762.000000;0.473185
5761.000000;0.473658
5760.000000;0.474176
5759.000000;0.474722
5758.000000;0.475245
5757.000000;0.475708
5756.000000;0.476133
5755.000000;0.476566
5754.000000;0.477024
5753.000000;0.477497
5752.000000;0.477989
5751.000000;0.478497
5750.000000;0.479000
5749.000000;0.479477
5748.000000;0.479953
5747.000000;0.480474
5746.000000;0.481050
5745.000000;0.481649
5744.000000;0.482233
5743.000000;0.482789
5742.000000;0.483318
5741.000000;0.483828
5740.000000;0.484341
5739.000000;0.484879
5738.000000;0.485447
5737.000000;0.486033
5736.000000;0.486630
5735.000000;0.487225
5734.000000;0.487799
5733.000000;0.488349
5732.000000;0.488906
5731.000000;0.489497
5730.000000;0.490107
5729.000000;0.490706
5728.000000;0.491295
5727.000000;0.491910
5726.000000;0.492567
5725.000000;0.493246
5724.000000;0.493909
5723.000000;0.494532
5722.000000;0.495119
5721.000000;0.495693
5720.000000;0.496289
5719.000000;0.496928
5718.000000;0.497598
5717.000000;0.498278
5716.000000;0.498953
5715.000000;0.499609
5714.000000;0.500236
5713.000000;0.500845
5712.000000;0.501476
5711.000000;0.502159
5710.000000;0.502878
5709.000000;0.503586
5708.000000;0.504257
5707.000000;0.504905
5706.000000;0.505559
5705.000000;0.506250
5704.000000;0.506989
5703.000000;0.507752
5702.000000;0.508500
5701.000000;0.509208
5700.000000;0.509902
5699.000000;0.510601
5698.000000;0.511317
5697.000000;0.511976
5696.000000;0.512640
5695.000000;0.513335
5694.000000;0.514032
5693.000000;0.514745
5692.000000;0.515465
5691.000000;0.516180
5690.000000;0.516867
5689.000000;0.517539
5688.000000;0.518242
5687.000000;0.518998
5686.000000;0.519772
5685.000000;0.520520
5684.000000;0.521245
5683.000000;0.521968
5682.000000;0.522683
5681.000000;0.523384
5680.000000;0.524098
5679.000000;0.524854
5678.000000;0.525625
5677.000000;0.526354
5676.000000;0.527031
5675.000000;0.527698
5674.000000;0.528392
5673.000000;0.529121
5672.000000;0.529881
5671.000000;0.530656
5670.000000;0.531414
5669.000000;0.532132
5668.000000;0.532822
5667.000000;0.533507
5666.000000;0.534187
5665.000000;0.534851
5664.000000;0.535512
5663.000000;0.536200
5662.000000;0.536914
5661.000000;0.537626
5660.000000;0.538318
5659.000000;0.538992
5658.000000;0.539652
5657.000000;0.540308
5656.000000;0.540985
5655.000000;0.541690
5654.000000;0.542396
5653.000000;0.543067
5652.000000;0.543702
5651.000000;0.544313
5650.000000;0.544895
5649.000000;0.545451
5648.000000;0.546020
5647.000000;0.546643
5646.000000;0.547307
5645.000000;0.547954
5644.000000;0.548543
5643.000000;0.549085
5642.000000;0.549614
5641.000000;0.550169
5640.000000;0.550777
5639.000000;0.551426
5638.000000;0.552054
5637.000000;0.552615
5636.000000;0.553129
5635.000000;0.553648
5634.000000;0.554187
5633.000000;0.554725
5632.000000;0.555247
5631.000000;0.555762
5630.000000;0.556279
5629.000000;0.556798
5628.000000;0.557320
5627.000000;0.557832
5626.000000;0.558306
5625.000000;0.558740
5624.000000;0.559181
5623.000000;0.559663
5622.000000;0.560153
5621.000000;0.560597
5620.000000;0.560991
5619.000000;0.561371
5618.000000;0.561744
5617.000000;0.562096
5616.000000;0.562445
5615.000000;0.562823
5614.000000;0.563221
5613.000000;0.563600
5612.000000;0.563959
5611.000000;0.564337
5610.000000;0.564742
5609.000000;0.565125
5608.000000;0.565427
5607.000000;0.565639
5606.000000;0.565806
5605.000000;0.565998
5604.000000;0.566266
5603.000000;0.566599
5602.000000;0.566933
5601.000000;0.567211
5600.000000;0.567426
5599.000000;0.567597
5598.000000;0.567736
5597.000000;0.567874
5596.000000;0.568057
5595.000000;0.568288
5594.000000;0.568504
5593.000000;0.568658
5592.000000;0.568789
5591.000000;0.568963
5590.000000;0.569180
5589.000000;0.569397
5588.000000;0.569602
5587.000000;0.569799
5586.000000;0.569959
5585.000000;0.570053
5584.000000;0.570110
5583.000000;0.570183
5582.000000;0.570271
5581.000000;0.570344
5580.000000;0.570411
5579.000000;0.570500
5578.000000;0.570584
5577.000000;0.570608
5576.000000;0.570588
5575.000000;0.570591
5574.000000;0.570637
5573.000000;0.570689
5572.000000;0.570734
5571.000000;0.570792
5570.000000;0.570841
5569.000000;0.570829
5568.000000;0.570764
5567.000000;0.570715
5566.000000;0.570705
5565.000000;0.570691
5564.000000;0.570657
5563.000000;0.570650
5562.000000;0.570687
5561.000000;0.570721
5560.000000;0.570717
5559.000000;0.570695
5558.000000;0.570673
5557.000000;0.570618
5556.000000;0.570515
5555.000000;0.570409
5554.000000;0.570340
5553.000000;0.570282
5552.000000;0.570200
5551.000000;0.570117
5550.000000;0.570074
5549.000000;0.570061
5548.000000;0.570027
5547.000000;0.569944
5546.000000;0.569823
5545.000000;0.569700
5544.000000;0.569610
5543.000000;0.569560
5542.000000;0.569511
5541.000000;0.569414
5540.000000;0.569285
5539.000000;0.569180
5538.000000;0.569102
5537.000000;0.568978
5536.000000;0.568783
5535.000000;0.568612
5534.000000;0.568564
5533.000000;0.568611
5532.000000;0.568639
5531.000000;0.568587
5530.000000;0.568472
5529.000000;0.568321
5528.000000;0.568145
5527.000000;0.567965
5526.000000;0.567805
5525.000000;0.567677
5524.000000;0.567582
5523.000000;0.567497
5522.000000;0.567388
5521.000000;0.567243
5520.000000;0.567130
5519.000000;0.567155
5518.000000;0.567304
5517.000000;0.567416
5516.000000;0.567370
5515.000000;0.567229
5514.000000;0.567148
5513.000000;0.567172
5512.000000;0.567205
5511.000000;0.567185
5510.000000;0.567138
5509.000000;0.567053
5508.000000;0.566848
5507.000000;0.566529
5506.000000;0.566293
5505.000000;0.566372
5504.000000;0.566728
5503.000000;0.567039
5502.000000;0.567076
5501.000000;0.566938
5500.000000;0.566875
5499.000000;0.566963
5498.000000;0.567022
5497.000000;0.566955
5496.000000;0.566984
5495.000000;0.567311
5494.000000;0.567715
5493.000000;0.567762
5492.000000;0.567428
5491.000000;0.567243
5490.000000;0.567606
5489.000000;0.568220
5488.000000;0.568499
5487.000000;0.568330
5486.000000;0.568123
5485.000000;0.568213
5484.000000;0.568504
5483.000000;0.568721
5482.000000;0.568832
5481.000000;0.568946
5480.000000;0.569021
5479.000000;0.569052
5478.000000;0.569283
5477.000000;0.569881
5476.000000;0.570546
5475.000000;0.570737
5474.000000;0.570434
5473.000000;0.570313
5472.000000;0.570848
5471.000000;0.571670
5470.000000;0.572109
5469.000000;0.572039
5468.000000;0.571923
5467.000000;0.572163
5466.000000;0.572647
5465.000000;0.573105
5464.000000;0.573581
5463.000000;0.574224
5462.000000;0.574923
5461.000000;0.575428
5460.000000;0.575697
5459.000000;0.575992
5458.000000;0.576558
5457.000000;0.577302
5456.000000;0.577896
5455.000000;0.578129
5454.000000;0.578127
5453.000000;0.578326
5452.000000;0.579078
5451.000000;0.580179
5450.000000;0.581081
5449.000000;0.581640
5448.000000;0.582346
5447.000000;0.583586
5446.000000;0.584892
5445.000000;0.585550
5444.000000;0.585787
5443.000000;0.586485
5442.000000;0.587845
5441.000000;0.589106
5440.000000;0.589628
5439.000000;0.589802
5438.000000;0.590578
5437.000000;0.592226
5436.000000;0.594030
5435.000000;0.595149
5434.000000;0.595468
5433.000000;0.595739
5432.000000;0.596834
5431.000000;0.598790
5430.000000;0.600775
5429.000000;0.601993
5428.000000;0.602507
5427.000000;0.603098
5426.000000;0.604326
5425.000000;0.605999
5424.000000;0.607577
5423.000000;0.608776
5422.000000;0.609765
5421.000000;0.610962
5420.000000;0.612566
5419.000000;0.614301
5418.000000;0.615896
5417.000000;0.617656
5416.000000;0.620071
5415.000000;0.622981
5414.000000;0.625571
5413.000000;0.627446
5412.000000;0.629225
5411.000000;0.631558
5410.000000;0.634127
5409.000000;0.636201
5408.000000;0.637776
5407.000000;0.639503
5406.000000;0.641699
5405.000000;0.644040
5404.000000;0.646216
5403.000000;0.648431
5402.000000;0.650975
5401.000000;0.653792
5400.000000;0.656823
5399.000000;0.660100
5398.000000;0.663484
5397.000000;0.666858
5396.000000;0.670362
5395.000000;0.674209
5394.000000;0.678200
5393.000000;0.681861
5392.000000;0.685202
5391.000000;0.688733
5390.000000;0.692683
5389.000000;0.696751
5388.000000;0.700695
5387.000000;0.704687
5386.000000;0.708919
5385.000000;0.713243
5384.000000;0.717583
5383.000000;0.722296
5382.000000;0.727508
5381.000000;0.732738
5380.000000;0.737754
5379.000000;0.743028
5378.000000;0.748959
5377.000000;0.755155
5376.000000;0.761009
5375.000000;0.766726
5374.000000;0.772939
5373.000000;0.779610
5372.000000;0.786150
5371.000000;0.792417
5370.000000;0.798868
5369.000000;0.805765
5368.000000;0.812860
5367.000000;0.820059
5366.000000;0.827728
5365.000000;0.836011
5364.000000;0.844510
5363.000000;0.852993
5362.000000;0.861763
5361.000000;0.871121
5360.000000;0.880926
5359.000000;0.890845
5358.000000;0.900790
5357.000000;0.910907
5356.000000;0.921375
5355.000000;0.932370
5354.000000;0.943941
5353.000000;0.955800
5352.000000;0.967668
5351.000000;0.979874
5350.000000;0.992888
5349.000000;1.006385
5348.000000;1.019676
5347.000000;1.032948
5346.000000;1.047172
5345.000000;1.062583
5344.000000;1.078110
5343.000000;1.093028
5342.000000;1.108259
5341.000000;1.124899
5340.000000;1.142508
5339.000000;1.159930
5338.000000;1.177043
5337.000000;1.194754
5336.000000;1.213513
5335.000000;1.232918
5334.000000;1.252712
5333.000000;1.272981
5332.000000;1.293496
5331.000000;1.314082
5330.000000;1.335379
5329.000000;1.358150
5328.000000;1.382087
5327.000000;1.406132
5326.000000;1.429957
5325.000000;1.454229
5324.000000;1.479298
5323.000000;1.504821
5322.000000;1.530739
5321.000000;1.557383
5320.000000;1.584618
5319.000000;1.612017
5318.000000;1.639819
5317.000000;1.668661
5316.000000;1.698413
5315.000000;1.728402
5314.000000;1.758672
5313.000000;1.789666
5312.000000;1.820826
5311.000000;1.851271
5310.000000;1.881720
5309.000000;1.913895
5308.000000;1.947981
5307.000000;1.982343
5306.000000;2.015772
5305.000000;2.048187
5304.000000;2.079273
5303.000000;2.108787
5302.000000;2.138041
5301.000000;2.168452
5300.000000;2.198708
5299.000000;2.226004
5298.000000;2.250126
5297.000000;2.273554
5296.000000;2.297748
5295.000000;2.322188
5294.000000;2.346151
5293.000000;2.368141
5292.000000;2.384977
5291.000000;2.395843
5290.000000;2.405742
5289.000000;2.420309
5288.000000;2.438708
5287.000000;2.455522
5286.000000;2.468202
5285.000000;2.478221
5284.000000;2.486464
5283.000000;2.492463
5282.000000;2.496971
5281.000000;2.501371
5280.000000;2.505859
5279.000000;2.510739
5278.000000;2.516964
5277.000000;2.523121
5276.000000;2.525522
5275.000000;2.524215
5274.000000;2.524541
5273.000000;2.529608
5272.000000;2.535841
5271.000000;2.539066
5270.000000;2.540394
5269.000000;2.542093
5268.000000;2.542825
5267.000000;2.541411
5266.000000;2.540392
5265.000000;2.541660
5264.000000;2.543263
5263.000000;2.544284
5262.000000;2.547834
5261.000000;2.554819
5260.000000;2.560242
5259.000000;2.560821
5258.000000;2.560857
5257.000000;2.564655
5256.000000;2.568442
5255.000000;2.565822
5254.000000;2.557866
5253.000000;2.551013
5252.000000;2.548262
5251.000000;2.548541
5250.000000;2.550738
5249.000000;2.553073
5248.000000;2.552277
5247.000000;2.548673
5246.000000;2.548153
5245.000000;2.554269
5244.000000;2.562465
5243.000000;2.566313
5242.000000;2.566230
5241.000000;2.566425
5240.000000;2.567205
5239.000000;2.566712
5238.000000;2.566319
5237.000000;2.567878
5236.000000;2.568702
5235.000000;2.565523
5234.000000;2.561130
5233.000000;2.561014
5232.000000;2.565439
5231.000000;2.569502
5230.000000;2.569715
5229.000000;2.566679
5228.000000;2.562516
5227.000000;2.559364
5226.000000;2.558863
5225.000000;2.560221
5224.000000;2.560350
5223.000000;2.558497
5222.000000;2.557745
5221.000000;2.559348
5220.000000;2.559818
5219.000000;2.556658
5218.000000;2.552957
5217.000000;2.552272
5216.000000;2.553588
5215.000000;2.555451
5214.000000;2.559593
5213.000000;2.565627
5212.000000;2.567100
5211.000000;2.559098
5210.000000;2.546810
5209.000000;2.539688
5208.000000;2.540488
5207.000000;2.545016
5206.000000;2.549411
5205.000000;2.552647
5204.000000;2.553649
5203.000000;2.551696
5202.000000;2.548495
5201.000000;2.545618
5200.000000;2.542005
5199.000000;2.537608
5198.000000;2.536642
5197.000000;2.542875
5196.000000;2.553605
5195.000000;2.562147
5194.000000;2.565325
5193.000000;2.564396
5192.000000;2.560508
5191.000000;2.554518
5190.000000;2.549193
5189.000000;2.546427
5188.000000;2.543752
5187.000000;2.537974
5186.000000;2.530757
5185.000000;2.526413
5184.000000;2.525991
5183.000000;2.527513
5182.000000;2.530384
5181.000000;2.535260
5180.000000;2.540565
5179.000000;2.543457
5178.000000;2.543729
5177.000000;2.542909
5176.000000;2.540473
5175.000000;2.535393
5174.000000;2.530193
5173.000000;2.528603
5172.000000;2.530603
5171.000000;2.533283
5170.000000;2.535075
5169.000000;2.536120
5168.000000;2.535723
5167.000000;2.533112
5166.000000;2.529802
5165.000000;2.527866
5164.000000;2.526848
5163.000000;2.525444
5162.000000;2.525142
5161.000000;2.528190
5160.000000;2.533093
5159.000000;2.536216
5158.000000;2.537096
5157.000000;2.538696
5156.000000;2.542694
5155.000000;2.547398
5154.000000;2.550442
5153.000000;2.551317
5152.000000;2.550808
5151.000000;2.549958
5150.000000;2.549633
5149.000000;2.549609
5148.000000;2.548840
5147.000000;2.547440
5146.000000;2.546960
5145.000000;2.547582
5144.000000;2.547111
5143.000000;2.544322
5142.000000;2.541052
5141.000000;2.539080
5140.000000;2.537712
5139.000000;2.536252
5138.000000;2.535709
5137.000000;2.535846
5136.000000;2.533918
5135.000000;2.529190
5134.000000;2.525364
5133.000000;2.525255
5132.000000;2.526402
5131.000000;2.525345
5130.000000;2.523217
5129.000000;2.522872
5128.000000;2.523456
5127.000000;2.522766
5126.000000;2.522876
5125.000000;2.527905
5124.000000;2.537000
5123.000000;2.544242
5122.000000;2.546049
5121.000000;2.545007
5120.000000;2.545126
5119.000000;2.547014
5118.000000;2.548428
5117.000000;2.546809
5116.000000;2.541371
5115.000000;2.534665
5114.000000;2.531317
5113.000000;2.533175
5112.000000;2.536608
5111.000000;2.536779
5110.000000;2.533677
5109.000000;2.531331
5108.000000;2.532462
5107.000000;2.536850
5106.000000;2.543250
5105.000000;2.549664
5104.000000;2.552907
5103.000000;2.551190
5102.000000;2.546208
5101.000000;2.540394
5100.000000;2.534368
5099.000000;2.528820
5098.000000;2.525842
5097.000000;2.526001
5096.000000;2.526333
5095.000000;2.524535
5094.000000;2.523257
5093.000000;2.525759
5092.000000;2.529378
5091.000000;2.528110
5090.000000;2.521327
5089.000000;2.515031
5088.000000;2.514082
5087.000000;2.517460
5086.000000;2.521030
5085.000000;2.521746
5084.000000;2.518865
5083.000000;2.513843
5082.000000;2.509839
5081.000000;2.509345
5080.000000;2.512087
5079.000000;2.516255
5078.000000;2.520976
5077.000000;2.526147
5076.000000;2.530727
5075.000000;2.533286
5074.000000;2.533744
5073.000000;2.532495
5072.000000;2.529104
5071.000000;2.524242
5070.000000;2.520913
5069.000000;2.520937
5068.000000;2.521809
5067.000000;2.519953
5066.000000;2.515768
5065.000000;2.512191
5064.000000;2.510314
5063.000000;2.509281
5062.000000;2.508853
5061.000000;2.509536
5060.000000;2.510544
5059.000000;2.510158
5058.000000;2.508192
5057.000000;2.505852
5056.000000;2.503594
5055.000000;2.501606
5054.000000;2.501715
5053.000000;2.505634
5052.000000;2.511198
5051.000000;2.513317
5050.000000;2.509286
5049.000000;2.501144
5048.000000;2.493056
5047.000000;2.488268
5046.000000;2.488055
5045.000000;2.491145
5044.000000;2.493717
5043.000000;2.492231
5042.000000;2.487031
5041.000000;2.481745
5040.000000;2.479466
5039.000000;2.481022
5038.000000;2.485520
5037.000000;2.490078
5036.000000;2.490369
5035.000000;2.484558
5034.000000;2.476224
5033.000000;2.471040
5032.000000;2.470813
5031.000000;2.472228
5030.000000;2.471174
5029.000000;2.466850
5028.000000;2.461500
5027.000000;2.457890
5026.000000;2.457679
5025.000000;2.460614
5024.000000;2.464163
5023.000000;2.464747
5022.000000;2.460600
5021.000000;2.453531
5020.000000;2.447460
5019.000000;2.445138
5018.000000;2.445822
5017.000000;2.445946
5016.000000;2.442759
5015.000000;2.437153
5014.000000;2.432110
5013.000000;2.428846
5012.000000;2.425651
5011.000000;2.420589
5010.000000;2.414048
5009.000000;2.408113
5008.000000;2.404578
5007.000000;2.403815
5006.000000;2.404126
5005.000000;2.402107
5004.000000;2.395429
5003.000000;2.385915
5002.000000;2.378205
5001.000000;2.375024
5000.000000;2.375466
4999.000000;2.378097
4998.000000;2.382645
4997.000000;2.387462
4996.000000;2.388281
4995.000000;2.382314
4994.000000;2.371864
4993.000000;2.361312
4992.000000;2.352740
4991.000000;2.346609
4990.000000;2.344066
4989.000000;2.345589
4988.000000;2.348468
4987.000000;2.348461
4986.000000;2.344035
4985.000000;2.336884
4984.000000;2.328709
4983.000000;2.319964
4982.000000;2.311405
4981.000000;2.304509
4980.000000;2.299947
4979.000000;2.296936
4978.000000;2.294204
4977.000000;2.290839
4976.000000;2.286557
4975.000000;2.281965
4974.000000;2.278096
4973.000000;2.274914
4972.000000;2.270914
4971.000000;2.264903
4970.000000;2.257408
4969.000000;2.249646
4968.000000;2.242271
4967.000000;2.235849
4966.000000;2.231193
4965.000000;2.228051
4964.000000;2.224487
4963.000000;2.218847
4962.000000;2.211655
4961.000000;2.204509
4960.000000;2.198110
4959.000000;2.192479
4958.000000;2.187876
4957.000000;2.184140
4956.000000;2.180127
4955.000000;2.175321
4954.000000;2.171062
4953.000000;2.168567
4952.000000;2.166505
4951.000000;2.162190
4950.000000;2.154859
4949.000000;2.146086
4948.000000;2.137394
4947.000000;2.129269
4946.000000;2.122124
4945.000000;2.116425
4944.000000;2.111774
4943.000000;2.107288
4942.000000;2.102972
4941.000000;2.099429
4940.000000;2.096219
4939.000000;2.091896
4938.000000;2.086004
4937.000000;2.079804
4936.000000;2.074591
4935.000000;2.070211
4934.000000;2.065555
4933.000000;2.059804
4932.000000;2.052805
4931.000000;2.045024
4930.000000;2.037581
4929.000000;2.031592
4928.000000;2.027163
4927.000000;2.023356
4926.000000;2.019235
4925.000000;2.014611
4924.000000;2.009745
4923.000000;2.004790
4922.000000;1.999680
4921.000000;1.994316
4920.000000;1.988737
4919.000000;1.983101
4918.000000;1.977324
4917.000000;1.970810
4916.000000;1.963043
4915.000000;1.954589
4914.000000;1.946925
4913.000000;1.940936
4912.000000;1.936059
4911.000000;1.931276
4910.000000;1.926414
4909.000000;1.921890
4908.000000;1.917655
4907.000000;1.913206
4906.000000;1.908418
4905.000000;1.903594
4904.000000;1.898732
4903.000000;1.893469
4902.000000;1.887761
4901.000000;1.881982
4900.000000;1.876291
4899.000000;1.870480
4898.000000;1.864524
4897.000000;1.858743
4896.000000;1.853252
4895.000000;1.847721
4894.000000;1.841918
4893.000000;1.836181
4892.000000;1.831023
4891.000000;1.826377
4890.000000;1.821456
4889.000000;1.815508
4888.000000;1.808689
4887.000000;1.802062
4886.000000;1.796587
4885.000000;1.792224
4884.000000;1.788170
4883.000000;1.783810
4882.000000;1.779080
4881.000000;1.774002
4880.000000;1.768443
4879.000000;1.762499
4878.000000;1.756633
4877.000000;1.751139
4876.000000;1.745838
4875.000000;1.740542
4874.000000;1.735429
4873.000000;1.730643
4872.000000;1.725921
4871.000000;1.720945
4870.000000;1.715798
4869.000000;1.710729
4868.000000;1.705785
4867.000000;1.700993
4866.000000;1.696556
4865.000000;1.692452
4864.000000;1.688124
4863.000000;1.682982
4862.000000;1.677068
4861.000000;1.670892
4860.000000;1.664834
4859.000000;1.659044
4858.000000;1.653667
4857.000000;1.648762
4856.000000;1.644112
4855.000000;1.639434
4854.000000;1.634646
4853.000000;1.629693
4852.000000;1.624385
4851.000000;1.618786
4850.000000;1.613485
4849.000000;1.609051
4848.000000;1.605311
4847.000000;1.601545
4846.000000;1.597285
4845.000000;1.592586
4844.000000;1.587670
4843.000000;1.582731
4842.000000;1.578020
4841.000000;1.573686
4840.000000;1.569487
4839.000000;1.564972
4838.000000;1.559961
4837.000000;1.554615
4836.000000;1.549152
4835.000000;1.543807
4834.000000;1.538926
4833.000000;1.534677
4832.000000;1.530690
4831.000000;1.526384
4830.000000;1.521685
4829.000000;1.517053
4828.000000;1.512740
4827.000000;1.508437
4826.000000;1.503798
4825.000000;1.498948
4824.000000;1.494231
4823.000000;1.489724
4822.000000;1.485263
4821.000000;1.480781
4820.000000;1.476361
4819.000000;1.472033
4818.000000;1.467744
4817.000000;1.463513
4816.000000;1.459425
4815.000000;1.455420
4814.000000;1.451225
4813.000000;1.446648
4812.000000;1.441908
4811.000000;1.437516
4810.000000;1.433721
4809.000000;1.430177
4808.000000;1.426302
4807.000000;1.421928
4806.000000;1.417414
4805.000000;1.413119
4804.000000;1.409002
4803.000000;1.404839
4802.000000;1.400598
4801.000000;1.396415
4800.000000;1.392357
4799.000000;1.388418
4798.000000;1.384635
4797.000000;1.381002
4796.000000;1.377330
4795.000000;1.373377
4794.000000;1.369112
4793.000000;1.364734
4792.000000;1.360469
4791.000000;1.356426
4790.000000;1.352609
4789.000000;1.348901
4788.000000;1.345100
4787.000000;1.341101
4786.000000;1.337011
4785.000000;1.332996
4784.000000;1.329071
4783.000000;1.325165
4782.000000;1.321341
4781.000000;1.317769
4780.000000;1.314459
4779.000000;1.311172
4778.000000;1.307656
4777.000000;1.303895
4776.000000;1.300092
4775.000000;1.296453
4774.000000;1.292994
4773.000000;1.289561
4772.000000;1.286033
4771.000000;1.282475
4770.000000;1.279027
4769.000000;1.275676
4768.000000;1.272272
4767.000000;1.268799
4766.000000;1.265448
4765.000000;1.262334
4764.000000;1.259286
4763.000000;1.256029
4762.000000;1.252466
4761.000000;1.248656
4760.000000;1.244671
4759.000000;1.240633
4758.000000;1.236800
4757.000000;1.233380
4756.000000;1.230283
4755.000000;1.227223
4754.000000;1.224061
4753.000000;1.220902
4752.000000;1.217867
4751.000000;1.214919
4750.000000;1.211950
4749.000000;1.208930
4748.000000;1.205908
4747.000000;1.202920
4746.000000;1.199938
4745.000000;1.196891
4744.000000;1.193741
4743.000000;1.190549
4742.000000;1.187394
4741.000000;1.184238
4740.000000;1.180955
4739.000000;1.177556
4738.000000;1.174269
4737.000000;1.171301
4736.000000;1.168586
4735.000000;1.165872
4734.000000;1.162992
4733.000000;1.159956
4732.000000;1.156853
4731.000000;1.153802
4730.000000;1.150946
4729.000000;1.148351
4728.000000;1.145892
4727.000000;1.143342
4726.000000;1.140584
4725.000000;1.137667
4724.000000;1.134697
4723.000000;1.131761
4722.000000;1.128923
4721.000000;1.126196
4720.000000;1.123519
4719.000000;1.120837
4718.000000;1.118163
4717.000000;1.115514
4716.000000;1.112839
4715.000000;1.110109
4714.000000;1.107437
4713.000000;1.104992
4712.000000;1.102788
4711.000000;1.100652
4710.000000;1.098387
4709.000000;1.095908
4708.000000;1.093254
4707.000000;1.090584
4706.000000;1.088132
4705.000000;1.086026
4704.000000;1.084121
4703.000000;1.082093
4702.000000;1.079730
4701.000000;1.077089
4700.000000;1.074378
4699.000000;1.071769
4698.000000;1.069340
4697.000000;1.067084
4696.000000;1.064933
4695.000000;1.062809
4694.000000;1.060687
4693.000000;1.058573
4692.000000;1.056440
4691.000000;1.054242
4690.000000;1.051995
4689.000000;1.049787
4688.000000;1.047704
4687.000000;1.045770
4686.000000;1.043951
4685.000000;1.042178
4684.000000;1.040354
4683.000000;1.038401
4682.000000;1.036323
4681.000000;1.034221
4680.000000;1.032230
4679.000000;1.030418
4678.000000;1.028724
4677.000000;1.026995
4676.000000;1.025112
4675.000000;1.023090
4674.000000;1.021027
4673.000000;1.018984
4672.000000;1.016978
4671.000000;1.015052
4670.000000;1.013258
4669.000000;1.011547
4668.000000;1.009793
4667.000000;1.007976
4666.000000;1.006216
4665.000000;1.004570
4664.000000;1.002920
4663.000000;1.001153
4662.000000;0.999348
4661.000000;0.997648
4660.000000;0.996043
4659.000000;0.994427
4658.000000;0.992817
4657.000000;0.991343
4656.000000;0.990028
4655.000000;0.988717
4654.000000;0.987258
4653.000000;0.985656
4652.000000;0.984015
4651.000000;0.982437
4650.000000;0.980988
4649.000000;0.979689
4648.000000;0.978478
4647.000000;0.977226
4646.000000;0.975819
4645.000000;0.974223
4644.000000;0.972500
4643.000000;0.970786
4642.000000;0.969235
4641.000000;0.967906
4640.000000;0.966722
4639.000000;0.965577
4638.000000;0.964443
4637.000000;0.963335
4636.000000;0.962191
4635.000000;0.960912
4634.000000;0.959500
4633.000000;0.958091
4632.000000;0.956826
4631.000000;0.955718
4630.000000;0.954654
4629.000000;0.953494
4628.000000;0.952189
4627.000000;0.950846
4626.000000;0.949631
4625.000000;0.948586
4624.000000;0.947568
4623.000000;0.946417
4622.000000;0.945143
4621.000000;0.943877
4620.000000;0.942694
4619.000000;0.941575
4618.000000;0.940509
4617.000000;0.939529
4616.000000;0.938640
4615.000000;0.937781
4614.000000;0.936875
4613.000000;0.935884
4612.000000;0.934824
4611.000000;0.933783
4610.000000;0.932896
4609.000000;0.932231
4608.000000;0.931700
4607.000000;0.931137
4606.000000;0.930444
4605.000000;0.929623
4604.000000;0.928719
4603.000000;0.927791
4602.000000;0.926911
4601.000000;0.926103
4600.000000;0.925307
4599.000000;0.924478
4598.000000;0.923667
4597.000000;0.922949
4596.000000;0.922296
4595.000000;0.921625
4594.000000;0.920931
4593.000000;0.920277
4592.000000;0.919659
4591.000000;0.919018
4590.000000;0.918367
4589.000000;0.917799
4588.000000;0.917341
4587.000000;0.916900
4586.000000;0.916392
4585.000000;0.915814
4584.000000;0.915201
4583.000000;0.914591
4582.000000;0.914064
4581.000000;0.913704
4580.000000;0.913475
4579.000000;0.913220
4578.000000;0.912835
4577.000000;0.912381
4576.000000;0.911974
4575.000000;0.911639
4574.000000;0.911331
4573.000000;0.911030
4572.000000;0.910747
4571.000000;0.910467
4570.000000;0.910164
4569.000000;0.909855
4568.000000;0.909604
4567.000000;0.909452
4566.000000;0.909391
4565.000000;0.909384
4564.000000;0.909411
4563.000000;0.909487
4562.000000;0.909622
4561.000000;0.909764
4560.000000;0.909812
4559.000000;0.909717
4558.000000;0.909567
4557.000000;0.909521
4556.000000;0.909653
4555.000000;0.909900
4554.000000;0.910126
4553.000000;0.910235
4552.000000;0.910238
4551.000000;0.910263
4550.000000;0.910459
4549.000000;0.910834
4548.000000;0.911233
4547.000000;0.911521
4546.000000;0.911739
4545.000000;0.911987
4544.000000;0.912234
4543.000000;0.912360
4542.000000;0.912391
4541.000000;0.912527
4540.000000;0.912904
4539.000000;0.913450
4538.000000;0.914013
4537.000000;0.914533
4536.000000;0.915022
4535.000000;0.915473
4534.000000;0.915879
4533.000000;0.916296
4532.000000;0.916785
4531.000000;0.917315
4530.000000;0.917776
4529.000000;0.918093
4528.000000;0.918295
4527.000000;0.918493
4526.000000;0.918774
4525.000000;0.919119
4524.000000;0.919396
4523.000000;0.919509
4522.000000;0.919537
4521.000000;0.919673
4520.000000;0.920017
4519.000000;0.920479
4518.000000;0.920901
4517.000000;0.921221
4516.000000;0.921480
4515.000000;0.921749
4514.000000;0.922104
4513.000000;0.922610
4512.000000;0.923253
4511.000000;0.923921
4510.000000;0.924500
4509.000000;0.924968
4508.000000;0.925355
4507.000000;0.925670
4506.000000;0.925914
4505.000000;0.926160
4504.000000;0.926524
4503.000000;0.927060
4502.000000;0.927716
4501.000000;0.928409
4500.000000;0.929112
4499.000000;0.929825
4498.000000;0.930520
4497.000000;0.931145
4496.000000;0.931695
4495.000000;0.932239
4494.000000;0.932844
4493.000000;0.933503
4492.000000;0.934163
4491.000000;0.934838
4490.000000;0.935628
4489.000000;0.936603
4488.000000;0.937697
4487.000000;0.938761
4486.000000;0.939713
4485.000000;0.940581
4484.000000;0.941423
4483.000000;0.942263
4482.000000;0.943126
4481.000000;0.944076
4480.000000;0.945169
4479.000000;0.946376
4478.000000;0.947600
4477.000000;0.948768
4476.000000;0.949893
4475.000000;0.951026
4474.000000;0.952165
4473.000000;0.953258
4472.000000;0.954306
4471.000000;0.955412
4470.000000;0.956667
4469.000000;0.958036
4468.000000;0.959419
4467.000000;0.960788
4466.000000;0.962180
4465.000000;0.963549
4464.000000;0.964775
4463.000000;0.965864
4462.000000;0.967016
4461.000000;0.968413
4460.000000;0.970027
4459.000000;0.971743
4458.000000;0.973558
4457.000000;0.975525
4456.000000;0.977554
4455.000000;0.979430
4454.000000;0.981045
4453.000000;0.982480
4452.000000;0.983853
4451.000000;0.985215
4450.000000;0.986623
4449.000000;0.988176
4448.000000;0.989920
4447.000000;0.991784
4446.000000;0.993679
4445.000000;0.995612
4444.000000;0.997659
4443.000000;0.999840
4442.000000;1.002032
4441.000000;1.004011
4440.000000;1.005610
4439.000000;1.006919
4438.000000;1.008284
4437.000000;1.010037
4436.000000;1.012201
4435.000000;1.014514
4434.000000;1.016729
4433.000000;1.018811
4432.000000;1.020861
4431.000000;1.022960
4430.000000;1.025129
4429.000000;1.027344
4428.000000;1.029551
4427.000000;1.031734
4426.000000;1.033976
4425.000000;1.036394
4424.000000;1.038969
4423.000000;1.041522
4422.000000;1.043897
4421.000000;1.046107
4420.000000;1.048278
4419.000000;1.050502
4418.000000;1.052805
4417.000000;1.055183
4416.000000;1.057624
4415.000000;1.060106
4414.000000;1.062622
4413.000000;1.065159
4412.000000;1.067651
4411.000000;1.070019
4410.000000;1.072305
4409.000000;1.074696
4408.000000;1.077354
4407.000000;1.080245
4406.000000;1.083177
4405.000000;1.085988
4404.000000;1.088651
4403.000000;1.091203
4402.000000;1.093664
4401.000000;1.096077
4400.000000;1.098590
4399.000000;1.101410
4398.000000;1.104579
4397.000000;1.107821
4396.000000;1.110701
4395.000000;1.113028
4394.000000;1.115077
4393.000000;1.117357
4392.000000;1.120170
4391.000000;1.123402
4390.000000;1.126704
4389.000000;1.129807
4388.000000;1.132714
4387.000000;1.135664
4386.000000;1.138901
4385.000000;1.142421
4384.000000;1.145929
4383.000000;1.149095
4382.000000;1.151861
4381.000000;1.154461
4380.000000;1.157199
4379.000000;1.160261
4378.000000;1.163701
4377.000000;1.167471
4376.000000;1.171399
4375.000000;1.175204
4374.000000;1.178637
4373.000000;1.181640
4372.000000;1.184385
4371.000000;1.187190
4370.000000;1.190354
4369.000000;1.193981
4368.000000;1.197906
4367.000000;1.201829
4366.000000;1.205534
4365.000000;1.209022
4364.000000;1.212458
4363.000000;1.216084
4362.000000;1.220136
4361.000000;1.224680
4360.000000;1.229433
4359.000000;1.233779
4358.000000;1.237204
4357.000000;1.239847
4356.000000;1.242561
4355.000000;1.246240
4354.000000;1.251020
4353.000000;1.256177
4352.000000;1.260882
4351.000000;1.264953
4350.000000;1.268781
4349.000000;1.272661
4348.000000;1.276505
4347.000000;1.280197
4346.000000;1.283923
4345.000000;1.287946
4344.000000;1.292216
4343.000000;1.296401
4342.000000;1.300276
4341.000000;1.303967
4340.000000;1.307830
4339.000000;1.312167
4338.000000;1.317015
4337.000000;1.322137
4336.000000;1.327208
4335.000000;1.332044
4334.000000;1.336647
4333.000000;1.341104
4332.000000;1.345568
4331.000000;1.350273
4330.000000;1.355356
4329.000000;1.360603
4328.000000;1.365606
4327.000000;1.370276
4326.000000;1.374979
4325.000000;1.380024
4324.000000;1.385196
4323.000000;1.390014
4322.000000;1.394346
4321.000000;1.398583
4320.000000;1.403227
4319.000000;1.408447
4318.000000;1.413939
4317.000000;1.419150
4316.000000;1.423780
4315.000000;1.428116
4314.000000;1.432728
4313.000000;1.437839
4312.000000;1.443206
4311.000000;1.448605
4310.000000;1.454024
4309.000000;1.459259
4308.000000;1.463878
4307.000000;1.467991
4306.000000;1.472603
4305.000000;1.478561
4304.000000;1.485392
4303.000000;1.491795
4302.000000;1.497255
4301.000000;1.502510
4300.000000;1.508331
4299.000000;1.514575
4298.000000;1.520773
4297.000000;1.526997
4296.000000;1.533512
4295.000000;1.539890
4294.000000;1.545239
4293.000000;1.549434
4292.000000;1.553553
4291.000000;1.558742
4290.000000;1.564977
4289.000000;1.571212
4288.000000;1.576563
4287.000000;1.581036
4286.000000;1.585185
4285.000000;1.589555
4284.000000;1.594576
4283.000000;1.600538
4282.000000;1.607292
4281.000000;1.614252
4280.000000;1.620999
4279.000000;1.627631
4278.000000;1.634232
4277.000000;1.640473
4276.000000;1.646280
4275.000000;1.652476
4274.000000;1.659878
4273.000000;1.667872
4272.000000;1.674771
4271.000000;1.679778
4270.000000;1.683774
4269.000000;1.688080
4268.000000;1.693337
4267.000000;1.699728
4266.000000;1.707186
4265.000000;1.714903
4264.000000;1.721505
4263.000000;1.726442
4262.000000;1.730631
4261.000000;1.735264
4260.000000;1.740628
4259.000000;1.746483
4258.000000;1.752695
4257.000000;1.758950
4256.000000;1.764781
4255.000000;1.770569
4254.000000;1.777620
4253.000000;1.786409
4252.000000;1.795567
4251.000000;1.803553
4250.000000;1.810656
4249.000000;1.818269
4248.000000;1.826906
4247.000000;1.836045
4246.000000;1.845163
4245.000000;1.853859
4244.000000;1.861373
4243.000000;1.867403
4242.000000;1.872899
4241.000000;1.878907
4240.000000;1.884972
4239.000000;1.889929
4238.000000;1.893961
4237.000000;1.898448
4236.000000;1.904144
4235.000000;1.910737
4234.000000;1.917855
4233.000000;1.925341
4232.000000;1.932682
4231.000000;1.939768
4230.000000;1.948165
4229.000000;1.959835
4228.000000;1.974289
4227.000000;1.988199
4226.000000;1.998279
4225.000000;2.003729
4224.000000;2.005789
4223.000000;2.006597
4222.000000;2.008908
4221.000000;2.014957
4220.000000;2.024311
4219.000000;2.033823
4218.000000;2.041095
4217.000000;2.047541
4216.000000;2.056663
4215.000000;2.069446
4214.000000;2.082258
4213.000000;2.089988
4212.000000;2.091679
4211.000000;2.092170
4210.000000;2.097436
4209.000000;2.109063
4208.000000;2.123186
4207.000000;2.134097
4206.000000;2.138915
4205.000000;2.139327
4204.000000;2.140005
4203.000000;2.145533
4202.000000;2.156813
4201.000000;2.169171
4200.000000;2.175880
4199.000000;2.175587
4198.000000;2.173934
4197.000000;2.176517
4196.000000;2.183271
4195.000000;2.190653
4194.000000;2.197002
4193.000000;2.203737
4192.000000;2.212809
4191.000000;2.225706
4190.000000;2.243739
4189.000000;2.266434
4188.000000;2.289557
4187.000000;2.306784
4186.000000;2.314138
4185.000000;2.312254
4184.000000;2.305674
4183.000000;2.301240
4182.000000;2.304664
4181.000000;2.316153
4180.000000;2.330123
4179.000000;2.340847
4178.000000;2.348175
4177.000000;2.355699
4176.000000;2.364771
4175.000000;2.374549
4174.000000;2.384989
4173.000000;2.394609
4172.000000;2.399125
4171.000000;2.397898
4170.000000;2.397752
4169.000000;2.405159
4168.000000;2.417923
4167.000000;2.428718
4166.000000;2.434936
4165.000000;2.438887
4164.000000;2.441574
4163.000000;2.444790
4162.000000;2.455656
4161.000000;2.479461
4160.000000;2.507199
4159.000000;2.518719
4158.000000;2.506426
4157.000000;2.484949
4156.000000;2.471038
4155.000000;2.469609
4154.000000;2.478643
4153.000000;2.494660
4152.000000;2.510402
4151.000000;2.515932
4150.000000;2.509705
4149.000000;2.503752
4148.000000;2.512659
4147.000000;2.542584
4146.000000;2.589092
4145.000000;2.637738
4144.000000;2.667087
4143.000000;2.664702
4142.000000;2.640884
4141.000000;2.616454
4140.000000;2.606867
4139.000000;2.614551
4138.000000;2.628360
4137.000000;2.632791
4136.000000;2.624735
4135.000000;2.620128
4134.000000;2.639408
4133.000000;2.686316
4132.000000;2.734036
4131.000000;2.745973
4130.000000;2.728701
4129.000000;2.717753
4128.000000;2.722912
4127.000000;2.725512
4126.000000;2.716281
4125.000000;2.713053
4124.000000;2.730161
4123.000000;2.752125
4122.000000;2.751227
4121.000000;2.728766
4120.000000;2.705982
4119.000000;2.689617
4118.000000;2.673346
4117.000000;2.659881
4116.000000;2.662137
4115.000000;2.679672
4114.000000;2.689240
4113.000000;2.672157
4112.000000;2.643499
4111.000000;2.632794
4110.000000;2.652663
4109.000000;2.689083
4108.000000;2.713488
4107.000000;2.715524
4106.000000;2.716733
4105.000000;2.741409
4104.000000;2.788085
4103.000000;2.826490
4102.000000;2.827260
4101.000000;2.797696
4100.000000;2.772274
4099.000000;2.775981
4098.000000;2.806488
4097.000000;2.841915
4096.000000;2.861687
4095.000000;2.863853
4094.000000;2.858239
4093.000000;2.849968
4092.000000;2.839234
4091.000000;2.836979
4090.000000;2.859366
4089.000000;2.899772
4088.000000;2.933138
4087.000000;2.939567
4086.000000;2.910931
4085.000000;2.872295
4084.000000;2.852217
4083.000000;2.852987
4082.000000;2.864755
4081.000000;2.877832
4080.000000;2.884563
4079.000000;2.882182
4078.000000;2.875436
4077.000000;2.871199
4076.000000;2.871900
4075.000000;2.872862
4074.000000;2.867721
4073.000000;2.860301
4072.000000;2.865155
4071.000000;2.893319
4070.000000;2.938161
4069.000000;2.971764
4068.000000;2.963901
4067.000000;2.916136
4066.000000;2.871883
4065.000000;2.871933
4064.000000;2.927972
4063.000000;3.024915
4062.000000;3.116829
4061.000000;3.146695
4060.000000;3.121575
4059.000000;3.097598
4058.000000;3.090934
4057.000000;3.081562
4056.000000;3.059584
4055.000000;3.027483
4054.000000;3.002044
4053.000000;2.993692
4052.000000;2.988582
4051.000000;2.976540
4050.000000;2.968848
4049.000000;2.971585
4048.000000;2.968399
4047.000000;2.943548
4046.000000;2.907227
4045.000000;2.887486
4044.000000;2.892657
4043.000000;2.891001
4042.000000;2.856956
4041.000000;2.815494
4040.000000;2.789559
4039.000000;2.783476
4038.000000;2.800374
4037.000000;2.836928
4036.000000;2.883466
4035.000000;2.936325
4034.000000;2.987666
4033.000000;3.012780
4032.000000;2.998179
4031.000000;2.960537
4030.000000;2.926140
4029.000000;2.909736
4028.000000;2.909860
4027.000000;2.929969
4026.000000;2.968553
4025.000000;2.987340
4024.000000;2.988019
4023.000000;3.006038
4022.000000;3.010703
4021.000000;2.997792
4020.000000;2.996024
4019.000000;2.999251
4018.000000;3.000946
4017.000000;3.002774
4016.000000;2.999167
4015.000000;2.980832
4014.000000;2.947761
4013.000000;2.914616
4012.000000;2.896294
4011.000000;2.893343
4010.000000;2.899767
4009.000000;2.916144
4008.000000;2.947275
4007.000000;2.996958
4006.000000;3.071159
4005.000000;3.173432
4004.000000;3.277309
4003.000000;3.313435
4002.000000;3.250681
4001.000000;3.136698
4000.000000;3.021737
3999.000000;2.933902
3998.000000;2.890743
3997.000000;2.910096
3996.000000;2.998993
3995.000000;3.119569
3994.000000;3.194697
3993.000000;3.230100
3992.000000;3.267497
3991.000000;3.290948
3990.000000;3.267923
3989.000000;3.189686
3988.000000;3.092808
3987.000000;3.025123
3986.000000;3.015262
3985.000000;3.065975
3984.000000;3.140787
3983.000000;3.160756
3982.000000;3.128112
3981.000000;3.114570
3980.000000;3.114768
3979.000000;3.039315
3978.000000;2.925220
3977.000000;2.859896
3976.000000;2.846102
3975.000000;2.860277
3974.000000;2.880509
3973.000000;2.899896
3972.000000;2.907005
3971.000000;2.869560
3970.000000;2.813993
3969.000000;2.795208
3968.000000;2.820037
3967.000000;2.861364
3966.000000;2.891882
3965.000000;2.916408
3964.000000;2.957738
3963.000000;3.007822
3962.000000;3.020342
3961.000000;2.985617
3960.000000;2.940900
3959.000000;2.918719
3958.000000;2.927063
3957.000000;2.951500
3956.000000;2.953225
3955.000000;2.893193
3954.000000;2.833612
3953.000000;2.838318
3952.000000;2.909117
3951.000000;3.008289
3950.000000;3.079132
3949.000000;3.067689
3948.000000;2.986742
3947.000000;2.935831
3946.000000;2.970992
3945.000000;3.065868
3944.000000;3.125590
3943.000000;3.105853
3942.000000;3.047012
3941.000000;3.001839
3940.000000;3.006032
3939.000000;3.046477
3938.000000;3.075482
3937.000000;3.030347
3936.000000;2.929877
3935.000000;2.848589
3934.000000;2.815738
3933.000000;2.829494
3932.000000;2.881475
3931.000000;2.953322
3930.000000;3.011261
3929.000000;3.026157
3928.000000;3.013861
3927.000000;3.024139
3926.000000;3.090935
3925.000000;3.214267
3924.000000;3.353835
3923.000000;3.332917
3922.000000;3.168599
3921.000000;3.072562
3920.000000;3.033999
3919.000000;3.003688
3918.000000;2.944533
3917.000000;2.880958
3916.000000;2.844798
3915.000000;2.852584
3914.000000;2.909710
3913.000000;2.996521
3912.000000;3.068282
3911.000000;3.112043
3910.000000;3.182628
3909.000000;3.259204
3908.000000;3.276576
3907.000000;3.305315
3906.000000;3.365987
3905.000000;3.392630
3904.000000;3.325755
3903.000000;3.216526
3902.000000;3.155837
3901.000000;3.125251
3900.000000;3.045824
3899.000000;2.922126
3898.000000;2.839597
3897.000000;2.844087
3896.000000;2.901780
3895.000000;2.932535
3894.000000;2.904063
3893.000000;2.855528
3892.000000;2.815851
3891.000000;2.798587
3890.000000;2.831561
3889.000000;2.929398
3888.000000;3.031064
3887.000000;3.024766
3886.000000;2.936244
3885.000000;2.886316
3884.000000;2.915375
3883.000000;2.950137
3882.000000;2.949548
3881.000000;2.928196
3880.000000;2.947642
3879.000000;3.065081
3878.000000;3.210761
3877.000000;3.237412
3876.000000;3.143405
3875.000000;2.998149
3874.000000;2.875871
3873.000000;2.839362
3872.000000;2.880921
3871.000000;2.921617
3870.000000;2.926685
3869.000000;2.971034
3868.000000;3.110932
3867.000000;3.231470
3866.000000;3.271543
3865.000000;3.297113
3864.000000;3.450479
3863.000000;3.651835
3862.000000;3.510032
3861.000000;3.412054
3860.000000;3.389258
3859.000000;3.300928
3858.000000;3.181991
3857.000000;3.134163
3856.000000;3.123747
3855.000000;3.086158
3854.000000;3.031650
3853.000000;3.072889
3852.000000;3.315321
3851.000000;3.412784
3850.000000;3.244072
3849.000000;3.096505
3848.000000;2.994965
3847.000000;2.954539
3846.000000;2.992712
3845.000000;3.126366
3844.000000;3.354647
3843.000000;3.537913
3842.000000;3.590521
3841.000000;3.631917
3840.000000;3.856604
3839.000000;3.663791
3838.000000;3.217841
3837.000000;3.070930
3836.000000;3.121420
3835.000000;3.600978
3834.000000;3.640636
3833.000000;3.213953
3832.000000;3.178508
3831.000000;3.287902
3830.000000;3.304191
3829.000000;3.262843
3828.000000;3.353234
3827.000000;3.338795
3826.000000;3.270160
3825.000000;3.266979
3824.000000;3.339067
3823.000000;3.490845
3822.000000;3.611717
3821.000000;3.517033
3820.000000;3.648506
3819.000000;4.092008
3818.000000;3.698584
3817.000000;3.656436
3816.000000;3.820493
3815.000000;3.629975
3814.000000;3.364082
3813.000000;3.449864
3812.000000;3.436102
3811.000000;3.293414
3810.000000;3.188483
3809.000000;3.280752
3808.000000;3.481774
3807.000000;3.210320
3806.000000;3.034622
3805.000000;3.165270
3804.000000;3.346676
3803.000000;3.364232
3802.000000;3.253587
3801.000000;3.169063
3800.000000;3.420994
3799.000000;3.580596
3798.000000;3.333676
3797.000000;3.296446
3796.000000;3.351071
3795.000000;3.302990
3794.000000;3.176206
3793.000000;3.036738
3792.000000;2.924496
3791.000000;2.866466
3790.000000;2.893998
3789.000000;3.055910
3788.000000;3.442272
3787.000000;3.875547
3786.000000;3.791312
3785.000000;3.707804
3784.000000;3.377473
3783.000000;3.170222
3782.000000;3.056120
3781.000000;3.033895
3780.000000;3.121699
3779.000000;3.498423
3778.000000;3.124154
3777.000000;2.824077
3776.000000;2.842448
3775.000000;3.010984
3774.000000;3.328750
3773.000000;3.670087
3772.000000;3.818549
3771.000000;3.442057
3770.000000;3.199254
3769.000000;3.135119
3768.000000;3.167096
3767.000000;3.163207
3766.000000;3.151999
3765.000000;3.137651
3764.000000;3.082691
3763.000000;3.089162
3762.000000;3.115892
3761.000000;3.049274
3760.000000;2.957533
3759.000000;2.902274
3758.000000;2.880835
3757.000000;2.847945
3756.000000;2.796031
3755.000000;2.762571
3754.000000;2.740116
3753.000000;2.718326
3752.000000;2.739917
3751.000000;2.839746
3750.000000;2.942998
3749.000000;2.948310
3748.000000;2.959202
3747.000000;3.058020
3746.000000;3.178307
3745.000000;3.202495
3744.000000;3.144242
3743.000000;3.091002
3742.000000;2.901913
3741.000000;2.912355
3740.000000;2.952935
3739.000000;2.966677
3738.000000;2.962203
3737.000000;3.009127
3736.000000;3.174648
3735.000000;3.519716
3734.000000;3.701771
3733.000000;3.507114
3732.000000;3.234920
3731.000000;3.008476
3730.000000;2.890873
3729.000000;2.859148
3728.000000;2.843795
3727.000000;2.807470
3726.000000;2.774713
3725.000000;2.772427
3724.000000;2.793677
3723.000000;2.833061
3722.000000;2.900957
3721.000000;2.935947
3720.000000;2.845866
3719.000000;2.743112
3718.000000;2.684165
3717.000000;2.624145
3716.000000;2.551877
3715.000000;2.510529
3714.000000;2.512574
3713.000000;2.558621
3712.000000;2.672301
3711.000000;2.868742
3710.000000;3.104301
3709.000000;3.145993
3708.000000;2.944594
3707.000000;2.786692
3706.000000;2.734073
3705.000000;2.793730
3704.000000;3.072855
3703.000000;3.226354
3702.000000;2.821167
3701.000000;2.679469
3700.000000;2.693934
3699.000000;2.820764
3698.000000;2.891612
3697.000000;2.853540
3696.000000;2.881451
3695.000000;3.051524
3694.000000;3.123737
3693.000000;3.077403
3692.000000;3.044716
3691.000000;2.978461
3690.000000;2.917081
3689.000000;2.923974
3688.000000;3.097205
3687.000000;3.016686
3686.000000;2.848879
3685.000000;2.899958
3684.000000;3.068494
3683.000000;3.192694
3682.000000;3.103626
3681.000000;3.091655
3680.000000;3.083051
3679.000000;2.929624
3678.000000;2.785863
3677.000000;2.684239
3676.000000;2.599541
3675.000000;2.587270
3674.000000;2.692709
3673.000000;2.826173
3672.000000;2.922215
3671.000000;2.921299
3670.000000;2.803375
3669.000000;2.660156
3668.000000;2.610514
3667.000000;2.656656
3666.000000;2.753498
3665.000000;2.922443
3664.000000;3.274441
3663.000000;2.898523
3662.000000;2.574065
3661.000000;2.389365
3660.000000;2.274701
3659.000000;2.249800
3658.000000;2.309515
3657.000000;2.449685
3656.000000;2.673435
3655.000000;2.880916
3654.000000;3.050521
3653.000000;3.510165
3652.000000;3.536489
3651.000000;3.150243
3650.000000;3.107206
3649.000000;3.173913
3648.000000;3.525654
3647.000000;3.283850
3646.000000;2.830233
3645.000000;2.684612
3644.000000;2.655871
3643.000000;2.657432
3642.000000;2.621899
3641.000000;2.602923
3640.000000;2.697557
3639.000000;2.902964
3638.000000;3.238809
3637.000000;2.994746
3636.000000;2.664131
3635.000000;2.593144
3634.000000;2.720768
3633.000000;2.750323
3632.000000;2.642556
3631.000000;2.662715
3630.000000;2.698676
3629.000000;2.613793
3628.000000;2.427517
3627.000000;2.309818
3626.000000;2.330653
3625.000000;2.442122
3624.000000;2.654641
3623.000000;3.170524
3622.000000;3.156192
3621.000000;2.705547
3620.000000;2.589507
3619.000000;2.658684
3618.000000;3.078811
3617.000000;2.802831
3616.000000;2.598947
3615.000000;2.691472
3614.000000;2.803659
3613.000000;2.732922
3612.000000;2.557159
3611.000000;2.489474
3610.000000;2.507466
3609.000000;2.507987
3608.000000;2.444774
3607.000000;2.412633
3606.000000;2.481811
3605.000000;2.612212
3604.000000;2.704808
3603.000000;2.725646
3602.000000;2.702542
3601.000000;2.585175
3600.000000;2.442996
3599.000000;2.396762
3598.000000;2.465664
3597.000000;2.727532
3596.000000;3.024532
3595.000000;2.787609
3594.000000;2.857608
3593.000000;3.307081
3592.000000;3.205373
3591.000000;3.163587
3590.000000;3.292142
3589.000000;2.817305
3588.000000;2.486209
3587.000000;2.330329
3586.000000;2.318917
3585.000000;2.401756
3584.000000;2.460682
3583.000000;2.422385
3582.000000;2.392637
3581.000000;2.537808
3580.000000;2.517658
3579.000000;2.219366
3578.000000;2.100214
3577.000000;2.125353
3576.000000;2.261033
3575.000000;2.523401
3574.000000;2.793744
3573.000000;2.514984
3572.000000;2.343933
3571.000000;2.337990
3570.000000;2.421796
3569.000000;2.611501
3568.000000;2.851436
3567.000000;2.661992
3566.000000;2.528864
3565.000000;2.600804
3564.000000;2.923502
3563.000000;3.172522
3562.000000;2.782988
3561.000000;2.634699
3560.000000;2.620188
3559.000000;2.653673
3558.000000;2.683263
3557.000000;2.595251
3556.000000;2.520047
3555.000000;2.558951
3554.000000;2.751133
3553.000000;2.786601
3552.000000;2.634682
3551.000000;2.673942
3550.000000;3.042220
3549.000000;3.100881
3548.000000;2.709184
3547.000000;2.748284
3546.000000;2.778550
3545.000000;2.557834
3544.000000;2.535609
3543.000000;2.609839
3542.000000;2.551864
3541.000000;2.438745
3540.000000;2.400058
3539.000000;2.561228
3538.000000;2.857997
3537.000000;2.501017
3536.000000;2.292584
3535.000000;2.344856
3534.000000;2.381788
3533.000000;2.293583
3532.000000;2.290800
3531.000000;2.419983
3530.000000;2.605004
3529.000000;2.803530
3528.000000;2.685673
3527.000000;2.452423
3526.000000;2.343907
3525.000000;2.340614
3524.000000;2.379262
3523.000000;2.387071
3522.000000;2.410477
3521.000000;2.379916
3520.000000;2.297640
3519.000000;2.288336
3518.000000;2.246252
3517.000000;2.181578
3516.000000;2.211719
3515.000000;2.316916
3514.000000;2.407951
3513.000000;2.412270
3512.000000;2.347760
3511.000000;2.272441
3510.000000;2.229377
3509.000000;2.225702
3508.000000;2.254266
3507.000000;2.297996
3506.000000;2.321609
3505.000000;2.303647
3504.000000;2.260540
3503.000000;2.233724
3502.000000;2.229550
3501.000000;2.198221
3500.000000;2.169901
3499.000000;2.214165
3498.000000;2.301431
3497.000000;2.350437
3496.000000;2.357788
3495.000000;2.343983
3494.000000;2.360790
3493.000000;2.404567
3492.000000;2.466848
3491.000000;2.640580
3490.000000;2.698986
3489.000000;2.493621
3488.000000;2.422894
3487.000000;2.437992
3486.000000;2.493674
3485.000000;2.490224
3484.000000;2.447506
3483.000000;2.525283
3482.000000;2.763414
3481.000000;3.054345
3480.000000;2.881829
3479.000000;2.578814
3478.000000;2.402900
3477.000000;2.300930
3476.000000;2.250944
3475.000000;2.256892
3474.000000;2.323414
3473.000000;2.433938
3472.000000;2.483802
3471.000000;2.455203
3470.000000;2.498248
3469.000000;2.650773
3468.000000;2.796690
3467.000000;2.717523
3466.000000;2.558262
3465.000000;2.480561
3464.000000;2.492246
3463.000000;2.586677
3462.000000;2.689577
3461.000000;2.811674
3460.000000;2.900922
3459.000000;2.775335
3458.000000;2.771905
3457.000000;2.843830
3456.000000;2.811358
3455.000000;2.718484
3454.000000;2.614479
3453.000000;2.544683
3452.000000;2.548751
3451.000000;2.642459
3450.000000;2.689867
3449.000000;2.619264
3448.000000;2.580075
3447.000000;2.624088
3446.000000;2.786936
3445.000000;3.161511
3444.000000;3.386512
3443.000000;3.539803
3442.000000;3.466961
3441.000000;2.937338
3440.000000;2.737383
3439.000000;2.665618
3438.000000;2.742184
3437.000000;3.016231
3436.000000;2.896428
3435.000000;2.641448
3434.000000;2.740797
3433.000000;3.116469
3432.000000;2.860415
3431.000000;2.634341
3430.000000;3.128719
3429.000000;3.123698
3428.000000;2.599810
3427.000000;2.582596
3426.000000;2.822312
3425.000000;3.095702
3424.000000;2.639398
3423.000000;2.436017
3422.000000;2.449222
3421.000000;2.649178
3420.000000;3.267091
3419.000000;3.398973
3418.000000;2.832997
3417.000000;2.505746
3416.000000;2.362627
3415.000000;2.352906
3414.000000;2.446391
3413.000000;2.638434
3412.000000;2.778081
3411.000000;2.709119
3410.000000;2.641094
3409.000000;2.587395
3408.000000;2.575549
3407.000000;2.595770
3406.000000;2.713371
3405.000000;3.177584
3404.000000;2.971459
3403.000000;2.677197
3402.000000;2.832613
3401.000000;3.140826
3400.000000;2.980656
3399.000000;2.825494
3398.000000;2.935322
3397.000000;3.289692
3396.000000;3.077529
3395.000000;2.853376
3394.000000;2.797732
3393.000000;2.736288
3392.000000;2.678489
3391.000000;2.667682
3390.000000;2.712481
3389.000000;2.801208
3388.000000;2.834245
3387.000000;2.666624
3386.000000;2.493489
3385.000000;2.441922
3384.000000;2.519298
3383.000000;2.795802
3382.000000;3.363996
3381.000000;3.076658
3380.000000;2.794442
3379.000000;2.696917
3378.000000;2.607277
3377.000000;2.524405
3376.000000;2.504161
3375.000000;2.544674
3374.000000;2.550893
3373.000000;2.475521
3372.000000;2.409242
3371.000000;2.436661
3370.000000;2.588304
3369.000000;2.781442
3368.000000;2.787004
3367.000000;2.666018
3366.000000;2.596282
3365.000000;2.636113
3364.000000;2.725485
3363.000000;2.673753
3362.000000;2.544652
3361.000000;2.475170
3360.000000;2.473941
3359.000000;2.467514
3358.000000;2.394129
3357.000000;2.323665
3356.000000;2.299748
3355.000000;2.309784
3354.000000;2.340065
3353.000000;2.396280
3352.000000;2.487203
3351.000000;2.592747
3350.000000;2.636344
3349.000000;2.616941
3348.000000;2.652685
3347.000000;2.752528
3346.000000;2.843830
3345.000000;2.816845
3344.000000;2.648635
3343.000000;2.528684
3342.000000;2.504637
3341.000000;2.578123
3340.000000;2.780277
3339.000000;3.147274
3338.000000;3.320458
3337.000000;2.913368
3336.000000;2.731443
3335.000000;2.745342
3334.000000;2.988427
3333.000000;3.344646
3332.000000;3.176939
3331.000000;3.330069
3330.000000;3.020660
3329.000000;2.740842
3328.000000;2.669923
3327.000000;2.640338
3326.000000;2.613100
3325.000000;2.607028
3324.000000;2.666974
3323.000000;2.799361
3322.000000;2.870991
3321.000000;2.812850
3320.000000;2.762656
3319.000000;2.748679
3318.000000;2.771177
3317.000000;2.829173
3316.000000;2.790474
3315.000000;2.634260
3314.000000;2.519471
3313.000000;2.499204
3312.000000;2.601304
3311.000000;2.915442
3310.000000;3.028635
3309.000000;2.739277
3308.000000;2.630383
3307.000000;2.598578
3306.000000;2.583247
3305.000000;2.571446
3304.000000;2.579639
3303.000000;2.641106
3302.000000;2.774803
3301.000000;2.914923
3300.000000;2.896168
3299.000000;2.767630
3298.000000;2.673747
3297.000000;2.658934
3296.000000;2.747189
3295.000000;3.047121
3294.000000;2.958494
3293.000000;2.612570
3292.000000;2.457581
3291.000000;2.397620
3290.000000;2.406254
3289.000000;2.442030
3288.000000;2.451357
3287.000000;2.405319
3286.000000;2.380966
3285.000000;2.449551
3284.000000;2.623326
3283.000000;2.852988
3282.000000;2.797830
3281.000000;2.650983
3280.000000;2.662417
3279.000000;2.756814
3278.000000;2.965548
3277.000000;3.367896
3276.000000;3.047722
3275.000000;2.955051
3274.000000;3.186520
3273.000000;3.203270
3272.000000;3.076864
3271.000000;2.986002
3270.000000;2.917895
3269.000000;3.369308
3268.000000;3.236782
3267.000000;2.839127
3266.000000;2.900335
3265.000000;3.123454
3264.000000;3.224818
3263.000000;2.874241
3262.000000;2.701002
3261.000000;2.737773
3260.000000;3.009066
3259.000000;3.339408
3258.000000;2.951174
3257.000000;2.779014
3256.000000;2.702366
3255.000000;2.597878
3254.000000;2.522973
3253.000000;2.533468
3252.000000;2.686696
3251.000000;2.851676
3250.000000;2.755545
3249.000000;2.732175
3248.000000;3.065667
3247.000000;3.530159
3246.000000;2.881510
3245.000000;2.724880
3244.000000;2.693229
3243.000000;2.735963
3242.000000;2.821815
3241.000000;2.849275
3240.000000;2.762402
3239.000000;2.695669
3238.000000;2.755032
3237.000000;3.024523
3236.000000;3.291669
3235.000000;2.889691
3234.000000;2.659955
3233.000000;2.578972
3232.000000;2.545926
3231.000000;2.539056
3230.000000;2.567307
3229.000000;2.658968
3228.000000;2.809180
3227.000000;2.968594
3226.000000;3.051450
3225.000000;3.139068
3224.000000;3.317185
3223.000000;3.126675
3222.000000;3.028052
3221.000000;3.047238
3220.000000;2.903070
3219.000000;2.836947
3218.000000;2.910144
3217.000000;2.977062
3216.000000;2.876210
3215.000000;2.709622
3214.000000;2.601414
3213.000000;2.579575
3212.000000;2.649324
3211.000000;2.801455
3210.000000;2.976311
3209.000000;2.955149
3208.000000;2.750268
3207.000000;2.583915
3206.000000;2.496586
3205.000000;2.474333
3204.000000;2.498798
3203.000000;2.538507
3202.000000;2.554036
3201.000000;2.547226
3200.000000;2.535221
3199.000000;2.499137
3198.000000;2.458086
3197.000000;2.460665
3196.000000;2.509703
3195.000000;2.588167
3194.000000;2.719811
3193.000000;2.934347
3192.000000;3.049484
3191.000000;2.883466
3190.000000;2.673881
3189.000000;2.527590
3188.000000;2.481504
3187.000000;2.565846
3186.000000;2.828525
3185.000000;2.998304
3184.000000;2.948513
3183.000000;2.991703
3182.000000;2.848874
3181.000000;2.673462
3180.000000;2.571721
3179.000000;2.507043
3178.000000;2.485923
3177.000000;2.499715
3176.000000;2.523980
3175.000000;2.552652
3174.000000;2.570063
3173.000000;2.537380
3172.000000;2.496917
3171.000000;2.509185
3170.000000;2.574377
3169.000000;2.625657
3168.000000;2.615720
3167.000000;2.588296
3166.000000;2.564346
3165.000000;2.570898
3164.000000;2.614531
3163.000000;2.620647
3162.000000;2.626144
3161.000000;2.711023
3160.000000;2.754840
3159.000000;2.768645
3158.000000;2.823596
3157.000000;2.763804
3156.000000;2.684201
3155.000000;2.703212
3154.000000;2.768483
3153.000000;2.706363
3152.000000;2.592481
3151.000000;2.563244
3150.000000;2.617920
3149.000000;2.722124
3148.000000;2.834013
3147.000000;2.940458
3146.000000;3.114245
3145.000000;3.406031
3144.000000;3.288595
3143.000000;3.032805
3142.000000;2.895406
3141.000000;2.760831
3140.000000;2.652792
3139.000000;2.618440
3138.000000;2.654140
3137.000000;2.699774
3136.000000;2.715881
3135.000000;2.730675
3134.000000;2.720218
3133.000000;2.711960
3132.000000;2.789234
3131.000000;2.992266
3130.000000;3.105291
3129.000000;3.177438
3128.000000;3.676813
3127.000000;3.483357
3126.000000;3.226157
3125.000000;3.083462
3124.000000;2.851467
3123.000000;2.867045
3122.000000;3.388175
3121.000000;2.998941
3120.000000;2.702133
3119.000000;2.651377
3118.000000;2.616307
3117.000000;2.590796
3116.000000;2.698794
3115.000000;3.131259
3114.000000;3.028508
3113.000000;2.650869
3112.000000;2.596824
3111.000000;2.651361
3110.000000;2.824603
3109.000000;3.125932
3108.000000;3.139295
3107.000000;2.905746
3106.000000;2.822677
3105.000000;2.950685
3104.000000;3.153634
3103.000000;3.449169
3102.000000;3.331210
3101.000000;2.843010
3100.000000;2.651784
3099.000000;2.627551
3098.000000;2.701685
3097.000000;2.851968
3096.000000;3.005087
3095.000000;3.051573
3094.000000;2.998221
3093.000000;2.940247
3092.000000;2.898011
3091.000000;2.892250
3090.000000;2.865730
3089.000000;2.763871
3088.000000;2.713753
3087.000000;2.776688
3086.000000;2.972335
3085.000000;3.197828
3084.000000;3.126238
3083.000000;3.009039
3082.000000;2.963611
3081.000000;2.984273
3080.000000;2.986345
3079.000000;2.854797
3078.000000;2.688490
3077.000000;2.547601
3076.000000;2.494307
3075.000000;2.572209
3074.000000;2.766450
3073.000000;2.879400
3072.000000;2.785902
3071.000000;2.771027
3070.000000;3.064873
3069.000000;3.347682
3068.000000;3.017029
3067.000000;2.966158
3066.000000;2.817822
3065.000000;2.652457
3064.000000;2.626016
3063.000000;2.687622
3062.000000;2.735969
3061.000000;2.730007
3060.000000;2.737613
3059.000000;2.782736
3058.000000;2.885977
3057.000000;3.186798
3056.000000;3.574892
3055.000000;3.228579
3054.000000;3.063990
3053.000000;3.070111
3052.000000;3.274999
3051.000000;3.340596
3050.000000;3.049921
3049.000000;2.979160
3048.000000;3.068530
3047.000000;3.074176
3046.000000;2.904856
3045.000000;2.729747
3044.000000;2.635560
3043.000000;2.626018
3042.000000;2.657958
3041.000000;2.673237
3040.000000;2.665103
3039.000000;2.656179
3038.000000;2.656474
3037.000000;2.671165
3036.000000;2.694524
3035.000000;2.698743
3034.000000;2.660167
3033.000000;2.597523
3032.000000;2.562268
3031.000000;2.587864
3030.000000;2.688940
3029.000000;2.798803
3028.000000;2.742872
3027.000000;2.645733
3026.000000;2.678855
3025.000000;2.875897
3024.000000;2.998439
3023.000000;2.804687
3022.000000;2.619839
3021.000000;2.523700
3020.000000;2.518610
3019.000000;2.546774
3018.000000;2.523424
3017.000000;2.472965
3016.000000;2.477125
3015.000000;2.577777
3014.000000;2.865416
3013.000000;3.483486
3012.000000;3.324268
3011.000000;3.087703
3010.000000;2.913525
3009.000000;2.862996
3008.000000;2.989554
3007.000000;3.305729
3006.000000;3.713630
3005.000000;3.663535
3004.000000;3.694616
3003.000000;3.453796
3002.000000;3.372870
3001.000000;3.226021
3000.000000;2.860956
2999.000000;2.645274
2998.000000;2.626126
2997.000000;2.714736
2996.000000;2.821272
2995.000000;3.248361
2994.000000;3.065026
2993.000000;2.708415
2992.000000;2.669757
2991.000000;2.674417
2990.000000;2.629706
2989.000000;2.572288
2988.000000;2.544686
2987.000000;2.564447
2986.000000;2.630671
2985.000000;2.727447
2984.000000;2.914213
2983.000000;3.303640
2982.000000;3.151394
2981.000000;2.806653
2980.000000;2.730683
2979.000000;2.857475
2978.000000;3.274668
2977.000000;3.413545
2976.000000;3.002500
2975.000000;2.859238
2974.000000;2.873513
2973.000000;3.018305
2972.000000;3.032520
2971.000000;2.863234
2970.000000;2.697276
2969.000000;2.621183
2968.000000;2.641497
2967.000000;2.793216
2966.000000;3.060468
2965.000000;3.217537
2964.000000;3.885776
2963.000000;3.140118
2962.000000;2.763356
2961.000000;2.705639
2960.000000;2.757723
2959.000000;2.811791
2958.000000;2.754062
2957.000000;2.691595
2956.000000;2.653590
2955.000000;2.598715
2954.000000;2.522369
2953.000000;2.467375
2952.000000;2.477208
2951.000000;2.576111
2950.000000;2.783538
2949.000000;3.005384
2948.000000;2.958523
2947.000000;2.803948
2946.000000;2.702683
2945.000000;2.654204
2944.000000;2.623854
2943.000000;2.563058
2942.000000;2.476158
2941.000000;2.399539
2940.000000;2.361297
2939.000000;2.377556
2938.000000;2.451115
2937.000000;2.560813
2936.000000;2.647010
2935.000000;2.655848
2934.000000;2.605368
2933.000000;2.540495
2932.000000;2.515833
2931.000000;2.574013
2930.000000;2.723158
2929.000000;2.852865
2928.000000;2.791196
2927.000000;2.735835
2926.000000;2.832543
2925.000000;3.026077
2924.000000;3.225899
2923.000000;3.255581
2922.000000;3.055168
2921.000000;3.005795
2920.000000;3.060477
2919.000000;2.973860
2918.000000;2.864613
2917.000000;2.853644
2916.000000;2.950042
2915.000000;3.142562
2914.000000;3.027561
2913.000000;2.833646
2912.000000;2.820849
2911.000000;2.971140
2910.000000;3.206926
2909.000000;3.148930
2908.000000;3.022322
2907.000000;3.024618
2906.000000;3.053397
2905.000000;2.937618
2904.000000;2.757216
2903.000000;2.679767
2902.000000;2.754672
2901.000000;2.994253
2900.000000;3.332699
2899.000000;3.260150
2898.000000;2.924459
2897.000000;2.721618
2896.000000;2.623377
2895.000000;2.613372
2894.000000;2.652338
2893.000000;2.628509
2892.000000;2.559258
2891.000000;2.535161
2890.000000;2.560050
2889.000000;2.609669
2888.000000;2.663100
2887.000000;2.703936
2886.000000;2.723010
2885.000000;2.721247
2884.000000;2.711279
2883.000000;2.729958
2882.000000;2.862261
2881.000000;3.009975
2880.000000;2.973551
2879.000000;3.016334
2878.000000;3.209842
2877.000000;3.387075
2876.000000;3.194426
2875.000000;3.044195
2874.000000;3.152865
2873.000000;3.297893
2872.000000;3.433151
2871.000000;3.512488
2870.000000;3.093396
2869.000000;2.936691
2868.000000;2.983213
2867.000000;2.969624
2866.000000;2.898209
2865.000000;3.020851
2864.000000;3.204042
2863.000000;3.359009
2862.000000;3.509516
2861.000000;2.978268
2860.000000;2.722163
2859.000000;2.622898
2858.000000;2.525974
2857.000000;2.459450
2856.000000;2.436616
2855.000000;2.443951
2854.000000;2.482423
2853.000000;2.520361
2852.000000;2.507750
2851.000000;2.497251
2850.000000;2.533387
2849.000000;2.553326
2848.000000;2.480937
2847.000000;2.395534
2846.000000;2.372790
2845.000000;2.413831
2844.000000;2.507148
2843.000000;2.627790
2842.000000;2.694943
2841.000000;2.663721
2840.000000;2.615819
2839.000000;2.621966
2838.000000;2.725205
2837.000000;2.933767
2836.000000;3.173205
2835.000000;3.176871
2834.000000;3.266177
2833.000000;3.566815
2832.000000;3.075953
2831.000000;2.889985
2830.000000;3.081018
2829.000000;3.114537
2828.000000;3.105940
2827.000000;3.650431
2826.000000;3.167541
2825.000000;2.876481
2824.000000;2.903666
2823.000000;2.967565
2822.000000;2.880940
2821.000000;2.773502
2820.000000;2.719544
2819.000000;2.814075
2818.000000;2.926102
2817.000000;2.689788
2816.000000;2.563797
2815.000000;2.585022
2814.000000;2.635185
2813.000000;2.634837
2812.000000;2.559198
2811.000000;2.483237
2810.000000;2.475891
2809.000000;2.557824
2808.000000;2.698786
2807.000000;2.804817
2806.000000;2.735254
2805.000000;2.641148
2804.000000;2.662369
2803.000000;2.887988
2802.000000;3.321035
2801.000000;3.059611
2800.000000;2.823763
2799.000000;2.720396
2798.000000;2.682977
2797.000000;2.724254
2796.000000;2.758489
2795.000000;2.769861
2794.000000;2.807461
2793.000000;2.817543
2792.000000;2.738093
2791.000000;2.647351
2790.000000;2.608912
2789.000000;2.651264
2788.000000;2.707563
2787.000000;2.672031
2786.000000;2.595089
2785.000000;2.547618
2784.000000;2.550985
2783.000000;2.576874
2782.000000;2.550060
2781.000000;2.476599
2780.000000;2.426568
2779.000000;2.441749
2778.000000;2.541546
2777.000000;2.725287
2776.000000;2.927595
2775.000000;2.980237
2774.000000;2.893879
2773.000000;2.833477
2772.000000;2.862570
2771.000000;3.003553
2770.000000;3.169937
2769.000000;3.126210
2768.000000;2.999147
2767.000000;2.964648
2766.000000;3.038637
2765.000000;2.993305
2764.000000;2.842980
2763.000000;2.789227
2762.000000;2.787156
2761.000000;2.812887
2760.000000;2.835187
2759.000000;2.831283
2758.000000;2.844395
2757.000000;2.807808
2756.000000;2.769604
2755.000000;2.837212
2754.000000;2.936818
2753.000000;2.976691
2752.000000;2.936692
2751.000000;2.797613
2750.000000;2.663157
2749.000000;2.585093
2748.000000;2.571350
2747.000000;2.641894
2746.000000;2.792073
2745.000000;2.939830
2744.000000;2.893485
2743.000000;2.697317
2742.000000;2.583895
2741.000000;2.612866
2740.000000;2.757805
2739.000000;2.938522
2738.000000;3.143590
2737.000000;3.141964
2736.000000;2.934826
2735.000000;2.938459
2734.000000;3.172807
2733.000000;3.339503
2732.000000;3.173006
2731.000000;3.128936
2730.000000;3.196165
2729.000000;3.147009
2728.000000;3.020624
2727.000000;2.949584
2726.000000;2.906952
2725.000000;2.782144
2724.000000;2.636831
2723.000000;2.564815
2722.000000;2.555780
2721.000000;2.578571
2720.000000;2.598305
2719.000000;2.566162
2718.000000;2.517211
2717.000000;2.501615
2716.000000;2.526085
2715.000000;2.595960
2714.000000;2.657901
2713.000000;2.613986
2712.000000;2.510290
2711.000000;2.426929
2710.000000;2.389333
2709.000000;2.382379
2708.000000;2.377040
2707.000000;2.374578
2706.000000;2.392773
2705.000000;2.450387
2704.000000;2.542753
2703.000000;2.604186
2702.000000;2.603312
2701.000000;2.583585
2700.000000;2.558560
2699.000000;2.539176
2698.000000;2.542561
2697.000000;2.568543
2696.000000;2.620583
2695.000000;2.720560
2694.000000;2.850521
2693.000000;2.874396
2692.000000;2.749091
2691.000000;2.634017
2690.000000;2.633885
2689.000000;2.774004
2688.000000;3.186357
2687.000000;3.641073
2686.000000;3.215534
2685.000000;3.129564
2684.000000;3.142354
2683.000000;3.433758
2682.000000;3.286524
2681.000000;2.867541
2680.000000;2.805231
2679.000000;2.920904
2678.000000;3.221532
2677.000000;3.705132
2676.000000;3.396503
2675.000000;3.042247
2674.000000;2.933044
2673.000000;2.806049
2672.000000;2.718187
2671.000000;2.742005
2670.000000;2.966345
2669.000000;3.502671
2668.000000;3.014994
2667.000000;2.806396
2666.000000;2.927577
2665.000000;3.269094
2664.000000;3.899087
2663.000000;3.446545
2662.000000;3.015467
2661.000000;2.873565
2660.000000;2.993432
2659.000000;3.077467
2658.000000;2.853136
2657.000000;2.789004
2656.000000;2.907153
2655.000000;3.190263
2654.000000;3.333844
2653.000000;3.101060
2652.000000;3.196437
2651.000000;3.529791
2650.000000;3.078518
2649.000000;2.817044
2648.000000;2.837669
2647.000000;2.932181
2646.000000;2.910352
2645.000000;2.793109
2644.000000;2.700448
2643.000000;2.699267
2642.000000;2.875364
2641.000000;3.161149
2640.000000;3.122929
2639.000000;3.221368
2638.000000;3.383915
2637.000000;3.528260
2636.000000;3.930597
2635.000000;3.303137
2634.000000;3.084977
2633.000000;2.953174
2632.000000;2.888879
2631.000000;2.960252
2630.000000;3.220249
2629.000000;3.374045
2628.000000;3.052633
2627.000000;2.927209
2626.000000;2.864674
2625.000000;2.818641
2624.000000;2.833680
2623.000000;2.818652
2622.000000;2.719671
2621.000000;2.622767
2620.000000;2.579906
2619.000000;2.610665
2618.000000;2.724095
2617.000000;2.849988
2616.000000;2.810317
2615.000000;2.671187
2614.000000;2.607613
2613.000000;2.659399
2612.000000;2.774860
2611.000000;2.768639
2610.000000;2.656973
2609.000000;2.581602
2608.000000;2.561767
2607.000000;2.603742
2606.000000;2.695208
2605.000000;2.780196
2604.000000;2.814145
2603.000000;2.807461
2602.000000;2.767046
2601.000000;2.731223
2600.000000;2.756145
2599.000000;2.865747
2598.000000;3.150099
2597.000000;3.295441
2596.000000;2.919001
2595.000000;2.703696
2594.000000;2.636857
2593.000000;2.677604
2592.000000;2.761220
2591.000000;2.747981
2590.000000;2.670431
2589.000000;2.613712
2588.000000;2.604036
2587.000000;2.627451
2586.000000;2.628208
2585.000000;2.600728
2584.000000;2.595225
2583.000000;2.624048
2582.000000;2.656447
2581.000000;2.661250
2580.000000;2.636050
2579.000000;2.601995
2578.000000;2.581037
2577.000000;2.583743
2576.000000;2.603460
2575.000000;2.637554
2574.000000;2.668030
2573.000000;2.612663
2572.000000;2.493747
2571.000000;2.412838
2570.000000;2.401173
2569.000000;2.465437
2568.000000;2.602990
2567.000000;2.694001
2566.000000;2.633528
2565.000000;2.571253
2564.000000;2.568097
2563.000000;2.633228
2562.000000;2.813675
2561.000000;2.973362
2560.000000;2.947700
2559.000000;3.068335
2558.000000;3.099079
2557.000000;2.848542
2556.000000;2.746139
2555.000000;2.838777
2554.000000;3.028351
2553.000000;2.922776
2552.000000;2.841919
2551.000000;2.989460
2550.000000;3.054579
2549.000000;2.954447
2548.000000;3.002163
2547.000000;2.979738
2546.000000;2.756928
2545.000000;2.582733
2544.000000;2.486655
2543.000000;2.451386
2542.000000;2.438576
2541.000000;2.400399
2540.000000;2.348194
2539.000000;2.329138
2538.000000;2.341261
2537.000000;2.345704
2536.000000;2.326784
2535.000000;2.306005
2534.000000;2.309541
2533.000000;2.339449
2532.000000;2.369618
2531.000000;2.373088
2530.000000;2.352165
2529.000000;2.327992
2528.000000;2.318561
2527.000000;2.334366
2526.000000;2.381999
2525.000000;2.464886
2524.000000;2.576810
2523.000000;2.680828
2522.000000;2.744093
2521.000000;2.799967
2520.000000;2.927872
2519.000000;3.153477
2518.000000;3.235049
2517.000000;3.188044
2516.000000;3.119609
2515.000000;2.953903
2514.000000;2.833752
2513.000000;2.794185
2512.000000;2.818076
2511.000000;2.873187
2510.000000;2.883314
2509.000000;2.810500
2508.000000;2.751411
2507.000000;2.788433
2506.000000;2.833995
2505.000000;2.792234
2504.000000;2.792525
2503.000000;2.867238
2502.000000;2.993876
2501.000000;3.192146
2500.000000;3.219488
2499.000000;3.101430
2498.000000;3.392293
2497.000000;3.544595
2496.000000;2.988804
2495.000000;2.870608
2494.000000;2.852260
2493.000000;2.989755
2492.000000;3.132006
2491.000000;2.758193
2490.000000;2.514637
2489.000000;2.439480
2488.000000;2.491764
2487.000000;2.660987
2486.000000;2.864494
2485.000000;2.915893
2484.000000;2.850803
2483.000000;2.783197
2482.000000;2.710213
2481.000000;2.644402
2480.000000;2.616409
2479.000000;2.644757
2478.000000;2.684852
2477.000000;2.645684
2476.000000;2.550929
2475.000000;2.507252
2474.000000;2.554531
2473.000000;2.703610
2472.000000;2.937662
2471.000000;2.916440
2470.000000;2.735350
2469.000000;2.704460
2468.000000;2.791360
2467.000000;2.928828
2466.000000;3.139241
2465.000000;3.330016
2464.000000;3.107264
2463.000000;2.920490
2462.000000;2.824993
2461.000000;2.731951
2460.000000;2.710934
2459.000000;2.792194
2458.000000;3.040095
2457.000000;3.183656
2456.000000;2.811872
2455.000000;2.593834
2454.000000;2.588088
2453.000000;2.758106
2452.000000;3.091085
2451.000000;3.276733
2450.000000;2.909175
2449.000000;2.663937
2448.000000;2.610094
2447.000000;2.732415
2446.000000;3.019001
2445.000000;3.098826
2444.000000;3.014975
2443.000000;2.941967
2442.000000;3.066413
2441.000000;3.548279
2440.000000;3.227757
2439.000000;3.166395
2438.000000;3.345521
2437.000000;3.324376
2436.000000;3.344642
2435.000000;3.136169
2434.000000;3.039265
2433.000000;3.234523
2432.000000;3.765514
2431.000000;3.160569
2430.000000;2.753104
2429.000000;2.645375
2428.000000;2.701910
2427.000000;2.775371
2426.000000;2.683628
2425.000000;2.602451
2424.000000;2.604148
2423.000000;2.676032
2422.000000;2.789899
2421.000000;2.793114
2420.000000;2.725689
2419.000000;2.736263
2418.000000;2.845594
2417.000000;2.957959
2416.000000;2.931979
2415.000000;2.810425
2414.000000;2.699172
2413.000000;2.661767
2412.000000;2.725576
2411.000000;3.056935
2410.000000;3.613304
2409.000000;3.307213
2408.000000;3.562106
2407.000000;3.617085
2406.000000;3.273219
2405.000000;3.412989
2404.000000;3.245581
2403.000000;3.032693
2402.000000;3.018243
2401.000000;2.954239
2400.000000;2.813737
2399.000000;2.745287
2398.000000;2.746239
2397.000000;2.751491
2396.000000;2.758581
2395.000000;2.806716
2394.000000;2.910063
2393.000000;2.992664
2392.000000;2.938333
2391.000000;2.833815
2390.000000;2.766233
2389.000000;2.745767
2388.000000;2.762502
2387.000000;2.795943
2386.000000;2.806128
2385.000000;2.771578
2384.000000;2.751565
2383.000000;2.814154
2382.000000;2.966896
2381.000000;3.128068
2380.000000;3.197318
2379.000000;3.287981
2378.000000;3.598617
2377.000000;3.804571
2376.000000;3.506497
2375.000000;3.371494
2374.000000;3.357272
2373.000000;3.464778
2372.000000;3.764038
2371.000000;3.809727
2370.000000;3.676434
2369.000000;3.669869
2368.000000;3.765173
2367.000000;4.154344
2366.000000;5.063162
2365.000000;4.577220
2364.000000;3.992428
2363.000000;3.743291
2362.000000;3.666954
2361.000000;3.648861
2360.000000;3.648099
2359.000000;3.674133
2358.000000;3.723867
2357.000000;3.736150
2356.000000;3.678850
2355.000000;3.609323
2354.000000;3.600010
2353.000000;3.677925
2352.000000;3.773916
2351.000000;3.780921
2350.000000;3.725893
2349.000000;3.673014
2348.000000;3.662064
2347.000000;3.721502
2346.000000;3.827969
2345.000000;3.925203
2344.000000;3.956226
2343.000000;3.923087
2342.000000;3.865399
2341.000000;3.862294
2340.000000;3.804973
2339.000000;3.929598
2338.000000;4.164316
2337.000000;3.753282
2336.000000;3.655610
2335.000000;3.542692
2334.000000;3.496733
2333.000000;3.652066
2332.000000;3.429894
2331.000000;3.217268
2330.000000;3.172377
2329.000000;3.157019
2328.000000;3.211605
2327.000000;3.377847
2326.000000;3.261862
2325.000000;3.089535
2324.000000;3.086036
2323.000000;3.138071
2322.000000;3.172540
2321.000000;3.123175
2320.000000;3.029457
2319.000000;2.963246
2318.000000;2.920248
2317.000000;2.871952
2316.000000;2.815758
2315.000000;2.780938
2314.000000;2.791827
2313.000000;2.848072
2312.000000;2.899032
2311.000000;2.896200
2310.000000;2.865435
2309.000000;2.826189
2308.000000;2.808353
2307.000000;2.834076
2306.000000;2.822688
2305.000000;2.769267
2304.000000;2.779887
2303.000000;2.854378
2302.000000;2.946409
2301.000000;2.957356
2300.000000;2.827279
2299.000000;2.728617
2298.000000;2.742120
2297.000000;2.837586
2296.000000;2.886386
2295.000000;2.805019
2294.000000;2.695017
2293.000000;2.631750
2292.000000;2.642421
2291.000000;2.739557
2290.000000;2.851506
2289.000000;2.814586
2288.000000;2.698780
2287.000000;2.610171
2286.000000;2.570044
2285.000000;2.578850
2284.000000;2.603184
2283.000000;2.612570
2282.000000;2.607990
2281.000000;2.605994
2280.000000;2.613685
2279.000000;2.622395
2278.000000;2.615749
2277.000000;2.595032
2276.000000;2.586482
2275.000000;2.616074
2274.000000;2.687323
2273.000000;2.769813
2272.000000;2.812923
2271.000000;2.785442
2270.000000;2.709155
2269.000000;2.656905
2268.000000;2.695236
2267.000000;2.857742
2266.000000;3.150206
2265.000000;3.345477
2264.000000;3.344860
2263.000000;3.223647
2262.000000;3.332165
2261.000000;4.168493
2260.000000;3.461573
2259.000000;3.381242
2258.000000;3.666402
2257.000000;3.366063
2256.000000;3.074560
2255.000000;2.793519
2254.000000;2.636535
2253.000000;2.623099
2252.000000;2.713268
2251.000000;2.787005
2250.000000;2.810364
2249.000000;2.894051
2248.000000;2.935762
2247.000000;2.931411
2246.000000;3.069185
2245.000000;3.169824
2244.000000;3.081471
2243.000000;3.119365
2242.000000;3.323816
2241.000000;3.572657
2240.000000;3.623362
2239.000000;3.450629
2238.000000;3.159100
2237.000000;2.892368
2236.000000;2.760415
2235.000000;2.764644
2234.000000;2.868446
2233.000000;2.999611
2232.000000;3.057473
2231.000000;3.008745
2230.000000;2.928340
2229.000000;2.871329
2228.000000;2.883928
2227.000000;3.005143
2226.000000;3.053094
2225.000000;2.955855
2224.000000;2.946020
2223.000000;3.012743
2222.000000;3.034661
2221.000000;2.925372
2220.000000;2.773186
2219.000000;2.692484
2218.000000;2.691942
2217.000000;2.671640
2216.000000;2.585562
2215.000000;2.524071
2214.000000;2.507237
2213.000000;2.522589
2212.000000;2.547756
2211.000000;2.528611
2210.000000;2.488461
2209.000000;2.483948
2208.000000;2.521639
2207.000000;2.586785
2206.000000;2.622543
2205.000000;2.583569
2204.000000;2.538445
2203.000000;2.537611
2202.000000;2.561794
2201.000000;2.551046
2200.000000;2.482109
2199.000000;2.406415
2198.000000;2.362636
2197.000000;2.354063
2196.000000;2.367707
2195.000000;2.390291
2194.000000;2.408192
2193.000000;2.418083
2192.000000;2.437800
2191.000000;2.465641
2190.000000;2.480987
2189.000000;2.496589
2188.000000;2.528368
2187.000000;2.558490
2186.000000;2.577015
2185.000000;2.593831
2184.000000;2.605327
2183.000000;2.612355
2182.000000;2.642436
2181.000000;2.716431
2180.000000;2.792824
2179.000000;2.825159
2178.000000;2.782699
2177.000000;2.659218
2176.000000;2.574561
2175.000000;2.597386
2174.000000;2.727324
2173.000000;2.911861
2172.000000;2.952553
2171.000000;2.808718
2170.000000;2.687760
2169.000000;2.674303
2168.000000;2.800416
2167.000000;3.033811
2166.000000;3.288028
2165.000000;3.122851
2164.000000;2.853678
2163.000000;2.774428
2162.000000;2.900103
2161.000000;3.405752
2160.000000;3.504680
2159.000000;3.196867
2158.000000;3.107741
2157.000000;2.988918
2156.000000;3.017369
2155.000000;3.223439
2154.000000;3.413841
2153.000000;3.365440
2152.000000;3.301090
2151.000000;3.205376
2150.000000;3.098568
2149.000000;3.038110
2148.000000;2.970855
2147.000000;2.865421
2146.000000;2.794873
2145.000000;2.819471
2144.000000;3.005092
2143.000000;3.394470
2142.000000;3.266411
2141.000000;2.990935
2140.000000;2.915188
2139.000000;2.949872
2138.000000;3.055699
2137.000000;2.927227
2136.000000;2.723287
2135.000000;2.644318
2134.000000;2.645372
2133.000000;2.674048
2132.000000;2.711710
2131.000000;2.783084
2130.000000;2.825654
2129.000000;2.774450
2128.000000;2.693527
2127.000000;2.611437
2126.000000;2.572235
2125.000000;2.629242
2124.000000;2.804615
2123.000000;3.028757
2122.000000;2.975093
2121.000000;2.720068
2120.000000;2.556805
2119.000000;2.532116
2118.000000;2.624043
2117.000000;2.720553
2116.000000;2.756311
2115.000000;2.794955
2114.000000;2.762566
2113.000000;2.690023
2112.000000;2.659305
2111.000000;2.639904
2110.000000;2.619909
2109.000000;2.609533
2108.000000;2.597422
2107.000000;2.572192
2106.000000;2.551085
2105.000000;2.547712
2104.000000;2.551562
2103.000000;2.549664
2102.000000;2.545570
2101.000000;2.548698
2100.000000;2.562023
2099.000000;2.578743
2098.000000;2.574971
2097.000000;2.555646
2096.000000;2.561213
2095.000000;2.601380
2094.000000;2.635306
2093.000000;2.599278
2092.000000;2.517523
2091.000000;2.467078
2090.000000;2.465342
2089.000000;2.483877
2088.000000;2.479929
2087.000000;2.438780
2086.000000;2.396507
2085.000000;2.395657
2084.000000;2.452925
2083.000000;2.545668
2082.000000;2.605243
2081.000000;2.586476
2080.000000;2.543687
2079.000000;2.544745
2078.000000;2.621265
2077.000000;2.749828
2076.000000;2.853064
2075.000000;2.866441
2074.000000;2.897068
2073.000000;2.979138
2072.000000;3.213298
2071.000000;3.712517
2070.000000;3.176963
2069.000000;2.850570
2068.000000;2.749514
2067.000000;2.777860
2066.000000;2.887890
2065.000000;2.911254
2064.000000;2.830664
2063.000000;2.741845
2062.000000;2.709009
2061.000000;2.734507
2060.000000;2.780231
2059.000000;2.805561
2058.000000;2.790943
2057.000000;2.733720
2056.000000;2.692382
2055.000000;2.722455
2054.000000;2.829113
2053.000000;2.933183
2052.000000;2.931416
2051.000000;2.934406
2050.000000;2.970609
2049.000000;2.984940
2048.000000;3.018204
2047.000000;3.067003
2046.000000;3.045536
2045.000000;3.231006
2044.000000;3.778102
2043.000000;3.192354
2042.000000;3.319763
2041.000000;4.054658
2040.000000;3.144779
2039.000000;3.232261
2038.000000;3.709248
2037.000000;3.320751
2036.000000;3.158690
2035.000000;3.089644
2034.000000;3.057848
2033.000000;3.140837
2032.000000;3.198002
2031.000000;3.077964
2030.000000;2.974775
2029.000000;2.966335
2028.000000;3.021118
2027.000000;3.070116
2026.000000;3.042423
2025.000000;3.010250
2024.000000;3.027066
2023.000000;3.023690
2022.000000;2.984436
2021.000000;2.828846
2020.000000;2.632354
2019.000000;2.543912
2018.000000;2.568754
2017.000000;2.643798
2016.000000;2.679058
2015.000000;2.639254
2014.000000;2.578332
2013.000000;2.575164
2012.000000;2.667032
2011.000000;2.842387
2010.000000;2.984163
2009.000000;2.909605
2008.000000;2.809456
2007.000000;2.836115
2006.000000;2.981782
2005.000000;3.116801
2004.000000;2.962076
2003.000000;2.741548
2002.000000;2.667848
2001.000000;2.745063
2000.000000;2.934447
1999.000000;3.045992
1998.000000;2.883652
1997.000000;2.724880
1996.000000;2.706426
1995.000000;2.811186
1994.000000;2.959814
1993.000000;3.019365
1992.000000;2.914606
1991.000000;2.761587
1990.000000;2.666966
1989.000000;2.639971
1988.000000;2.671929
1987.000000;2.743693
1986.000000;2.782775
1985.000000;2.735496
1984.000000;2.688152
1983.000000;2.702940
1982.000000;2.779782
1981.000000;2.997453
1980.000000;3.031740
1979.000000;2.789486
1978.000000;2.739016
1977.000000;2.864287
1976.000000;3.288637
1975.000000;3.553611
1974.000000;3.001630
1973.000000;2.783362
1972.000000;2.748319
1971.000000;2.862077
1970.000000;2.955505
1969.000000;2.863466
1968.000000;2.771380
1967.000000;2.727198
1966.000000;2.699165
1965.000000;2.665761
1964.000000;2.661335
1963.000000;2.720830
1962.000000;2.799282
1961.000000;2.786516
1960.000000;2.693093
1959.000000;2.634821
1958.000000;2.647476
1957.000000;2.698593
1956.000000;2.725084
1955.000000;2.695023
1954.000000;2.647430
1953.000000;2.628305
1952.000000;2.646415
1951.000000;2.674348
1950.000000;2.672870
1949.000000;2.642969
1948.000000;2.624782
1947.000000;2.643865
1946.000000;2.682003
1945.000000;2.684879
1944.000000;2.639306
1943.000000;2.581960
1942.000000;2.538024
1941.000000;2.525528
1940.000000;2.551286
1939.000000;2.586043
1938.000000;2.586744
1937.000000;2.548639
1936.000000;2.500174
1935.000000;2.465957
1934.000000;2.451037
1933.000000;2.462212
1932.000000;2.511532
1931.000000;2.610700
1930.000000;2.740689
1929.000000;2.746209
1928.000000;2.694893
1927.000000;2.780635
1926.000000;2.987478
1925.000000;3.447358
1924.000000;3.705370
1923.000000;3.142241
1922.000000;2.945138
1921.000000;2.798487
1920.000000;2.672030
1919.000000;2.640049
1918.000000;2.655010
1917.000000;2.643648
1916.000000;2.587800
1915.000000;2.492318
1914.000000;2.426071
1913.000000;2.451628
1912.000000;2.561292
1911.000000;2.691853
1910.000000;2.757304
1909.000000;2.751470
1908.000000;2.753025
1907.000000;2.818111
1906.000000;2.900723
1905.000000;2.912455
1904.000000;2.858302
1903.000000;2.745964
1902.000000;2.605850
1901.000000;2.518511
1900.000000;2.508757
1899.000000;2.535689
1898.000000;2.523170
1897.000000;2.426774
1896.000000;2.322420
1895.000000;2.287717
1894.000000;2.325323
1893.000000;2.399275
1892.000000;2.430466
1891.000000;2.372474
1890.000000;2.321517
1889.000000;2.348763
1888.000000;2.446165
1887.000000;2.539813
1886.000000;2.531214
1885.000000;2.471532
1884.000000;2.462867
1883.000000;2.529561
1882.000000;2.607252
1881.000000;2.636299
1880.000000;2.654442
1879.000000;2.682159
1878.000000;2.687781
1877.000000;2.625135
1876.000000;2.573409
1875.000000;2.609544
1874.000000;2.696803
1873.000000;2.760141
1872.000000;2.734722
1871.000000;2.686496
1870.000000;2.682370
1869.000000;2.779556
1868.000000;2.982055
1867.000000;3.177457
1866.000000;3.553274
1865.000000;3.266663
1864.000000;2.884150
1863.000000;2.825843
1862.000000;2.889608
1861.000000;2.922958
1860.000000;2.921417
1859.000000;2.868178
1858.000000;2.740382
1857.000000;2.649863
1856.000000;2.616281
1855.000000;2.639538
1854.000000;2.686533
1853.000000;2.647491
1852.000000;2.559608
1851.000000;2.503516
1850.000000;2.489025
1849.000000;2.519540
1848.000000;2.565297
1847.000000;2.554052
1846.000000;2.502501
1845.000000;2.474382
1844.000000;2.473181
1843.000000;2.465805
1842.000000;2.438520
1841.000000;2.443484
1840.000000;2.532830
1839.000000;2.695665
1838.000000;2.805190
1837.000000;2.752255
1836.000000;2.671285
1835.000000;2.668824
1834.000000;2.752191
1833.000000;2.848679
1832.000000;2.913319
1831.000000;2.982636
1830.000000;3.004946
1829.000000;3.026009
1828.000000;3.103451
1827.000000;3.124213
1826.000000;3.194992
1825.000000;3.241029
1824.000000;3.044864
1823.000000;2.928539
1822.000000;2.937978
1821.000000;2.967428
1820.000000;2.952556
1819.000000;2.950776
1818.000000;2.980034
1817.000000;2.963425
1816.000000;2.889024
1815.000000;2.808765
1814.000000;2.773695
1813.000000;2.796933
1812.000000;2.862335
1811.000000;2.975420
1810.000000;3.058114
1809.000000;2.988432
1808.000000;2.935937
1807.000000;2.968428
1806.000000;3.173690
1805.000000;3.467597
1804.000000;3.280760
1803.000000;3.214533
1802.000000;3.170191
1801.000000;3.001206
1800.000000;2.881181
1799.000000;2.899960
1798.000000;3.136639
1797.000000;3.294447
1796.000000;3.031189
1795.000000;2.752344
1794.000000;2.560025
1793.000000;2.512400
1792.000000;2.561227
1791.000000;2.559351
1790.000000;2.501180
1789.000000;2.467067
1788.000000;2.459009
1787.000000;2.450667
1786.000000;2.409971
1785.000000;2.354389
1784.000000;2.323469
1783.000000;2.325780
1782.000000;2.344125
1781.000000;2.345141
1780.000000;2.324629
1779.000000;2.299410
1778.000000;2.283328
1777.000000;2.290072
1776.000000;2.314076
1775.000000;2.343265
1774.000000;2.384283
1773.000000;2.433277
1772.000000;2.471526
1771.000000;2.486725
1770.000000;2.484398
1769.000000;2.531448
1768.000000;2.693458
1767.000000;2.933684
1766.000000;3.080230
1765.000000;3.030526
1764.000000;3.039637
1763.000000;3.204006
1762.000000;2.978904
1761.000000;2.811784
1760.000000;2.933818
1759.000000;2.921142
1758.000000;2.765054
1757.000000;2.720465
1756.000000;2.737827
1755.000000;2.734243
1754.000000;2.638843
1753.000000;2.568241
1752.000000;2.594185
1751.000000;2.676683
1750.000000;2.701489
1749.000000;2.614348
1748.000000;2.519781
1747.000000;2.492029
1746.000000;2.554866
1745.000000;2.699190
1744.000000;2.829601
1743.000000;2.778067
1742.000000;2.619011
1741.000000;2.504891
1740.000000;2.481542
1739.000000;2.539006
1738.000000;2.612602
1737.000000;2.608998
1736.000000;2.531624
1735.000000;2.461481
1734.000000;2.444104
1733.000000;2.478530
1732.000000;2.534599
1731.000000;2.558633
1730.000000;2.539979
1729.000000;2.526997
1728.000000;2.541317
1727.000000;2.579232
1726.000000;2.650648
1725.000000;2.735475
1724.000000;2.749634
1723.000000;2.727880
1722.000000;2.743484
1721.000000;2.735543
1720.000000;2.670770
1719.000000;2.627328
1718.000000;2.656702
1717.000000;2.757714
1716.000000;2.893039
1715.000000;2.968659
1714.000000;2.911171
1713.000000;2.865911
1712.000000;2.940115
1711.000000;3.041261
1710.000000;3.042106
1709.000000;3.105976
1708.000000;3.349231
1707.000000;3.523025
1706.000000;3.369565
1705.000000;3.062207
1704.000000;2.843973
1703.000000;2.776429
1702.000000;2.790126
1701.000000;2.781776
1700.000000;2.692113
1699.000000;2.609921
1698.000000;2.587523
1697.000000;2.581338
1696.000000;2.545851
1695.000000;2.478734
1694.000000;2.423367
1693.000000;2.402583
1692.000000;2.401040
1691.000000;2.404399
1690.000000;2.406272
1689.000000;2.405756
1688.000000;2.398278
1687.000000;2.378025
1686.000000;2.341769
1685.000000;2.289551
1684.000000;2.253984
1683.000000;2.263273
1682.000000;2.338774
1681.000000;2.442311
1680.000000;2.469869
1679.000000;2.425760
1678.000000;2.395708
1677.000000;2.436160
1676.000000;2.555584
1675.000000;2.724900
1674.000000;2.892327
1673.000000;2.963691
1672.000000;2.965556
1671.000000;2.960599
1670.000000;2.908006
1669.000000;2.845192
1668.000000;2.837179
1667.000000;2.867323
1666.000000;2.889041
1665.000000;2.848224
1664.000000;2.692790
1663.000000;2.553816
1662.000000;2.521125
1661.000000;2.556216
1660.000000;2.589669
1659.000000;2.590844
1658.000000;2.537184
1657.000000;2.464751
1656.000000;2.433465
1655.000000;2.427723
1654.000000;2.428780
1653.000000;2.440529
1652.000000;2.424463
1651.000000;2.418452
1650.000000;2.456750
1649.000000;2.503382
1648.000000;2.529989
1647.000000;2.516674
1646.000000;2.473512
1645.000000;2.455390
1644.000000;2.473747
1643.000000;2.483900
1642.000000;2.480903
1641.000000;2.473875
1640.000000;2.481772
1639.000000;2.572226
1638.000000;2.702238
1637.000000;2.695519
1636.000000;2.663423
1635.000000;2.629423
1634.000000;2.595341
1633.000000;2.703734
1632.000000;2.928400
1631.000000;2.987762
1630.000000;2.797676
1629.000000;2.638247
1628.000000;2.615894
1627.000000;2.744690
1626.000000;3.113202
1625.000000;3.224639
1624.000000;2.780069
1623.000000;2.559669
1622.000000;2.499172
1621.000000;2.540838
1620.000000;2.652840
1619.000000;2.807652
1618.000000;2.771631
1617.000000;2.551703
1616.000000;2.407203
1615.000000;2.358115
1614.000000;2.391718
1613.000000;2.474851
1612.000000;2.532162
1611.000000;2.525240
1610.000000;2.516034
1609.000000;2.571024
1608.000000;2.743646
1607.000000;3.118278
1606.000000;3.227747
1605.000000;3.006496
1604.000000;3.100762
1603.000000;3.394420
1602.000000;3.518192
1601.000000;3.252381
1600.000000;2.884411
1599.000000;2.639519
1598.000000;2.534359
1597.000000;2.549520
1596.000000;2.663978
1595.000000;2.824751
1594.000000;2.873987
1593.000000;2.687287
1592.000000;2.517304
1591.000000;2.485867
1590.000000;2.609532
1589.000000;2.887863
1588.000000;3.015993
1587.000000;2.828660
1586.000000;2.665581
1585.000000;2.608985
1584.000000;2.657582
1583.000000;2.727615
1582.000000;2.705513
1581.000000;2.633015
1580.000000;2.612559
1579.000000;2.694272
1578.000000;2.853736
1577.000000;2.984293
1576.000000;2.953711
1575.000000;2.755476
1574.000000;2.599614
1573.000000;2.578646
1572.000000;2.657799
1571.000000;2.797279
1570.000000;2.979057
1569.000000;2.915847
1568.000000;2.763128
1567.000000;2.770806
1566.000000;2.810706
1565.000000;2.791789
1564.000000;2.821857
1563.000000;2.962250
1562.000000;3.174222
1561.000000;3.126231
1560.000000;2.751589
1559.000000;2.551044
1558.000000;2.493224
1557.000000;2.520094
1556.000000;2.580186
1555.000000;2.606739
1554.000000;2.605827
1553.000000;2.606852
1552.000000;2.706865
1551.000000;2.933398
1550.000000;2.920500
1549.000000;2.746265
1548.000000;2.711844
1547.000000;2.781812
1546.000000;2.907430
1545.000000;2.872296
1544.000000;2.685572
1543.000000;2.537308
1542.000000;2.451061
1541.000000;2.432725
1540.000000;2.462403
1539.000000;2.482644
1538.000000;2.476756
1537.000000;2.471099
1536.000000;2.468894
1535.000000;2.465421
1534.000000;2.479091
1533.000000;2.537896
1532.000000;2.646435
1531.000000;2.741096
1530.000000;2.721916
1529.000000;2.656092
1528.000000;2.669380
1527.000000;2.877447
1526.000000;3.024822
1525.000000;2.799949
1524.000000;2.733250
1523.000000;2.764764
1522.000000;2.858182
1521.000000;2.977961
1520.000000;2.900505
1519.000000;2.791525
1518.000000;2.763254
1517.000000;2.743053
1516.000000;2.680843
1515.000000;2.610232
1514.000000;2.607608
1513.000000;2.699427
1512.000000;2.962302
1511.000000;3.179842
1510.000000;2.873052
1509.000000;2.724467
1508.000000;2.821113
1507.000000;3.071670
1506.000000;2.869549
1505.000000;2.671322
1504.000000;2.702633
1503.000000;2.838484
1502.000000;2.923400
1501.000000;2.827766
1500.000000;2.693657
1499.000000;2.574090
1498.000000;2.471810
1497.000000;2.413382
1496.000000;2.408150
1495.000000;2.439547
1494.000000;2.475007
1493.000000;2.486533
1492.000000;2.476368
1491.000000;2.465946
1490.000000;2.454692
1489.000000;2.423369
1488.000000;2.379560
1487.000000;2.357051
1486.000000;2.382133
1485.000000;2.444901
1484.000000;2.487493
1483.000000;2.470024
1482.000000;2.426962
1481.000000;2.410937
1480.000000;2.433072
1479.000000;2.456614
1478.000000;2.459311
1477.000000;2.434635
1476.000000;2.368211
1475.000000;2.295290
1474.000000;2.243971
1473.000000;2.212061
1472.000000;2.196359
1471.000000;2.192955
1470.000000;2.189743
1469.000000;2.167859
1468.000000;2.126833
1467.000000;2.087527
1466.000000;2.073858
1465.000000;2.101012
1464.000000;2.165716
1463.000000;2.243482
1462.000000;2.291892
1461.000000;2.292375
1460.000000;2.285849
1459.000000;2.333045
1458.000000;2.479640
1457.000000;2.712075
1456.000000;2.867773
1455.000000;2.812470
1454.000000;2.752462
1453.000000;2.829091
1452.000000;3.200130
1451.000000;3.482570
1450.000000;2.993397
1449.000000;2.865748
1448.000000;2.947536
1447.000000;2.998379
1446.000000;2.793638
1445.000000;2.644177
1444.000000;2.561638
1443.000000;2.489409
1442.000000;2.427656
1441.000000;2.344599
1440.000000;2.261662
1439.000000;2.214915
1438.000000;2.209784
1437.000000;2.230043
1436.000000;2.253041
1435.000000;2.265851
1434.000000;2.270673
1433.000000;2.267928
1432.000000;2.262225
1431.000000;2.270212
1430.000000;2.310554
1429.000000;2.392833
1428.000000;2.510547
1427.000000;2.612070
1426.000000;2.616675
1425.000000;2.544712
1424.000000;2.519520
1423.000000;2.598833
1422.000000;2.922707
1421.000000;3.460846
1420.000000;3.012585
1419.000000;2.926134
1418.000000;3.104962
1417.000000;3.024314
1416.000000;2.695345
1415.000000;2.618010
1414.000000;2.897936
1413.000000;3.348201
1412.000000;3.032404
1411.000000;2.873502
1410.000000;2.780293
1409.000000;2.781238
1408.000000;2.877359
1407.000000;2.775236
1406.000000;2.663591
1405.000000;2.643323
1404.000000;2.637298
1403.000000;2.598103
1402.000000;2.552328
1401.000000;2.546284
1400.000000;2.581260
1399.000000;2.611006
1398.000000;2.596105
1397.000000;2.561595
1396.000000;2.552141
1395.000000;2.580439
1394.000000;2.612673
1393.000000;2.611505
1392.000000;2.603355
1391.000000;2.615549
1390.000000;2.652749
1389.000000;2.690409
1388.000000;2.673192
1387.000000;2.575144
1386.000000;2.441852
1385.000000;2.363512
1384.000000;2.385329
1383.000000;2.499046
1382.000000;2.594996
1381.000000;2.518286
1380.000000;2.400509
1379.000000;2.368328
1378.000000;2.448510
1377.000000;2.593470
1376.000000;2.617375
1375.000000;2.542859
1374.000000;2.473443
1373.000000;2.430824
1372.000000;2.463055
1371.000000;2.596528
1370.000000;2.790945
1369.000000;2.836330
1368.000000;2.698266
1367.000000;2.569840
1366.000000;2.538690
1365.000000;2.627252
1364.000000;2.839585
1363.000000;3.182617
1362.000000;3.008538
1361.000000;2.697553
1360.000000;2.664318
1359.000000;2.891914
1358.000000;3.076981
1357.000000;2.821725
1356.000000;2.695784
1355.000000;2.688347
1354.000000;2.705396
1353.000000;2.691591
1352.000000;2.649605
1351.000000;2.694208
1350.000000;2.828881
1349.000000;2.767280
1348.000000;2.594696
1347.000000;2.516589
1346.000000;2.534781
1345.000000;2.693919
1344.000000;2.832203
1343.000000;2.637821
1342.000000;2.505198
1341.000000;2.484693
1340.000000;2.540618
1339.000000;2.697864
1338.000000;2.854156
1337.000000;2.756938
1336.000000;2.632435
1335.000000;2.636789
1334.000000;2.813042
1333.000000;3.236177
1332.000000;3.463658
1331.000000;3.128542
1330.000000;2.886104
1329.000000;2.841696
1328.000000;2.978401
1327.000000;3.059444
1326.000000;2.830887
1325.000000;2.579096
1324.000000;2.470027
1323.000000;2.522139
1322.000000;2.704020
1321.000000;2.788419
1320.000000;2.623237
1319.000000;2.431965
1318.000000;2.344841
1317.000000;2.400650
1316.000000;2.638619
1315.000000;2.864305
1314.000000;2.735498
1313.000000;2.662773
1312.000000;2.660509
1311.000000;2.819019
1310.000000;2.990679
1309.000000;2.806453
1308.000000;2.726439
1307.000000;2.723763
1306.000000;2.679362
1305.000000;2.623480
1304.000000;2.642881
1303.000000;2.677557
1302.000000;2.604949
1301.000000;2.491702
1300.000000;2.431498
1299.000000;2.461570
1298.000000;2.634526
1297.000000;2.937920
1296.000000;2.862405
1295.000000;2.719541
1294.000000;2.757377
1293.000000;2.865259
1292.000000;2.866523
1291.000000;2.842664
1290.000000;2.914782
1289.000000;2.859660
1288.000000;2.679716
1287.000000;2.523691
1286.000000;2.419315
1285.000000;2.406879
1284.000000;2.507503
1283.000000;2.648467
1282.000000;2.636306
1281.000000;2.517759
1280.000000;2.418913
1279.000000;2.361984
1278.000000;2.348646
1277.000000;2.360028
1276.000000;2.374088
1275.000000;2.383474
1274.000000;2.367571
1273.000000;2.318847
1272.000000;2.281947
1271.000000;2.278942
1270.000000;2.287540
1269.000000;2.277182
1268.000000;2.248724
1267.000000;2.234240
1266.000000;2.254309
1265.000000;2.299864
1264.000000;2.343943
1263.000000;2.368869
1262.000000;2.379057
1261.000000;2.385173
1260.000000;2.397201
1259.000000;2.425770
1258.000000;2.471124
1257.000000;2.526685
1256.000000;2.555019
1255.000000;2.516858
1254.000000;2.477031
1253.000000;2.493830
1252.000000;2.549193
1251.000000;2.583364
1250.000000;2.569105
1249.000000;2.555100
1248.000000;2.572631
1247.000000;2.594150
1246.000000;2.627933
1245.000000;2.717088
1244.000000;2.809467
1243.000000;2.842360
1242.000000;2.879853
1241.000000;2.946077
1240.000000;3.059766
1239.000000;3.098790
1238.000000;3.266663
1237.000000;3.925121
1236.000000;3.562077
1235.000000;3.501128
1234.000000;3.138085
1233.000000;2.910783
1232.000000;2.936836
1231.000000;2.958479
1230.000000;2.850271
1229.000000;2.868586
1228.000000;2.954942
1227.000000;2.828738
1226.000000;2.741762
1225.000000;2.771279
1224.000000;2.805618
1223.000000;2.866760
1222.000000;2.891198
1221.000000;2.796161
1220.000000;2.797611
1219.000000;3.047144
1218.000000;3.302197
1217.000000;3.111490
1216.000000;3.064659
1215.000000;3.178183
1214.000000;3.350553
1213.000000;3.548124
1212.000000;3.280898
1211.000000;2.871617
1210.000000;2.644186
1209.000000;2.541720
1208.000000;2.515791
1207.000000;2.525173
1206.000000;2.551155
1205.000000;2.570169
1204.000000;2.487678
1203.000000;2.373850
1202.000000;2.340951
1201.000000;2.388980
1200.000000;2.481911
