Criado como novo conjunto de dados;"0307_DANIEL.spp","18002.9 Secs"
cm-1;Abs
10000.000000;0.925808
9999.000000;0.924701
9998.000000;0.923597
9997.000000;0.922495
9996.000000;0.921397
9995.000000;0.920302
9994.000000;0.919208
9993.000000;0.918119
9992.000000;0.917030
9991.000000;0.915948
9990.000000;0.914860
9989.000000;0.913796
9988.000000;0.912622
9987.000000;0.911203
9986.000000;0.909657
9985.000000;0.908151
9984.000000;0.906808
9983.000000;0.905692
9982.000000;0.904795
9981.000000;0.903967
9980.000000;0.902998
9979.000000;0.901799
9978.000000;0.900433
9977.000000;0.898952
9976.000000;0.897359
9975.000000;0.895788
9974.000000;0.894564
9973.000000;0.893879
9972.000000;0.893448
9971.000000;0.892678
9970.000000;0.891294
9969.000000;0.889687
9968.000000;0.888464
9967.000000;0.887715
9966.000000;0.886934
9965.000000;0.885691
9964.000000;0.884171
9963.000000;0.882878
9962.000000;0.881967
9961.000000;0.881124
9960.000000;0.880063
9959.000000;0.878842
9958.000000;0.877638
9957.000000;0.876434
9956.000000;0.875049
9955.000000;0.873394
9954.000000;0.871603
9953.000000;0.869999
9952.000000;0.868893
9951.000000;0.868267
9950.000000;0.867658
9949.000000;0.866553
9948.000000;0.864944
9947.000000;0.863300
9946.000000;0.861973
9945.000000;0.860877
9944.000000;0.859802
9943.000000;0.858707
9942.000000;0.857546
9941.000000;0.856094
9940.000000;0.854285
9939.000000;0.852526
9938.000000;0.851360
9937.000000;0.850815
9936.000000;0.850343
9935.000000;0.849396
9934.000000;0.847879
9933.000000;0.846069
9932.000000;0.844318
9931.000000;0.842859
9930.000000;0.841743
9929.000000;0.840834
9928.000000;0.839914
9927.000000;0.838805
9926.000000;0.837395
9925.000000;0.835655
9924.000000;0.833742
9923.000000;0.832005
9922.000000;0.830751
9921.000000;0.829972
9920.000000;0.829377
9919.000000;0.828647
9918.000000;0.827600
9917.000000;0.826193
9916.000000;0.824530
9915.000000;0.822862
9914.000000;0.821428
9913.000000;0.820230
9912.000000;0.819040
9911.000000;0.817670
9910.000000;0.816206
9909.000000;0.814905
9908.000000;0.813881
9907.000000;0.812908
9906.000000;0.811587
9905.000000;0.809746
9904.000000;0.807677
9903.000000;0.805897
9902.000000;0.804682
9901.000000;0.803884
9900.000000;0.803151
9899.000000;0.802217
9898.000000;0.800990
9897.000000;0.799520
9896.000000;0.797952
9895.000000;0.796433
9894.000000;0.794985
9893.000000;0.793513
9892.000000;0.791967
9891.000000;0.790419
9890.000000;0.788956
9889.000000;0.787598
9888.000000;0.786338
9887.000000;0.785172
9886.000000;0.784072
9885.000000;0.783026
9884.000000;0.782085
9883.000000;0.781262
9882.000000;0.780370
9881.000000;0.779162
9880.000000;0.777660
9879.000000;0.776130
9878.000000;0.774658
9877.000000;0.772973
9876.000000;0.770872
9875.000000;0.768647
9874.000000;0.766872
9873.000000;0.765819
9872.000000;0.765222
9871.000000;0.764558
9870.000000;0.763461
9869.000000;0.761925
9868.000000;0.760207
9867.000000;0.758513
9866.000000;0.756779
9865.000000;0.754839
9864.000000;0.752826
9863.000000;0.751202
9862.000000;0.750249
9861.000000;0.749705
9860.000000;0.749029
9859.000000;0.747931
9858.000000;0.746481
9857.000000;0.744828
9856.000000;0.743054
9855.000000;0.741266
9854.000000;0.739615
9853.000000;0.738133
9852.000000;0.736683
9851.000000;0.735108
9850.000000;0.733394
9849.000000;0.731671
9848.000000;0.730089
9847.000000;0.728691
9846.000000;0.727378
9845.000000;0.726051
9844.000000;0.724741
9843.000000;0.723515
9842.000000;0.722248
9841.000000;0.720695
9840.000000;0.718846
9839.000000;0.717034
9838.000000;0.715566
9837.000000;0.714382
9836.000000;0.713212
9835.000000;0.711941
9834.000000;0.710652
9833.000000;0.709372
9832.000000;0.707969
9831.000000;0.706301
9830.000000;0.704371
9829.000000;0.702373
9828.000000;0.700636
9827.000000;0.699418
9826.000000;0.698604
9825.000000;0.697718
9824.000000;0.696355
9823.000000;0.694583
9822.000000;0.692762
9821.000000;0.691093
9820.000000;0.689513
9819.000000;0.687993
9818.000000;0.686668
9817.000000;0.685595
9816.000000;0.684535
9815.000000;0.683143
9814.000000;0.681355
9813.000000;0.679500
9812.000000;0.677951
9811.000000;0.676697
9810.000000;0.675330
9809.000000;0.673537
9808.000000;0.671498
9807.000000;0.669641
9806.000000;0.668084
9805.000000;0.666545
9804.000000;0.664797
9803.000000;0.662942
9802.000000;0.661138
9801.000000;0.659348
9800.000000;0.657545
9799.000000;0.655931
9798.000000;0.654666
9797.000000;0.653542
9796.000000;0.652214
9795.000000;0.650652
9794.000000;0.649116
9793.000000;0.647700
9792.000000;0.646225
9791.000000;0.644567
9790.000000;0.642839
9789.000000;0.641161
9788.000000;0.639486
9787.000000;0.637753
9786.000000;0.636042
9785.000000;0.634456
9784.000000;0.632935
9783.000000;0.631304
9782.000000;0.629477
9781.000000;0.627546
9780.000000;0.625656
9779.000000;0.623852
9778.000000;0.622084
9777.000000;0.620380
9776.000000;0.618930
9775.000000;0.617847
9774.000000;0.616847
9773.000000;0.615367
9772.000000;0.613188
9771.000000;0.610767
9770.000000;0.608792
9769.000000;0.607471
9768.000000;0.606421
9767.000000;0.605161
9766.000000;0.603511
9765.000000;0.601538
9764.000000;0.599381
9763.000000;0.597230
9762.000000;0.595296
9761.000000;0.593663
9760.000000;0.592188
9759.000000;0.590608
9758.000000;0.588754
9757.000000;0.586703
9756.000000;0.584738
9755.000000;0.583100
9754.000000;0.581707
9753.000000;0.580223
9752.000000;0.578478
9751.000000;0.576724
9750.000000;0.575307
9749.000000;0.574163
9748.000000;0.572833
9747.000000;0.571004
9746.000000;0.568847
9745.000000;0.566782
9744.000000;0.565046
9743.000000;0.563551
9742.000000;0.562029
9741.000000;0.560244
9740.000000;0.558137
9739.000000;0.555853
9738.000000;0.553608
9737.000000;0.551520
9736.000000;0.549573
9735.000000;0.547729
9734.000000;0.546004
9733.000000;0.544434
9732.000000;0.542982
9731.000000;0.541473
9730.000000;0.539640
9729.000000;0.537349
9728.000000;0.534851
9727.000000;0.532675
9726.000000;0.531118
9725.000000;0.529930
9724.000000;0.528608
9723.000000;0.526912
9722.000000;0.524957
9721.000000;0.522912
9720.000000;0.520872
9719.000000;0.519000
9718.000000;0.517468
9717.000000;0.516193
9716.000000;0.514829
9715.000000;0.513139
9714.000000;0.511194
9713.000000;0.509135
9712.000000;0.506956
9711.000000;0.504685
9710.000000;0.502567
9709.000000;0.500847
9708.000000;0.499457
9707.000000;0.498098
9706.000000;0.496575
9705.000000;0.494884
9704.000000;0.493034
9703.000000;0.491002
9702.000000;0.488859
9701.000000;0.486758
9700.000000;0.484723
9699.000000;0.482600
9698.000000;0.480314
9697.000000;0.478029
9696.000000;0.475970
9695.000000;0.474144
9694.000000;0.472367
9693.000000;0.470505
9692.000000;0.468572
9691.000000;0.466587
9690.000000;0.464519
9689.000000;0.462411
9688.000000;0.460432
9687.000000;0.458682
9686.000000;0.457010
9685.000000;0.455171
9684.000000;0.453143
9683.000000;0.451158
9682.000000;0.449367
9681.000000;0.447625
9680.000000;0.445678
9679.000000;0.443478
9678.000000;0.441210
9677.000000;0.439064
9676.000000;0.437098
9675.000000;0.435278
9674.000000;0.433532
9673.000000;0.431727
9672.000000;0.429690
9671.000000;0.427341
9670.000000;0.424804
9669.000000;0.422336
9668.000000;0.420120
9667.000000;0.418087
9666.000000;0.415981
9665.000000;0.413631
9664.000000;0.411158
9663.000000;0.408845
9662.000000;0.406806
9661.000000;0.404879
9660.000000;0.402862
9659.000000;0.400720
9658.000000;0.398500
9657.000000;0.396196
9656.000000;0.393834
9655.000000;0.391613
9654.000000;0.389788
9653.000000;0.388398
9652.000000;0.387187
9651.000000;0.385763
9650.000000;0.383820
9649.000000;0.381301
9648.000000;0.378488
9647.000000;0.375878
9646.000000;0.373768
9645.000000;0.371963
9644.000000;0.369989
9643.000000;0.367608
9642.000000;0.364991
9641.000000;0.362428
9640.000000;0.360055
9639.000000;0.357911
9638.000000;0.356018
9637.000000;0.354296
9636.000000;0.352527
9635.000000;0.350530
9634.000000;0.348313
9633.000000;0.345949
9632.000000;0.343449
9631.000000;0.340857
9630.000000;0.338383
9629.000000;0.336217
9628.000000;0.334240
9627.000000;0.332106
9626.000000;0.329682
9625.000000;0.327255
9624.000000;0.325227
9623.000000;0.323653
9622.000000;0.322157
9621.000000;0.320276
9620.000000;0.317834
9619.000000;0.315024
9618.000000;0.312194
9617.000000;0.309584
9616.000000;0.307218
9615.000000;0.304973
9614.000000;0.302705
9613.000000;0.300334
9612.000000;0.297887
9611.000000;0.295488
9610.000000;0.293266
9609.000000;0.291221
9608.000000;0.289168
9607.000000;0.286896
9606.000000;0.284391
9605.000000;0.281891
9604.000000;0.279665
9603.000000;0.277728
9602.000000;0.275797
9601.000000;0.273568
9600.000000;0.271026
9599.000000;0.268479
9598.000000;0.266244
9597.000000;0.264341
9596.000000;0.262508
9595.000000;0.260481
9594.000000;0.258204
9593.000000;0.255773
9592.000000;0.253280
9591.000000;0.250769
9590.000000;0.248286
9589.000000;0.245872
9588.000000;0.243522
9587.000000;0.241213
9586.000000;0.238964
9585.000000;0.236824
9584.000000;0.234787
9583.000000;0.232777
9582.000000;0.230701
9581.000000;0.228475
9580.000000;0.226039
9579.000000;0.223455
9578.000000;0.220965
9577.000000;0.218789
9576.000000;0.216813
9575.000000;0.214645
9574.000000;0.212098
9573.000000;0.209480
9572.000000;0.207217
9571.000000;0.205261
9570.000000;0.203123
9569.000000;0.200507
9568.000000;0.197677
9567.000000;0.195080
9566.000000;0.192802
9565.000000;0.190587
9564.000000;0.188251
9563.000000;0.185868
9562.000000;0.183545
9561.000000;0.181249
9560.000000;0.178909
9559.000000;0.176558
9558.000000;0.174287
9557.000000;0.172123
9556.000000;0.170022
9555.000000;0.167929
9554.000000;0.165807
9553.000000;0.163644
9552.000000;0.161459
9551.000000;0.159251
9550.000000;0.156948
9549.000000;0.154481
9548.000000;0.151930
9547.000000;0.149518
9546.000000;0.147368
9545.000000;0.145363
9544.000000;0.143322
9543.000000;0.141252
9542.000000;0.139298
9541.000000;0.137463
9540.000000;0.135521
9539.000000;0.133243
9538.000000;0.130638
9537.000000;0.127900
9536.000000;0.125209
9535.000000;0.122636
9534.000000;0.120195
9533.000000;0.117871
9532.000000;0.115618
9531.000000;0.113407
9530.000000;0.111314
9529.000000;0.109502
9528.000000;0.108057
9527.000000;0.106853
9526.000000;0.105590
9525.000000;0.103963
9524.000000;0.101829
9523.000000;0.099280
9522.000000;0.096603
9521.000000;0.094093
9520.000000;0.091832
9519.000000;0.089664
9518.000000;0.087424
9517.000000;0.085178
9516.000000;0.083169
9515.000000;0.081525
9514.000000;0.080097
9513.000000;0.078610
9512.000000;0.076917
9511.000000;0.075056
9510.000000;0.073140
9509.000000;0.071270
9508.000000;0.069505
9507.000000;0.067841
9506.000000;0.066197
9505.000000;0.064481
9504.000000;0.062676
9503.000000;0.060836
9502.000000;0.059008
9501.000000;0.057211
9500.000000;0.055482
9499.000000;0.053878
9498.000000;0.052399
9497.000000;0.050947
9496.000000;0.049407
9495.000000;0.047784
9494.000000;0.046231
9493.000000;0.044910
9492.000000;0.043821
9491.000000;0.042747
9490.000000;0.041439
9489.000000;0.039887
9488.000000;0.038370
9487.000000;0.037186
9486.000000;0.036318
9485.000000;0.035431
9484.000000;0.034210
9483.000000;0.032659
9482.000000;0.031055
9481.000000;0.029661
9480.000000;0.028530
9479.000000;0.027529
9478.000000;0.026484
9477.000000;0.025319
9476.000000;0.024098
9475.000000;0.022965
9474.000000;0.021989
9473.000000;0.021079
9472.000000;0.020072
9471.000000;0.018948
9470.000000;0.017891
9469.000000;0.017086
9468.000000;0.016470
9467.000000;0.015744
9466.000000;0.014684
9465.000000;0.013408
9464.000000;0.012266
9463.000000;0.011477
9462.000000;0.010923
9461.000000;0.010345
9460.000000;0.009676
9459.000000;0.009099
9458.000000;0.008782
9457.000000;0.008632
9456.000000;0.008375
9455.000000;0.007852
9454.000000;0.007175
9453.000000;0.006599
9452.000000;0.006282
9451.000000;0.006185
9450.000000;0.006147
9449.000000;0.006027
9448.000000;0.005805
9447.000000;0.005605
9446.000000;0.005618
9445.000000;0.005926
9444.000000;0.006358
9443.000000;0.006556
9442.000000;0.006276
9441.000000;0.005643
9440.000000;0.005090
9439.000000;0.004977
9438.000000;0.005270
9437.000000;0.005591
9436.000000;0.005588
9435.000000;0.005241
9434.000000;0.004827
9433.000000;0.004643
9432.000000;0.004793
9431.000000;0.005217
9430.000000;0.005815
9429.000000;0.006520
9428.000000;0.007274
9427.000000;0.007989
9426.000000;0.008581
9425.000000;0.009018
9424.000000;0.009353
9423.000000;0.009677
9422.000000;0.010046
9421.000000;0.010426
9420.000000;0.010740
9419.000000;0.010969
9418.000000;0.011187
9417.000000;0.011484
9416.000000;0.011904
9415.000000;0.012496
9414.000000;0.013347
9413.000000;0.014473
9412.000000;0.015676
9411.000000;0.016640
9410.000000;0.017238
9409.000000;0.017652
9408.000000;0.018149
9407.000000;0.018790
9406.000000;0.019466
9405.000000;0.020110
9404.000000;0.020765
9403.000000;0.021448
9402.000000;0.022092
9401.000000;0.022661
9400.000000;0.023217
9399.000000;0.023827
9398.000000;0.024495
9397.000000;0.025253
9396.000000;0.026218
9395.000000;0.027454
9394.000000;0.028794
9393.000000;0.029949
9392.000000;0.030813
9391.000000;0.031591
9390.000000;0.032545
9389.000000;0.033686
9388.000000;0.034776
9387.000000;0.035655
9386.000000;0.036471
9385.000000;0.037525
9384.000000;0.038898
9383.000000;0.040320
9382.000000;0.041454
9381.000000;0.042237
9380.000000;0.042901
9379.000000;0.043669
9378.000000;0.044555
9377.000000;0.045490
9376.000000;0.046518
9375.000000;0.047774
9374.000000;0.049274
9373.000000;0.050826
9372.000000;0.052193
9371.000000;0.053312
9370.000000;0.054318
9369.000000;0.055350
9368.000000;0.056404
9367.000000;0.057404
9366.000000;0.058390
9365.000000;0.059546
9364.000000;0.060982
9363.000000;0.062562
9362.000000;0.064016
9361.000000;0.065230
9360.000000;0.066326
9359.000000;0.067450
9358.000000;0.068590
9357.000000;0.069655
9356.000000;0.070664
9355.000000;0.071768
9354.000000;0.073080
9353.000000;0.074539
9352.000000;0.075940
9351.000000;0.077094
9350.000000;0.078016
9349.000000;0.078953
9348.000000;0.080174
9347.000000;0.081674
9346.000000;0.083142
9345.000000;0.084286
9344.000000;0.085163
9343.000000;0.086107
9342.000000;0.087356
9341.000000;0.088817
9340.000000;0.090203
9339.000000;0.091320
9338.000000;0.092195
9337.000000;0.092992
9336.000000;0.093864
9335.000000;0.094868
9334.000000;0.095971
9333.000000;0.097120
9332.000000;0.098299
9331.000000;0.099522
9330.000000;0.100794
9329.000000;0.102072
9328.000000;0.103285
9327.000000;0.104397
9326.000000;0.105479
9325.000000;0.106679
9324.000000;0.108079
9323.000000;0.109584
9322.000000;0.110999
9321.000000;0.112224
9320.000000;0.113305
9319.000000;0.114320
9318.000000;0.115298
9317.000000;0.116306
9316.000000;0.117463
9315.000000;0.118773
9314.000000;0.120010
9313.000000;0.120940
9312.000000;0.121642
9311.000000;0.122473
9310.000000;0.123689
9309.000000;0.125198
9308.000000;0.126722
9307.000000;0.128114
9306.000000;0.129426
9305.000000;0.130738
9304.000000;0.132037
9303.000000;0.133245
9302.000000;0.134318
9301.000000;0.135288
9300.000000;0.136238
9299.000000;0.137237
9298.000000;0.138274
9297.000000;0.139274
9296.000000;0.140199
9295.000000;0.141102
9294.000000;0.142079
9293.000000;0.143183
9292.000000;0.144397
9291.000000;0.145656
9290.000000;0.146873
9289.000000;0.147962
9288.000000;0.148898
9287.000000;0.149752
9286.000000;0.150631
9285.000000;0.151580
9284.000000;0.152582
9283.000000;0.153646
9282.000000;0.154835
9281.000000;0.156190
9280.000000;0.157643
9279.000000;0.159051
9278.000000;0.160288
9277.000000;0.161266
9276.000000;0.161951
9275.000000;0.162439
9274.000000;0.163005
9273.000000;0.163940
9272.000000;0.165270
9271.000000;0.166692
9270.000000;0.167864
9269.000000;0.168732
9268.000000;0.169524
9267.000000;0.170469
9266.000000;0.171589
9265.000000;0.172733
9264.000000;0.173718
9263.000000;0.174476
9262.000000;0.175126
9261.000000;0.175922
9260.000000;0.177015
9259.000000;0.178280
9258.000000;0.179422
9257.000000;0.180310
9256.000000;0.181099
9255.000000;0.181998
9254.000000;0.183007
9253.000000;0.183950
9252.000000;0.184731
9251.000000;0.185437
9250.000000;0.186203
9249.000000;0.187035
9248.000000;0.187821
9247.000000;0.188497
9246.000000;0.189169
9245.000000;0.190032
9244.000000;0.191159
9243.000000;0.192394
9242.000000;0.193485
9241.000000;0.194299
9240.000000;0.194908
9239.000000;0.195492
9238.000000;0.196225
9237.000000;0.197215
9236.000000;0.198443
9235.000000;0.199736
9234.000000;0.200862
9233.000000;0.201701
9232.000000;0.202317
9231.000000;0.202894
9230.000000;0.203605
9229.000000;0.204539
9228.000000;0.205653
9227.000000;0.206800
9226.000000;0.207839
9225.000000;0.208723
9224.000000;0.209463
9223.000000;0.210070
9222.000000;0.210604
9221.000000;0.211201
9220.000000;0.211950
9219.000000;0.212777
9218.000000;0.213580
9217.000000;0.214413
9216.000000;0.215376
9215.000000;0.216361
9214.000000;0.217116
9213.000000;0.217616
9212.000000;0.218146
9211.000000;0.218935
9210.000000;0.219893
9209.000000;0.220807
9208.000000;0.221606
9207.000000;0.222287
9206.000000;0.222777
9205.000000;0.223085
9204.000000;0.223480
9203.000000;0.224271
9202.000000;0.225432
9201.000000;0.226629
9200.000000;0.227605
9199.000000;0.228384
9198.000000;0.229087
9197.000000;0.229744
9196.000000;0.230341
9195.000000;0.230938
9194.000000;0.231622
9193.000000;0.232410
9192.000000;0.233218
9191.000000;0.233944
9190.000000;0.234561
9189.000000;0.235145
9188.000000;0.235784
9187.000000;0.236455
9186.000000;0.237068
9185.000000;0.237629
9184.000000;0.238246
9183.000000;0.238945
9182.000000;0.239582
9181.000000;0.240044
9180.000000;0.240437
9179.000000;0.240934
9178.000000;0.241555
9177.000000;0.242216
9176.000000;0.242928
9175.000000;0.243758
9174.000000;0.244641
9173.000000;0.245408
9172.000000;0.246026
9171.000000;0.246637
9170.000000;0.247329
9169.000000;0.248010
9168.000000;0.248564
9167.000000;0.249017
9166.000000;0.249483
9165.000000;0.250034
9164.000000;0.250667
9163.000000;0.251347
9162.000000;0.252011
9161.000000;0.252583
9160.000000;0.253028
9159.000000;0.253391
9158.000000;0.253759
9157.000000;0.254209
9156.000000;0.254776
9155.000000;0.255429
9154.000000;0.256074
9153.000000;0.256639
9152.000000;0.257157
9151.000000;0.257720
9150.000000;0.258370
9149.000000;0.259058
9148.000000;0.259706
9147.000000;0.260286
9146.000000;0.260833
9145.000000;0.261420
9144.000000;0.262068
9143.000000;0.262699
9142.000000;0.263207
9141.000000;0.263619
9140.000000;0.264094
9139.000000;0.264710
9138.000000;0.265358
9137.000000;0.265895
9136.000000;0.266335
9135.000000;0.266780
9134.000000;0.267254
9133.000000;0.267700
9132.000000;0.268109
9131.000000;0.268513
9130.000000;0.268914
9129.000000;0.269308
9128.000000;0.269749
9127.000000;0.270287
9126.000000;0.270859
9125.000000;0.271368
9124.000000;0.271831
9123.000000;0.272329
9122.000000;0.272857
9121.000000;0.273321
9120.000000;0.273679
9119.000000;0.273969
9118.000000;0.274230
9117.000000;0.274515
9116.000000;0.274951
9115.000000;0.275627
9114.000000;0.276410
9113.000000;0.277028
9112.000000;0.277366
9111.000000;0.277575
9110.000000;0.277847
9109.000000;0.278213
9108.000000;0.278593
9107.000000;0.278945
9106.000000;0.279279
9105.000000;0.279604
9104.000000;0.279929
9103.000000;0.280270
9102.000000;0.280619
9101.000000;0.280958
9100.000000;0.281303
9099.000000;0.281713
9098.000000;0.282225
9097.000000;0.282838
9096.000000;0.283531
9095.000000;0.284240
9094.000000;0.284854
9093.000000;0.285301
9092.000000;0.285632
9091.000000;0.285919
9090.000000;0.286114
9089.000000;0.286126
9088.000000;0.286025
9087.000000;0.286033
9086.000000;0.286282
9085.000000;0.286702
9084.000000;0.287178
9083.000000;0.287696
9082.000000;0.288264
9081.000000;0.288798
9080.000000;0.289171
9079.000000;0.289341
9078.000000;0.289397
9077.000000;0.289489
9076.000000;0.289739
9075.000000;0.290162
9074.000000;0.290670
9073.000000;0.291176
9072.000000;0.291682
9071.000000;0.292202
9070.000000;0.292660
9069.000000;0.292961
9068.000000;0.293158
9067.000000;0.293395
9066.000000;0.293719
9065.000000;0.294046
9064.000000;0.294346
9063.000000;0.294696
9062.000000;0.295113
9061.000000;0.295488
9060.000000;0.295755
9059.000000;0.296011
9058.000000;0.296356
9057.000000;0.296718
9056.000000;0.296946
9055.000000;0.297020
9054.000000;0.297075
9053.000000;0.297236
9052.000000;0.297515
9051.000000;0.297840
9050.000000;0.298144
9049.000000;0.298428
9048.000000;0.298792
9047.000000;0.299332
9046.000000;0.299996
9045.000000;0.300573
9044.000000;0.300866
9043.000000;0.300856
9042.000000;0.300666
9041.000000;0.300427
9040.000000;0.300239
9039.000000;0.300193
9038.000000;0.300359
9037.000000;0.300728
9036.000000;0.301211
9035.000000;0.301691
9034.000000;0.302089
9033.000000;0.302396
9032.000000;0.302681
9031.000000;0.303025
9030.000000;0.303438
9029.000000;0.303833
9028.000000;0.304100
9027.000000;0.304188
9026.000000;0.304144
9025.000000;0.304105
9024.000000;0.304221
9023.000000;0.304529
9022.000000;0.304902
9021.000000;0.305162
9020.000000;0.305258
9019.000000;0.305292
9018.000000;0.305401
9017.000000;0.305658
9016.000000;0.306037
9015.000000;0.306418
9014.000000;0.306653
9013.000000;0.306717
9012.000000;0.306770
9011.000000;0.306978
9010.000000;0.307302
9009.000000;0.307566
9008.000000;0.307728
9007.000000;0.307910
9006.000000;0.308173
9005.000000;0.308413
9004.000000;0.308537
9003.000000;0.308615
9002.000000;0.308743
9001.000000;0.308883
9000.000000;0.308954
8999.000000;0.308994
8998.000000;0.309111
8997.000000;0.309315
8996.000000;0.309524
8995.000000;0.309712
8994.000000;0.309927
8993.000000;0.310166
8992.000000;0.310324
8991.000000;0.310317
8990.000000;0.310200
8989.000000;0.310121
8988.000000;0.310177
8987.000000;0.310355
8986.000000;0.310597
8985.000000;0.310891
8984.000000;0.311257
8983.000000;0.311670
8982.000000;0.312007
8981.000000;0.312146
8980.000000;0.312072
8979.000000;0.311881
8978.000000;0.311688
8977.000000;0.311557
8976.000000;0.311521
8975.000000;0.311594
8974.000000;0.311762
8973.000000;0.311976
8972.000000;0.312180
8971.000000;0.312330
8970.000000;0.312417
8969.000000;0.312495
8968.000000;0.312642
8967.000000;0.312849
8966.000000;0.312986
8965.000000;0.312953
8964.000000;0.312823
8963.000000;0.312778
8962.000000;0.312915
8961.000000;0.313187
8960.000000;0.313494
8959.000000;0.313754
8958.000000;0.313909
8957.000000;0.313964
8956.000000;0.314008
8955.000000;0.314104
8954.000000;0.314184
8953.000000;0.314151
8952.000000;0.314053
8951.000000;0.314033
8950.000000;0.314113
8949.000000;0.314191
8948.000000;0.314242
8947.000000;0.314354
8946.000000;0.314511
8945.000000;0.314537
8944.000000;0.314368
8943.000000;0.314212
8942.000000;0.314321
8941.000000;0.314669
8940.000000;0.315015
8939.000000;0.315195
8938.000000;0.315232
8937.000000;0.315213
8936.000000;0.315224
8935.000000;0.315354
8934.000000;0.315635
8933.000000;0.315951
8932.000000;0.316114
8931.000000;0.316062
8930.000000;0.315923
8929.000000;0.315880
8928.000000;0.316029
8927.000000;0.316329
8926.000000;0.316625
8925.000000;0.316718
8924.000000;0.316484
8923.000000;0.315976
8922.000000;0.315394
8921.000000;0.314960
8920.000000;0.314833
8919.000000;0.315057
8918.000000;0.315511
8917.000000;0.315944
8916.000000;0.316158
8915.000000;0.316179
8914.000000;0.316181
8913.000000;0.316252
8912.000000;0.316308
8911.000000;0.316257
8910.000000;0.316145
8909.000000;0.316093
8908.000000;0.316138
8907.000000;0.316194
8906.000000;0.316157
8905.000000;0.316009
8904.000000;0.315818
8903.000000;0.315682
8902.000000;0.315673
8901.000000;0.315809
8900.000000;0.316050
8899.000000;0.316318
8898.000000;0.316515
8897.000000;0.316562
8896.000000;0.316422
8895.000000;0.316139
8894.000000;0.315826
8893.000000;0.315618
8892.000000;0.315574
8891.000000;0.315634
8890.000000;0.315687
8889.000000;0.315710
8888.000000;0.315797
8887.000000;0.316029
8886.000000;0.316324
8885.000000;0.316477
8884.000000;0.316353
8883.000000;0.316031
8882.000000;0.315733
8881.000000;0.315633
8880.000000;0.315710
8879.000000;0.315767
8878.000000;0.315614
8877.000000;0.315268
8876.000000;0.314983
8875.000000;0.315025
8874.000000;0.315414
8873.000000;0.315887
8872.000000;0.316152
8871.000000;0.316127
8870.000000;0.315951
8869.000000;0.315818
8868.000000;0.315820
8867.000000;0.315898
8866.000000;0.315903
8865.000000;0.315713
8864.000000;0.315339
8863.000000;0.314931
8862.000000;0.314659
8861.000000;0.314590
8860.000000;0.314671
8859.000000;0.314791
8858.000000;0.314865
8857.000000;0.314870
8856.000000;0.314857
8855.000000;0.314906
8854.000000;0.315042
8853.000000;0.315201
8852.000000;0.315269
8851.000000;0.315181
8850.000000;0.314968
8849.000000;0.314738
8848.000000;0.314610
8847.000000;0.314651
8846.000000;0.314841
8845.000000;0.315077
8844.000000;0.315228
8843.000000;0.315215
8842.000000;0.315075
8841.000000;0.314932
8840.000000;0.314883
8839.000000;0.314897
8838.000000;0.314884
8837.000000;0.314820
8836.000000;0.314773
8835.000000;0.314783
8834.000000;0.314797
8833.000000;0.314751
8832.000000;0.314664
8831.000000;0.314590
8830.000000;0.314527
8829.000000;0.314451
8828.000000;0.314409
8827.000000;0.314476
8826.000000;0.314623
8825.000000;0.314714
8824.000000;0.314679
8823.000000;0.314607
8822.000000;0.314628
8821.000000;0.314766
8820.000000;0.314940
8819.000000;0.315083
8818.000000;0.315175
8817.000000;0.315207
8816.000000;0.315184
8815.000000;0.315171
8814.000000;0.315260
8813.000000;0.315437
8812.000000;0.315530
8811.000000;0.315360
8810.000000;0.314968
8809.000000;0.314616
8808.000000;0.314524
8807.000000;0.314654
8806.000000;0.314813
8805.000000;0.314922
8804.000000;0.315061
8803.000000;0.315244
8802.000000;0.315305
8801.000000;0.315106
8800.000000;0.314776
8799.000000;0.314617
8798.000000;0.314775
8797.000000;0.315105
8796.000000;0.315345
8795.000000;0.315355
8794.000000;0.315179
8793.000000;0.314949
8792.000000;0.314790
8791.000000;0.314753
8790.000000;0.314799
8789.000000;0.314852
8788.000000;0.314863
8787.000000;0.314833
8786.000000;0.314814
8785.000000;0.314891
8784.000000;0.315126
8783.000000;0.315456
8782.000000;0.315677
8781.000000;0.315624
8780.000000;0.315361
8779.000000;0.315133
8778.000000;0.315132
8777.000000;0.315338
8776.000000;0.315608
8775.000000;0.315835
8774.000000;0.315999
8773.000000;0.316091
8772.000000;0.316060
8771.000000;0.315861
8770.000000;0.315566
8769.000000;0.315396
8768.000000;0.315571
8767.000000;0.316074
8766.000000;0.316599
8765.000000;0.316802
8764.000000;0.316611
8763.000000;0.316244
8762.000000;0.315966
8761.000000;0.315886
8760.000000;0.315964
8759.000000;0.316108
8758.000000;0.316234
8757.000000;0.316294
8756.000000;0.316296
8755.000000;0.316300
8754.000000;0.316369
8753.000000;0.316515
8752.000000;0.316698
8751.000000;0.316839
8750.000000;0.316871
8749.000000;0.316797
8748.000000;0.316702
8747.000000;0.316669
8746.000000;0.316703
8745.000000;0.316766
8744.000000;0.316842
8743.000000;0.316935
8742.000000;0.317029
8741.000000;0.317113
8740.000000;0.317200
8739.000000;0.317271
8738.000000;0.317258
8737.000000;0.317128
8736.000000;0.316985
8735.000000;0.316970
8734.000000;0.317099
8733.000000;0.317267
8732.000000;0.317392
8731.000000;0.317481
8730.000000;0.317530
8729.000000;0.317481
8728.000000;0.317297
8727.000000;0.317018
8726.000000;0.316717
8725.000000;0.316463
8724.000000;0.316344
8723.000000;0.316436
8722.000000;0.316699
8721.000000;0.316963
8720.000000;0.317058
8719.000000;0.316939
8718.000000;0.316702
8717.000000;0.316512
8716.000000;0.316511
8715.000000;0.316707
8714.000000;0.316919
8713.000000;0.316930
8712.000000;0.316736
8711.000000;0.316570
8710.000000;0.316623
8709.000000;0.316813
8708.000000;0.316902
8707.000000;0.316784
8706.000000;0.316568
8705.000000;0.316395
8704.000000;0.316279
8703.000000;0.316142
8702.000000;0.315974
8701.000000;0.315877
8700.000000;0.315969
8699.000000;0.316240
8698.000000;0.316517
8697.000000;0.316592
8696.000000;0.316380
8695.000000;0.315972
8694.000000;0.315550
8693.000000;0.315264
8692.000000;0.315154
8691.000000;0.315148
8690.000000;0.315134
8689.000000;0.315073
8688.000000;0.315040
8687.000000;0.315119
8686.000000;0.315271
8685.000000;0.315342
8684.000000;0.315228
8683.000000;0.314981
8682.000000;0.314734
8681.000000;0.314551
8680.000000;0.314399
8679.000000;0.314244
8678.000000;0.314147
8677.000000;0.314219
8676.000000;0.314461
8675.000000;0.314657
8674.000000;0.314519
8673.000000;0.313970
8672.000000;0.313251
8671.000000;0.312697
8670.000000;0.312424
8669.000000;0.312281
8668.000000;0.312087
8667.000000;0.311813
8666.000000;0.311552
8665.000000;0.311383
8664.000000;0.311317
8663.000000;0.311311
8662.000000;0.311304
8661.000000;0.311239
8660.000000;0.311082
8659.000000;0.310825
8658.000000;0.310485
8657.000000;0.310132
8656.000000;0.309873
8655.000000;0.309769
8654.000000;0.309748
8653.000000;0.309663
8652.000000;0.309435
8651.000000;0.309108
8650.000000;0.308773
8649.000000;0.308468
8648.000000;0.308162
8647.000000;0.307797
8646.000000;0.307367
8645.000000;0.306969
8644.000000;0.306740
8643.000000;0.306692
8642.000000;0.306651
8641.000000;0.306437
8640.000000;0.306072
8639.000000;0.305739
8638.000000;0.305544
8637.000000;0.305422
8636.000000;0.305275
8635.000000;0.305083
8634.000000;0.304859
8633.000000;0.304590
8632.000000;0.304292
8631.000000;0.304034
8630.000000;0.303837
8629.000000;0.303603
8628.000000;0.303231
8627.000000;0.302768
8626.000000;0.302373
8625.000000;0.302140
8624.000000;0.302010
8623.000000;0.301851
8622.000000;0.301592
8621.000000;0.301267
8620.000000;0.300955
8619.000000;0.300700
8618.000000;0.300473
8617.000000;0.300197
8616.000000;0.299815
8615.000000;0.299329
8614.000000;0.298806
8613.000000;0.298355
8612.000000;0.298049
8611.000000;0.297859
8610.000000;0.297666
8609.000000;0.297404
8608.000000;0.297154
8607.000000;0.297022
8606.000000;0.296955
8605.000000;0.296760
8604.000000;0.296331
8603.000000;0.295790
8602.000000;0.295349
8601.000000;0.295090
8600.000000;0.294913
8599.000000;0.294672
8598.000000;0.294302
8597.000000;0.293840
8596.000000;0.293368
8595.000000;0.292958
8594.000000;0.292635
8593.000000;0.292376
8592.000000;0.292129
8591.000000;0.291842
8590.000000;0.291496
8589.000000;0.291131
8588.000000;0.290798
8587.000000;0.290477
8586.000000;0.290077
8585.000000;0.289554
8584.000000;0.289011
8583.000000;0.288601
8582.000000;0.288354
8581.000000;0.288152
8580.000000;0.287899
8579.000000;0.287627
8578.000000;0.287425
8577.000000;0.287298
8576.000000;0.287145
8575.000000;0.286844
8574.000000;0.286349
8573.000000;0.285745
8572.000000;0.285210
8571.000000;0.284884
8570.000000;0.284746
8569.000000;0.284641
8568.000000;0.284440
8567.000000;0.284138
8566.000000;0.283798
8565.000000;0.283452
8564.000000;0.283099
8563.000000;0.282751
8562.000000;0.282430
8561.000000;0.282128
8560.000000;0.281808
8559.000000;0.281424
8558.000000;0.280960
8557.000000;0.280441
8556.000000;0.279950
8555.000000;0.279578
8554.000000;0.279366
8553.000000;0.279269
8552.000000;0.279198
8551.000000;0.279071
8550.000000;0.278819
8549.000000;0.278409
8548.000000;0.277877
8547.000000;0.277325
8546.000000;0.276863
8545.000000;0.276532
8544.000000;0.276289
8543.000000;0.276055
8542.000000;0.275779
8541.000000;0.275470
8540.000000;0.275169
8539.000000;0.274885
8538.000000;0.274575
8537.000000;0.274193
8536.000000;0.273766
8535.000000;0.273374
8534.000000;0.273049
8533.000000;0.272730
8532.000000;0.272351
8531.000000;0.271939
8530.000000;0.271601
8529.000000;0.271397
8528.000000;0.271238
8527.000000;0.270951
8526.000000;0.270455
8525.000000;0.269863
8524.000000;0.269366
8523.000000;0.269034
8522.000000;0.268780
8521.000000;0.268509
8520.000000;0.268222
8519.000000;0.267934
8518.000000;0.267590
8517.000000;0.267141
8516.000000;0.266666
8515.000000;0.266302
8514.000000;0.266067
8513.000000;0.265849
8512.000000;0.265558
8511.000000;0.265240
8510.000000;0.264989
8509.000000;0.264827
8508.000000;0.264682
8507.000000;0.264452
8506.000000;0.264062
8505.000000;0.263530
8504.000000;0.262987
8503.000000;0.262585
8502.000000;0.262349
8501.000000;0.262159
8500.000000;0.261893
8499.000000;0.261543
8498.000000;0.261164
8497.000000;0.260759
8496.000000;0.260281
8495.000000;0.259729
8494.000000;0.259188
8493.000000;0.258764
8492.000000;0.258492
8491.000000;0.258307
8490.000000;0.258107
8489.000000;0.257837
8488.000000;0.257507
8487.000000;0.257138
8486.000000;0.256726
8485.000000;0.256288
8484.000000;0.255901
8483.000000;0.255659
8482.000000;0.255572
8481.000000;0.255551
8480.000000;0.255482
8479.000000;0.255275
8478.000000;0.254868
8477.000000;0.254263
8476.000000;0.253600
8475.000000;0.253115
8474.000000;0.252940
8473.000000;0.252957
8472.000000;0.252884
8471.000000;0.252537
8470.000000;0.251979
8469.000000;0.251446
8468.000000;0.251117
8467.000000;0.250961
8466.000000;0.250783
8465.000000;0.250428
8464.000000;0.249926
8463.000000;0.249443
8462.000000;0.249069
8461.000000;0.248731
8460.000000;0.248319
8459.000000;0.247856
8458.000000;0.247494
8457.000000;0.247334
8456.000000;0.247311
8455.000000;0.247256
8454.000000;0.247057
8453.000000;0.246735
8452.000000;0.246384
8451.000000;0.246070
8450.000000;0.245785
8449.000000;0.245487
8448.000000;0.245150
8447.000000;0.244783
8446.000000;0.244419
8445.000000;0.244076
8444.000000;0.243744
8443.000000;0.243406
8442.000000;0.243069
8441.000000;0.242776
8440.000000;0.242545
8439.000000;0.242340
8438.000000;0.242112
8437.000000;0.241862
8436.000000;0.241624
8435.000000;0.241407
8434.000000;0.241194
8433.000000;0.240993
8432.000000;0.240821
8431.000000;0.240645
8430.000000;0.240393
8429.000000;0.240061
8428.000000;0.239716
8427.000000;0.239400
8426.000000;0.239078
8425.000000;0.238726
8424.000000;0.238398
8423.000000;0.238124
8422.000000;0.237833
8421.000000;0.237445
8420.000000;0.237011
8419.000000;0.236669
8418.000000;0.236463
8417.000000;0.236304
8416.000000;0.236103
8415.000000;0.235861
8414.000000;0.235607
8413.000000;0.235325
8412.000000;0.234987
8411.000000;0.234620
8410.000000;0.234291
8409.000000;0.234046
8408.000000;0.233879
8407.000000;0.233750
8406.000000;0.233618
8405.000000;0.233453
8404.000000;0.233242
8403.000000;0.232961
8402.000000;0.232587
8401.000000;0.232136
8400.000000;0.231684
8399.000000;0.231306
8398.000000;0.231035
8397.000000;0.230868
8396.000000;0.230777
8395.000000;0.230679
8394.000000;0.230455
8393.000000;0.230064
8392.000000;0.229615
8391.000000;0.229267
8390.000000;0.229062
8389.000000;0.228906
8388.000000;0.228702
8387.000000;0.228423
8386.000000;0.228084
8385.000000;0.227706
8384.000000;0.227336
8383.000000;0.227041
8382.000000;0.226842
8381.000000;0.226684
8380.000000;0.226487
8379.000000;0.226191
8378.000000;0.225787
8377.000000;0.225332
8376.000000;0.224936
8375.000000;0.224672
8374.000000;0.224502
8373.000000;0.224324
8372.000000;0.224102
8371.000000;0.223892
8370.000000;0.223736
8369.000000;0.223584
8368.000000;0.223361
8367.000000;0.223049
8366.000000;0.222687
8365.000000;0.222326
8364.000000;0.222008
8363.000000;0.221767
8362.000000;0.221592
8361.000000;0.221432
8360.000000;0.221232
8359.000000;0.220983
8358.000000;0.220702
8357.000000;0.220414
8356.000000;0.220130
8355.000000;0.219845
8354.000000;0.219543
8353.000000;0.219228
8352.000000;0.218952
8351.000000;0.218767
8350.000000;0.218656
8349.000000;0.218531
8348.000000;0.218319
8347.000000;0.218023
8346.000000;0.217688
8345.000000;0.217337
8344.000000;0.216965
8343.000000;0.216574
8342.000000;0.216190
8341.000000;0.215851
8340.000000;0.215566
8339.000000;0.215308
8338.000000;0.215041
8337.000000;0.214759
8336.000000;0.214505
8335.000000;0.214316
8334.000000;0.214176
8333.000000;0.214044
8332.000000;0.213904
8331.000000;0.213762
8330.000000;0.213607
8329.000000;0.213416
8328.000000;0.213192
8327.000000;0.212957
8326.000000;0.212712
8325.000000;0.212438
8324.000000;0.212141
8323.000000;0.211861
8322.000000;0.211628
8321.000000;0.211424
8320.000000;0.211222
8319.000000;0.211031
8318.000000;0.210882
8317.000000;0.210767
8316.000000;0.210621
8315.000000;0.210357
8314.000000;0.209960
8313.000000;0.209522
8312.000000;0.209186
8311.000000;0.209022
8310.000000;0.208960
8309.000000;0.208863
8308.000000;0.208646
8307.000000;0.208335
8306.000000;0.208036
8305.000000;0.207849
8304.000000;0.207786
8303.000000;0.207736
8302.000000;0.207538
8301.000000;0.207147
8300.000000;0.206693
8299.000000;0.206354
8298.000000;0.206186
8297.000000;0.206095
8296.000000;0.205956
8295.000000;0.205710
8294.000000;0.205390
8293.000000;0.205079
8292.000000;0.204853
8291.000000;0.204714
8290.000000;0.204584
8289.000000;0.204396
8288.000000;0.204157
8287.000000;0.203902
8286.000000;0.203627
8285.000000;0.203324
8284.000000;0.203044
8283.000000;0.202832
8282.000000;0.202642
8281.000000;0.202389
8280.000000;0.202091
8279.000000;0.201856
8278.000000;0.201723
8277.000000;0.201618
8276.000000;0.201483
8275.000000;0.201363
8274.000000;0.201295
8273.000000;0.201197
8272.000000;0.200958
8271.000000;0.200586
8270.000000;0.200204
8269.000000;0.199903
8268.000000;0.199683
8267.000000;0.199507
8266.000000;0.199369
8265.000000;0.199266
8264.000000;0.199163
8263.000000;0.199022
8262.000000;0.198841
8261.000000;0.198649
8260.000000;0.198467
8259.000000;0.198281
8258.000000;0.198065
8257.000000;0.197819
8256.000000;0.197578
8255.000000;0.197370
8254.000000;0.197194
8253.000000;0.197031
8252.000000;0.196867
8251.000000;0.196694
8250.000000;0.196507
8249.000000;0.196334
8248.000000;0.196235
8247.000000;0.196233
8246.000000;0.196240
8245.000000;0.196122
8244.000000;0.195824
8243.000000;0.195428
8242.000000;0.195053
8241.000000;0.194775
8240.000000;0.194622
8239.000000;0.194601
8238.000000;0.194667
8237.000000;0.194710
8236.000000;0.194627
8235.000000;0.194430
8234.000000;0.194208
8233.000000;0.194011
8232.000000;0.193805
8231.000000;0.193554
8230.000000;0.193305
8229.000000;0.193141
8228.000000;0.193069
8227.000000;0.193007
8226.000000;0.192884
8225.000000;0.192707
8224.000000;0.192529
8223.000000;0.192358
8222.000000;0.192166
8221.000000;0.191944
8220.000000;0.191739
8219.000000;0.191615
8218.000000;0.191607
8217.000000;0.191699
8216.000000;0.191822
8215.000000;0.191870
8214.000000;0.191777
8213.000000;0.191579
8212.000000;0.191375
8211.000000;0.191213
8210.000000;0.191041
8209.000000;0.190798
8208.000000;0.190499
8207.000000;0.190203
8206.000000;0.189935
8205.000000;0.189679
8204.000000;0.189460
8203.000000;0.189345
8202.000000;0.189359
8201.000000;0.189427
8200.000000;0.189421
8199.000000;0.189277
8198.000000;0.189051
8197.000000;0.188844
8196.000000;0.188679
8195.000000;0.188479
8194.000000;0.188191
8193.000000;0.187893
8192.000000;0.187725
8191.000000;0.187717
8190.000000;0.187749
8189.000000;0.187711
8188.000000;0.187618
8187.000000;0.187524
8186.000000;0.187406
8185.000000;0.187219
8184.000000;0.187010
8183.000000;0.186896
8182.000000;0.186913
8181.000000;0.186975
8180.000000;0.186972
8179.000000;0.186873
8178.000000;0.186706
8177.000000;0.186501
8176.000000;0.186286
8175.000000;0.186096
8174.000000;0.185957
8173.000000;0.185865
8172.000000;0.185788
8171.000000;0.185682
8170.000000;0.185518
8169.000000;0.185329
8168.000000;0.185205
8167.000000;0.185212
8166.000000;0.185305
8165.000000;0.185351
8164.000000;0.185250
8163.000000;0.185021
8162.000000;0.184769
8161.000000;0.184593
8160.000000;0.184527
8159.000000;0.184546
8158.000000;0.184589
8157.000000;0.184598
8156.000000;0.184536
8155.000000;0.184387
8154.000000;0.184165
8153.000000;0.183929
8152.000000;0.183765
8151.000000;0.183721
8150.000000;0.183754
8149.000000;0.183770
8148.000000;0.183708
8147.000000;0.183586
8146.000000;0.183477
8145.000000;0.183438
8144.000000;0.183461
8143.000000;0.183469
8142.000000;0.183382
8141.000000;0.183196
8140.000000;0.182982
8139.000000;0.182810
8138.000000;0.182698
8137.000000;0.182637
8136.000000;0.182623
8135.000000;0.182637
8134.000000;0.182617
8133.000000;0.182512
8132.000000;0.182336
8131.000000;0.182154
8130.000000;0.182020
8129.000000;0.181960
8128.000000;0.181979
8127.000000;0.182049
8126.000000;0.182098
8125.000000;0.182060
8124.000000;0.181923
8123.000000;0.181723
8122.000000;0.181515
8121.000000;0.181347
8120.000000;0.181246
8119.000000;0.181192
8118.000000;0.181130
8117.000000;0.181046
8116.000000;0.180988
8115.000000;0.180988
8114.000000;0.180997
8113.000000;0.180951
8112.000000;0.180867
8111.000000;0.180806
8110.000000;0.180767
8109.000000;0.180684
8108.000000;0.180519
8107.000000;0.180323
8106.000000;0.180186
8105.000000;0.180152
8104.000000;0.180180
8103.000000;0.180182
8102.000000;0.180090
8101.000000;0.179939
8100.000000;0.179851
8099.000000;0.179915
8098.000000;0.180089
8097.000000;0.180239
8096.000000;0.180246
8095.000000;0.180073
8094.000000;0.179753
8093.000000;0.179381
8092.000000;0.179093
8091.000000;0.178991
8090.000000;0.179065
8089.000000;0.179205
8088.000000;0.179307
8087.000000;0.179351
8086.000000;0.179378
8085.000000;0.179425
8084.000000;0.179478
8083.000000;0.179469
8082.000000;0.179346
8081.000000;0.179142
8080.000000;0.178958
8079.000000;0.178856
8078.000000;0.178806
8077.000000;0.178757
8076.000000;0.178718
8075.000000;0.178740
8074.000000;0.178841
8073.000000;0.178976
8072.000000;0.179058
8071.000000;0.178986
8070.000000;0.178721
8069.000000;0.178371
8068.000000;0.178141
8067.000000;0.178130
8066.000000;0.178232
8065.000000;0.178286
8064.000000;0.178259
8063.000000;0.178207
8062.000000;0.178144
8061.000000;0.178046
8060.000000;0.177954
8059.000000;0.177933
8058.000000;0.177959
8057.000000;0.177944
8056.000000;0.177895
8055.000000;0.177907
8054.000000;0.178008
8053.000000;0.178115
8052.000000;0.178170
8051.000000;0.178215
8050.000000;0.178281
8049.000000;0.178295
8048.000000;0.178175
8047.000000;0.177950
8046.000000;0.177735
8045.000000;0.177620
8044.000000;0.177634
8043.000000;0.177745
8042.000000;0.177869
8041.000000;0.177907
8040.000000;0.177819
8039.000000;0.177651
8038.000000;0.177470
8037.000000;0.177326
8036.000000;0.177259
8035.000000;0.177291
8034.000000;0.177364
8033.000000;0.177371
8032.000000;0.177284
8031.000000;0.177196
8030.000000;0.177204
8029.000000;0.177280
8028.000000;0.177331
8027.000000;0.177315
8026.000000;0.177264
8025.000000;0.177216
8024.000000;0.177175
8023.000000;0.177144
8022.000000;0.177123
8021.000000;0.177095
8020.000000;0.177037
8019.000000;0.176966
8018.000000;0.176932
8017.000000;0.176976
8016.000000;0.177091
8015.000000;0.177227
8014.000000;0.177330
8013.000000;0.177368
8012.000000;0.177347
8011.000000;0.177286
8010.000000;0.177201
8009.000000;0.177109
8008.000000;0.177019
8007.000000;0.176916
8006.000000;0.176768
8005.000000;0.176600
8004.000000;0.176512
8003.000000;0.176580
8002.000000;0.176734
8001.000000;0.176818
8000.000000;0.176772
7999.000000;0.176684
7998.000000;0.176664
7997.000000;0.176720
7996.000000;0.176792
7995.000000;0.176834
7994.000000;0.176828
7993.000000;0.176752
7992.000000;0.176615
7991.000000;0.176480
7990.000000;0.176415
7989.000000;0.176424
7988.000000;0.176454
7987.000000;0.176461
7986.000000;0.176438
7985.000000;0.176389
7984.000000;0.176320
7983.000000;0.176252
7982.000000;0.176215
7981.000000;0.176227
7980.000000;0.176284
7979.000000;0.176360
7978.000000;0.176422
7977.000000;0.176442
7976.000000;0.176415
7975.000000;0.176342
7974.000000;0.176228
7973.000000;0.176098
7972.000000;0.176011
7971.000000;0.176021
7970.000000;0.176122
7969.000000;0.176257
7968.000000;0.176379
7967.000000;0.176470
7966.000000;0.176514
7965.000000;0.176495
7964.000000;0.176438
7963.000000;0.176399
7962.000000;0.176416
7961.000000;0.176480
7960.000000;0.176560
7959.000000;0.176624
7958.000000;0.176635
7957.000000;0.176578
7956.000000;0.176505
7955.000000;0.176493
7954.000000;0.176547
7953.000000;0.176587
7952.000000;0.176558
7951.000000;0.176502
7950.000000;0.176497
7949.000000;0.176558
7948.000000;0.176645
7947.000000;0.176729
7946.000000;0.176809
7945.000000;0.176875
7944.000000;0.176905
7943.000000;0.176895
7942.000000;0.176858
7941.000000;0.176801
7940.000000;0.176710
7939.000000;0.176580
7938.000000;0.176431
7937.000000;0.176313
7936.000000;0.176274
7935.000000;0.176320
7934.000000;0.176395
7933.000000;0.176435
7932.000000;0.176446
7931.000000;0.176492
7930.000000;0.176593
7929.000000;0.176680
7928.000000;0.176675
7927.000000;0.176579
7926.000000;0.176467
7925.000000;0.176408
7924.000000;0.176429
7923.000000;0.176517
7922.000000;0.176630
7921.000000;0.176707
7920.000000;0.176704
7919.000000;0.176636
7918.000000;0.176571
7917.000000;0.176578
7916.000000;0.176676
7915.000000;0.176815
7914.000000;0.176914
7913.000000;0.176934
7912.000000;0.176912
7911.000000;0.176914
7910.000000;0.176952
7909.000000;0.176993
7908.000000;0.177017
7907.000000;0.177044
7906.000000;0.177085
7905.000000;0.177118
7904.000000;0.177129
7903.000000;0.177143
7902.000000;0.177174
7901.000000;0.177184
7900.000000;0.177134
7899.000000;0.177046
7898.000000;0.176981
7897.000000;0.176968
7896.000000;0.176992
7895.000000;0.177034
7894.000000;0.177091
7893.000000;0.177161
7892.000000;0.177231
7891.000000;0.177291
7890.000000;0.177340
7889.000000;0.177380
7888.000000;0.177414
7887.000000;0.177464
7886.000000;0.177550
7885.000000;0.177662
7884.000000;0.177763
7883.000000;0.177823
7882.000000;0.177857
7881.000000;0.177912
7880.000000;0.178014
7879.000000;0.178135
7878.000000;0.178211
7877.000000;0.178198
7876.000000;0.178121
7875.000000;0.178048
7874.000000;0.178027
7873.000000;0.178057
7872.000000;0.178110
7871.000000;0.178169
7870.000000;0.178244
7869.000000;0.178351
7868.000000;0.178475
7867.000000;0.178564
7866.000000;0.178576
7865.000000;0.178537
7864.000000;0.178533
7863.000000;0.178615
7862.000000;0.178732
7861.000000;0.178781
7860.000000;0.178722
7859.000000;0.178610
7858.000000;0.178522
7857.000000;0.178497
7856.000000;0.178529
7855.000000;0.178595
7854.000000;0.178669
7853.000000;0.178732
7852.000000;0.178790
7851.000000;0.178862
7850.000000;0.178948
7849.000000;0.179043
7848.000000;0.179147
7847.000000;0.179240
7846.000000;0.179267
7845.000000;0.179203
7844.000000;0.179124
7843.000000;0.179162
7842.000000;0.179349
7841.000000;0.179573
7840.000000;0.179709
7839.000000;0.179747
7838.000000;0.179766
7837.000000;0.179807
7836.000000;0.179842
7835.000000;0.179827
7834.000000;0.179768
7833.000000;0.179725
7832.000000;0.179781
7831.000000;0.179971
7830.000000;0.180221
7829.000000;0.180400
7828.000000;0.180441
7827.000000;0.180408
7826.000000;0.180404
7825.000000;0.180451
7824.000000;0.180494
7823.000000;0.180506
7822.000000;0.180531
7821.000000;0.180610
7820.000000;0.180716
7819.000000;0.180771
7818.000000;0.180728
7817.000000;0.180626
7816.000000;0.180566
7815.000000;0.180631
7814.000000;0.180817
7813.000000;0.181043
7812.000000;0.181225
7811.000000;0.181334
7810.000000;0.181387
7809.000000;0.181402
7808.000000;0.181398
7807.000000;0.181406
7806.000000;0.181458
7805.000000;0.181556
7804.000000;0.181659
7803.000000;0.181711
7802.000000;0.181702
7801.000000;0.181686
7800.000000;0.181737
7799.000000;0.181864
7798.000000;0.182006
7797.000000;0.182110
7796.000000;0.182193
7795.000000;0.182284
7794.000000;0.182358
7793.000000;0.182381
7792.000000;0.182405
7791.000000;0.182524
7790.000000;0.182736
7789.000000;0.182913
7788.000000;0.182969
7787.000000;0.182960
7786.000000;0.182996
7785.000000;0.183095
7784.000000;0.183205
7783.000000;0.183318
7782.000000;0.183477
7781.000000;0.183673
7780.000000;0.183822
7779.000000;0.183861
7778.000000;0.183813
7777.000000;0.183740
7776.000000;0.183681
7775.000000;0.183657
7774.000000;0.183712
7773.000000;0.183879
7772.000000;0.184121
7771.000000;0.184333
7770.000000;0.184428
7769.000000;0.184426
7768.000000;0.184426
7767.000000;0.184503
7766.000000;0.184630
7765.000000;0.184722
7764.000000;0.184746
7763.000000;0.184752
7762.000000;0.184801
7761.000000;0.184911
7760.000000;0.185058
7759.000000;0.185214
7758.000000;0.185349
7757.000000;0.185456
7756.000000;0.185579
7755.000000;0.185786
7754.000000;0.186073
7753.000000;0.186330
7752.000000;0.186444
7751.000000;0.186425
7750.000000;0.186390
7749.000000;0.186429
7748.000000;0.186529
7747.000000;0.186624
7746.000000;0.186686
7745.000000;0.186740
7744.000000;0.186821
7743.000000;0.186932
7742.000000;0.187050
7741.000000;0.187161
7740.000000;0.187283
7739.000000;0.187455
7738.000000;0.187694
7737.000000;0.187957
7736.000000;0.188164
7735.000000;0.188272
7734.000000;0.188313
7733.000000;0.188368
7732.000000;0.188494
7731.000000;0.188670
7730.000000;0.188815
7729.000000;0.188885
7728.000000;0.188920
7727.000000;0.188999
7726.000000;0.189152
7725.000000;0.189360
7724.000000;0.189601
7723.000000;0.189862
7722.000000;0.190085
7721.000000;0.190178
7720.000000;0.190118
7719.000000;0.190000
7718.000000;0.189960
7717.000000;0.190066
7716.000000;0.190297
7715.000000;0.190586
7714.000000;0.190852
7713.000000;0.191029
7712.000000;0.191111
7711.000000;0.191168
7710.000000;0.191261
7709.000000;0.191371
7708.000000;0.191439
7707.000000;0.191463
7706.000000;0.191505
7705.000000;0.191611
7704.000000;0.191774
7703.000000;0.191969
7702.000000;0.192178
7701.000000;0.192374
7700.000000;0.192528
7699.000000;0.192654
7698.000000;0.192806
7697.000000;0.193013
7696.000000;0.193231
7695.000000;0.193402
7694.000000;0.193514
7693.000000;0.193600
7692.000000;0.193688
7691.000000;0.193778
7690.000000;0.193864
7689.000000;0.193953
7688.000000;0.194067
7687.000000;0.194212
7686.000000;0.194375
7685.000000;0.194528
7684.000000;0.194668
7683.000000;0.194822
7682.000000;0.195013
7681.000000;0.195219
7680.000000;0.195395
7679.000000;0.195538
7678.000000;0.195701
7677.000000;0.195935
7676.000000;0.196216
7675.000000;0.196469
7674.000000;0.196638
7673.000000;0.196742
7672.000000;0.196839
7671.000000;0.196964
7670.000000;0.197119
7669.000000;0.197308
7668.000000;0.197547
7667.000000;0.197827
7666.000000;0.198091
7665.000000;0.198289
7664.000000;0.198439
7663.000000;0.198600
7662.000000;0.198771
7661.000000;0.198891
7660.000000;0.198935
7659.000000;0.198981
7658.000000;0.199120
7657.000000;0.199349
7656.000000;0.199587
7655.000000;0.199776
7654.000000;0.199921
7653.000000;0.200041
7652.000000;0.200140
7651.000000;0.200244
7650.000000;0.200402
7649.000000;0.200645
7648.000000;0.200953
7647.000000;0.201280
7646.000000;0.201587
7645.000000;0.201840
7644.000000;0.202015
7643.000000;0.202115
7642.000000;0.202199
7641.000000;0.202350
7640.000000;0.202626
7639.000000;0.203012
7638.000000;0.203422
7637.000000;0.203737
7636.000000;0.203879
7635.000000;0.203872
7634.000000;0.203835
7633.000000;0.203903
7632.000000;0.204135
7631.000000;0.204486
7630.000000;0.204852
7629.000000;0.205147
7628.000000;0.205357
7627.000000;0.205524
7626.000000;0.205704
7625.000000;0.205931
7624.000000;0.206202
7623.000000;0.206475
7622.000000;0.206692
7621.000000;0.206828
7620.000000;0.206935
7619.000000;0.207103
7618.000000;0.207366
7617.000000;0.207667
7616.000000;0.207936
7615.000000;0.208159
7614.000000;0.208373
7613.000000;0.208604
7612.000000;0.208860
7611.000000;0.209138
7610.000000;0.209432
7609.000000;0.209710
7608.000000;0.209945
7607.000000;0.210158
7606.000000;0.210410
7605.000000;0.210733
7604.000000;0.211098
7603.000000;0.211442
7602.000000;0.211721
7601.000000;0.211949
7600.000000;0.212179
7599.000000;0.212458
7598.000000;0.212775
7597.000000;0.213078
7596.000000;0.213343
7595.000000;0.213604
7594.000000;0.213896
7593.000000;0.214193
7592.000000;0.214450
7591.000000;0.214689
7590.000000;0.214972
7589.000000;0.215292
7588.000000;0.215557
7587.000000;0.215715
7586.000000;0.215837
7585.000000;0.216043
7584.000000;0.216365
7583.000000;0.216743
7582.000000;0.217114
7581.000000;0.217467
7580.000000;0.217813
7579.000000;0.218140
7578.000000;0.218434
7577.000000;0.218704
7576.000000;0.218980
7575.000000;0.219278
7574.000000;0.219593
7573.000000;0.219908
7572.000000;0.220216
7571.000000;0.220522
7570.000000;0.220833
7569.000000;0.221145
7568.000000;0.221452
7567.000000;0.221750
7566.000000;0.222036
7565.000000;0.222314
7564.000000;0.222603
7563.000000;0.222939
7562.000000;0.223345
7561.000000;0.223796
7560.000000;0.224220
7559.000000;0.224565
7558.000000;0.224841
7557.000000;0.225106
7556.000000;0.225397
7555.000000;0.225703
7554.000000;0.226009
7553.000000;0.226334
7552.000000;0.226708
7551.000000;0.227123
7550.000000;0.227530
7549.000000;0.227890
7548.000000;0.228217
7547.000000;0.228552
7546.000000;0.228910
7545.000000;0.229277
7544.000000;0.229627
7543.000000;0.229941
7542.000000;0.230204
7541.000000;0.230431
7540.000000;0.230687
7539.000000;0.231050
7538.000000;0.231530
7537.000000;0.232058
7536.000000;0.232538
7535.000000;0.232923
7534.000000;0.233233
7533.000000;0.233533
7532.000000;0.233886
7531.000000;0.234307
7530.000000;0.234745
7529.000000;0.235144
7528.000000;0.235520
7527.000000;0.235931
7526.000000;0.236373
7525.000000;0.236770
7524.000000;0.237081
7523.000000;0.237360
7522.000000;0.237682
7521.000000;0.238048
7520.000000;0.238404
7519.000000;0.238729
7518.000000;0.239061
7517.000000;0.239439
7516.000000;0.239880
7515.000000;0.240379
7514.000000;0.240913
7513.000000;0.241436
7512.000000;0.241920
7511.000000;0.242383
7510.000000;0.242842
7509.000000;0.243280
7508.000000;0.243662
7507.000000;0.243996
7506.000000;0.244314
7505.000000;0.244636
7504.000000;0.244968
7503.000000;0.245323
7502.000000;0.245716
7501.000000;0.246141
7500.000000;0.246592
7499.000000;0.247070
7498.000000;0.247561
7497.000000;0.248017
7496.000000;0.248415
7495.000000;0.248799
7494.000000;0.249224
7493.000000;0.249663
7492.000000;0.250048
7491.000000;0.250348
7490.000000;0.250755
7489.000000;0.251077
7488.000000;0.251460
7487.000000;0.251926
7486.000000;0.252444
7485.000000;0.252956
7484.000000;0.253417
7483.000000;0.253854
7482.000000;0.254329
7481.000000;0.254845
7480.000000;0.255348
7479.000000;0.255809
7478.000000;0.256251
7477.000000;0.256697
7476.000000;0.257145
7475.000000;0.257590
7474.000000;0.258025
7473.000000;0.258439
7472.000000;0.258835
7471.000000;0.259251
7470.000000;0.259701
7469.000000;0.260135
7468.000000;0.260500
7467.000000;0.260822
7466.000000;0.261168
7465.000000;0.261547
7464.000000;0.261921
7463.000000;0.262291
7462.000000;0.262703
7461.000000;0.263168
7460.000000;0.263650
7459.000000;0.264148
7458.000000;0.264696
7457.000000;0.265290
7456.000000;0.265859
7455.000000;0.266337
7454.000000;0.266709
7453.000000;0.266997
7452.000000;0.267259
7451.000000;0.267584
7450.000000;0.268022
7449.000000;0.268516
7448.000000;0.268966
7447.000000;0.269361
7446.000000;0.269772
7445.000000;0.270220
7444.000000;0.270649
7443.000000;0.271040
7442.000000;0.271457
7441.000000;0.271946
7440.000000;0.272472
7439.000000;0.272995
7438.000000;0.273514
7437.000000;0.274022
7436.000000;0.274500
7435.000000;0.274972
7434.000000;0.275494
7433.000000;0.276035
7432.000000;0.276474
7431.000000;0.276758
7430.000000;0.276988
7429.000000;0.277310
7428.000000;0.277762
7427.000000;0.278270
7426.000000;0.278729
7425.000000;0.279086
7424.000000;0.279398
7423.000000;0.279839
7422.000000;0.280555
7421.000000;0.281481
7420.000000;0.282347
7419.000000;0.282969
7418.000000;0.283428
7417.000000;0.283921
7416.000000;0.284506
7415.000000;0.285098
7414.000000;0.285626
7413.000000;0.286103
7412.000000;0.286567
7411.000000;0.287030
7410.000000;0.287471
7409.000000;0.287866
7408.000000;0.288240
7407.000000;0.288665
7406.000000;0.289143
7405.000000;0.289573
7404.000000;0.289912
7403.000000;0.290315
7402.000000;0.290992
7401.000000;0.291922
7400.000000;0.292830
7399.000000;0.293489
7398.000000;0.293923
7397.000000;0.294323
7396.000000;0.294886
7395.000000;0.295654
7394.000000;0.296409
7393.000000;0.296897
7392.000000;0.297216
7391.000000;0.297754
7390.000000;0.298683
7389.000000;0.299748
7388.000000;0.300675
7387.000000;0.301572
7386.000000;0.302643
7385.000000;0.303752
7384.000000;0.304662
7383.000000;0.305539
7382.000000;0.306706
7381.000000;0.307968
7380.000000;0.308776
7379.000000;0.309232
7378.000000;0.310284
7377.000000;0.312402
7376.000000;0.314623
7375.000000;0.315572
7374.000000;0.315170
7373.000000;0.314690
7372.000000;0.315159
7371.000000;0.316278
7370.000000;0.316980
7369.000000;0.316616
7368.000000;0.315509
7367.000000;0.314665
7366.000000;0.314903
7365.000000;0.316047
7364.000000;0.317130
7363.000000;0.317479
7362.000000;0.317293
7361.000000;0.317165
7360.000000;0.317410
7359.000000;0.318169
7358.000000;0.319745
7357.000000;0.322031
7356.000000;0.323895
7355.000000;0.324167
7354.000000;0.323266
7353.000000;0.322919
7352.000000;0.324157
7351.000000;0.326360
7350.000000;0.328211
7349.000000;0.328997
7348.000000;0.328976
7347.000000;0.329160
7346.000000;0.330670
7345.000000;0.333592
7344.000000;0.336680
7343.000000;0.338954
7342.000000;0.341267
7341.000000;0.345025
7340.000000;0.349610
7339.000000;0.352583
7338.000000;0.352791
7337.000000;0.351729
7336.000000;0.351138
7335.000000;0.350707
7334.000000;0.349058
7333.000000;0.346056
7332.000000;0.342985
7331.000000;0.341118
7330.000000;0.340935
7329.000000;0.341961
7328.000000;0.342814
7327.000000;0.342480
7326.000000;0.342056
7325.000000;0.343860
7324.000000;0.348138
7323.000000;0.352123
7322.000000;0.353334
7321.000000;0.352509
7320.000000;0.352143
7319.000000;0.353008
7318.000000;0.353515
7317.000000;0.352140
7316.000000;0.349184
7315.000000;0.346147
7314.000000;0.344360
7313.000000;0.344311
7312.000000;0.345430
7311.000000;0.346537
7310.000000;0.347357
7309.000000;0.349146
7308.000000;0.352741
7307.000000;0.356696
7306.000000;0.358781
7305.000000;0.359029
7304.000000;0.359729
7303.000000;0.362234
7302.000000;0.365259
7301.000000;0.366740
7300.000000;0.366180
7299.000000;0.364694
7298.000000;0.363708
7297.000000;0.364278
7296.000000;0.366612
7295.000000;0.369363
7294.000000;0.370440
7293.000000;0.369458
7292.000000;0.368732
7291.000000;0.370614
7290.000000;0.374469
7289.000000;0.377409
7288.000000;0.377599
7287.000000;0.375894
7286.000000;0.374370
7285.000000;0.374102
7284.000000;0.374572
7283.000000;0.374646
7282.000000;0.373792
7281.000000;0.372496
7280.000000;0.371691
7279.000000;0.371916
7278.000000;0.372924
7277.000000;0.374144
7276.000000;0.375399
7275.000000;0.376852
7274.000000;0.378501
7273.000000;0.380104
7272.000000;0.381519
7271.000000;0.382903
7270.000000;0.384544
7269.000000;0.386499
7268.000000;0.388480
7267.000000;0.390156
7266.000000;0.391612
7265.000000;0.393395
7264.000000;0.395910
7263.000000;0.398773
7262.000000;0.401053
7261.000000;0.402333
7260.000000;0.403222
7259.000000;0.404594
7258.000000;0.406609
7257.000000;0.408812
7256.000000;0.410992
7255.000000;0.413455
7254.000000;0.416350
7253.000000;0.419201
7252.000000;0.421448
7251.000000;0.423168
7250.000000;0.424956
7249.000000;0.427152
7248.000000;0.429586
7247.000000;0.432096
7246.000000;0.435223
7245.000000;0.439987
7244.000000;0.446433
7243.000000;0.452873
7242.000000;0.457440
7241.000000;0.460279
7240.000000;0.463336
7239.000000;0.467755
7238.000000;0.472373
7237.000000;0.475444
7236.000000;0.477253
7235.000000;0.480038
7234.000000;0.485227
7233.000000;0.491417
7232.000000;0.495699
7231.000000;0.496902
7230.000000;0.496996
7229.000000;0.498960
7228.000000;0.503620
7227.000000;0.508888
7226.000000;0.512238
7225.000000;0.513489
7224.000000;0.514531
7223.000000;0.516840
7222.000000;0.520030
7221.000000;0.522679
7220.000000;0.523970
7219.000000;0.524482
7218.000000;0.525631
7217.000000;0.528399
7216.000000;0.532452
7215.000000;0.536521
7214.000000;0.539709
7213.000000;0.542310
7212.000000;0.545274
7211.000000;0.549000
7210.000000;0.552943
7209.000000;0.556464
7208.000000;0.559766
7207.000000;0.563596
7206.000000;0.568293
7205.000000;0.573489
7204.000000;0.578585
7203.000000;0.583302
7202.000000;0.587847
7201.000000;0.592564
7200.000000;0.597459
7199.000000;0.602152
7198.000000;0.606405
7197.000000;0.610517
7196.000000;0.614948
7195.000000;0.619595
7194.000000;0.623799
7193.000000;0.627270
7192.000000;0.630577
7191.000000;0.634425
7190.000000;0.638798
7189.000000;0.643246
7188.000000;0.647743
7187.000000;0.652692
7186.000000;0.658306
7185.000000;0.664538
7184.000000;0.671507
7183.000000;0.679337
7182.000000;0.687468
7181.000000;0.694955
7180.000000;0.701711
7179.000000;0.708714
7178.000000;0.716556
7177.000000;0.724388
7176.000000;0.730806
7175.000000;0.735452
7174.000000;0.739264
7173.000000;0.743338
7172.000000;0.748048
7171.000000;0.753221
7170.000000;0.758588
7169.000000;0.764008
7168.000000;0.769645
7167.000000;0.775850
7166.000000;0.782766
7165.000000;0.790245
7164.000000;0.798311
7163.000000;0.807181
7162.000000;0.816370
7161.000000;0.824561
7160.000000;0.831054
7159.000000;0.836840
7158.000000;0.843364
7157.000000;0.850489
7156.000000;0.856556
7155.000000;0.860582
7154.000000;0.863587
7153.000000;0.867292
7152.000000;0.872100
7151.000000;0.877040
7150.000000;0.881313
7149.000000;0.885233
7148.000000;0.889819
7147.000000;0.895761
7146.000000;0.902836
7145.000000;0.910266
7144.000000;0.917587
7143.000000;0.925067
7142.000000;0.933351
7141.000000;0.942600
7140.000000;0.951935
7139.000000;0.960152
7138.000000;0.967161
7137.000000;0.974202
7136.000000;0.982161
7135.000000;0.990144
7134.000000;0.996459
7133.000000;1.000854
7132.000000;1.004893
7131.000000;1.009942
7130.000000;1.015633
7129.000000;1.020678
7128.000000;1.024623
7127.000000;1.028142
7126.000000;1.032022
7125.000000;1.036595
7124.000000;1.041866
7123.000000;1.047534
7122.000000;1.053151
7121.000000;1.058779
7120.000000;1.065237
7119.000000;1.073080
7118.000000;1.081552
7117.000000;1.089317
7116.000000;1.096145
7115.000000;1.103039
7114.000000;1.110521
7113.000000;1.117653
7112.000000;1.123212
7111.000000;1.127319
7110.000000;1.131274
7109.000000;1.136070
7108.000000;1.141562
7107.000000;1.146987
7106.000000;1.151839
7105.000000;1.156247
7104.000000;1.160756
7103.000000;1.165764
7102.000000;1.171058
7101.000000;1.176038
7100.000000;1.180532
7099.000000;1.185047
7098.000000;1.190170
7097.000000;1.195923
7096.000000;1.201634
7095.000000;1.206457
7094.000000;1.210265
7093.000000;1.213976
7092.000000;1.218705
7091.000000;1.224515
7090.000000;1.230256
7089.000000;1.234822
7088.000000;1.238301
7087.000000;1.241581
7086.000000;1.245127
7085.000000;1.248624
7084.000000;1.251654
7083.000000;1.254211
7082.000000;1.256521
7081.000000;1.258851
7080.000000;1.261583
7079.000000;1.265103
7078.000000;1.269409
7077.000000;1.273992
7076.000000;1.278209
7075.000000;1.281813
7074.000000;1.285200
7073.000000;1.289009
7072.000000;1.293365
7071.000000;1.297734
7070.000000;1.301659
7069.000000;1.305421
7068.000000;1.309613
7067.000000;1.314102
7066.000000;1.317971
7065.000000;1.320674
7064.000000;1.322765
7063.000000;1.325150
7062.000000;1.328012
7061.000000;1.330824
7060.000000;1.333163
7059.000000;1.335038
7058.000000;1.336602
7057.000000;1.338032
7056.000000;1.339630
7055.000000;1.341652
7054.000000;1.344078
7053.000000;1.346690
7052.000000;1.349266
7051.000000;1.351706
7050.000000;1.354098
7049.000000;1.356671
7048.000000;1.359567
7047.000000;1.362608
7046.000000;1.365469
7045.000000;1.368095
7044.000000;1.370684
7043.000000;1.373219
7042.000000;1.375467
7041.000000;1.377481
7040.000000;1.379613
7039.000000;1.381871
7038.000000;1.383773
7037.000000;1.385098
7036.000000;1.386263
7035.000000;1.387646
7034.000000;1.389058
7033.000000;1.390210
7032.000000;1.391252
7031.000000;1.392438
7030.000000;1.393642
7029.000000;1.394624
7028.000000;1.395494
7027.000000;1.396575
7026.000000;1.398064
7025.000000;1.400067
7024.000000;1.402584
7023.000000;1.405149
7022.000000;1.406936
7021.000000;1.407662
7020.000000;1.408043
7019.000000;1.409002
7018.000000;1.410669
7017.000000;1.412463
7016.000000;1.413823
7015.000000;1.414543
7014.000000;1.414741
7013.000000;1.414838
7012.000000;1.415355
7011.000000;1.416449
7010.000000;1.417815
7009.000000;1.419212
7008.000000;1.420750
7007.000000;1.422483
7006.000000;1.424158
7005.000000;1.425605
7004.000000;1.426919
7003.000000;1.428022
7002.000000;1.428549
7001.000000;1.428478
7000.000000;1.428376
6999.000000;1.428655
6998.000000;1.429110
6997.000000;1.429513
6996.000000;1.430127
6995.000000;1.431172
6994.000000;1.432313
6993.000000;1.433245
6992.000000;1.434274
6991.000000;1.435698
6990.000000;1.437003
6989.000000;1.437379
6988.000000;1.436818
6987.000000;1.436092
6986.000000;1.435797
6985.000000;1.435985
6984.000000;1.436570
6983.000000;1.437463
6982.000000;1.438319
6981.000000;1.438710
6980.000000;1.438672
6979.000000;1.438741
6978.000000;1.439433
6977.000000;1.440842
6976.000000;1.442607
6975.000000;1.444055
6974.000000;1.444501
6973.000000;1.443720
6972.000000;1.442199
6971.000000;1.440835
6970.000000;1.440412
6969.000000;1.441197
6968.000000;1.442736
6967.000000;1.444065
6966.000000;1.444491
6965.000000;1.444203
6964.000000;1.443805
6963.000000;1.443350
6962.000000;1.442425
6961.000000;1.441175
6960.000000;1.440480
6959.000000;1.440846
6958.000000;1.441739
6957.000000;1.442346
6956.000000;1.442480
6955.000000;1.442464
6954.000000;1.442611
6953.000000;1.443071
6952.000000;1.443722
6951.000000;1.443960
6950.000000;1.443135
6949.000000;1.441490
6948.000000;1.440137
6947.000000;1.439844
6946.000000;1.440337
6945.000000;1.440952
6944.000000;1.441343
6943.000000;1.441277
6942.000000;1.440497
6941.000000;1.439264
6940.000000;1.438429
6939.000000;1.438438
6938.000000;1.438773
6937.000000;1.438816
6936.000000;1.438653
6935.000000;1.438523
6934.000000;1.438112
6933.000000;1.437062
6932.000000;1.435670
6931.000000;1.434456
6930.000000;1.433479
6929.000000;1.432674
6928.000000;1.432336
6927.000000;1.432596
6926.000000;1.432800
6925.000000;1.432133
6924.000000;1.430713
6923.000000;1.429446
6922.000000;1.428942
6921.000000;1.429044
6920.000000;1.429260
6919.000000;1.429212
6918.000000;1.428790
6917.000000;1.428265
6916.000000;1.428051
6915.000000;1.428056
6914.000000;1.427688
6913.000000;1.426803
6912.000000;1.426102
6911.000000;1.426110
6910.000000;1.426301
6909.000000;1.425844
6908.000000;1.424831
6907.000000;1.424048
6906.000000;1.423743
6905.000000;1.423345
6904.000000;1.422342
6903.000000;1.420857
6902.000000;1.419326
6901.000000;1.418062
6900.000000;1.417149
6899.000000;1.416440
6898.000000;1.415649
6897.000000;1.414688
6896.000000;1.413750
6895.000000;1.412937
6894.000000;1.412174
6893.000000;1.411655
6892.000000;1.411901
6891.000000;1.413011
6890.000000;1.414234
6889.000000;1.414694
6888.000000;1.414230
6887.000000;1.413140
6886.000000;1.411609
6885.000000;1.409894
6884.000000;1.408562
6883.000000;1.407874
6882.000000;1.407210
6881.000000;1.405775
6880.000000;1.403760
6879.000000;1.402198
6878.000000;1.401744
6877.000000;1.402067
6876.000000;1.402322
6875.000000;1.401872
6874.000000;1.400707
6873.000000;1.399520
6872.000000;1.399154
6871.000000;1.399677
6870.000000;1.400157
6869.000000;1.399679
6868.000000;1.398342
6867.000000;1.396886
6866.000000;1.395750
6865.000000;1.394936
6864.000000;1.394392
6863.000000;1.393953
6862.000000;1.393154
6861.000000;1.391674
6860.000000;1.389833
6859.000000;1.388209
6858.000000;1.386917
6857.000000;1.385707
6856.000000;1.384530
6855.000000;1.383500
6854.000000;1.382470
6853.000000;1.381168
6852.000000;1.379686
6851.000000;1.378396
6850.000000;1.377425
6849.000000;1.376582
6848.000000;1.375723
6847.000000;1.374828
6846.000000;1.373799
6845.000000;1.372557
6844.000000;1.371281
6843.000000;1.370173
6842.000000;1.369045
6841.000000;1.367460
6840.000000;1.365282
6839.000000;1.362827
6838.000000;1.360539
6837.000000;1.358743
6836.000000;1.357541
6835.000000;1.356701
6834.000000;1.355753
6833.000000;1.354414
6832.000000;1.352766
6831.000000;1.350886
6830.000000;1.348633
6829.000000;1.346044
6828.000000;1.343603
6827.000000;1.341717
6826.000000;1.340130
6825.000000;1.338268
6824.000000;1.336010
6823.000000;1.333753
6822.000000;1.331836
6821.000000;1.330230
6820.000000;1.328723
6819.000000;1.327106
6818.000000;1.325256
6817.000000;1.323253
6816.000000;1.321292
6815.000000;1.319279
6814.000000;1.316770
6813.000000;1.313589
6812.000000;1.310283
6811.000000;1.307601
6810.000000;1.305679
6809.000000;1.304006
6808.000000;1.302068
6807.000000;1.299742
6806.000000;1.297155
6805.000000;1.294494
6804.000000;1.291917
6803.000000;1.289415
6802.000000;1.286833
6801.000000;1.284158
6800.000000;1.281611
6799.000000;1.279309
6798.000000;1.277073
6797.000000;1.274763
6796.000000;1.272554
6795.000000;1.270592
6794.000000;1.268609
6793.000000;1.266206
6792.000000;1.263350
6791.000000;1.260292
6790.000000;1.257182
6789.000000;1.254078
6788.000000;1.251178
6787.000000;1.248654
6786.000000;1.246333
6785.000000;1.243875
6784.000000;1.241238
6783.000000;1.238684
6782.000000;1.236340
6781.000000;1.234013
6780.000000;1.231412
6779.000000;1.228346
6778.000000;1.224789
6777.000000;1.220969
6776.000000;1.217344
6775.000000;1.214274
6774.000000;1.211741
6773.000000;1.209508
6772.000000;1.207421
6771.000000;1.205380
6770.000000;1.203139
6769.000000;1.200422
6768.000000;1.197214
6767.000000;1.193779
6766.000000;1.190451
6765.000000;1.187492
6764.000000;1.185015
6763.000000;1.182851
6762.000000;1.180610
6761.000000;1.178017
6760.000000;1.175096
6759.000000;1.171967
6758.000000;1.168685
6757.000000;1.165420
6756.000000;1.162516
6755.000000;1.160112
6754.000000;1.157887
6753.000000;1.155447
6752.000000;1.152775
6751.000000;1.150040
6750.000000;1.147151
6749.000000;1.143885
6748.000000;1.140377
6747.000000;1.137125
6746.000000;1.134465
6745.000000;1.132229
6744.000000;1.129940
6743.000000;1.127224
6742.000000;1.124088
6741.000000;1.120920
6740.000000;1.118153
6739.000000;1.115793
6738.000000;1.113404
6737.000000;1.110650
6736.000000;1.107667
6735.000000;1.104766
6734.000000;1.101969
6733.000000;1.099123
6732.000000;1.096266
6731.000000;1.093565
6730.000000;1.090976
6729.000000;1.088297
6728.000000;1.085520
6727.000000;1.082820
6726.000000;1.080234
6725.000000;1.077610
6724.000000;1.074889
6723.000000;1.072188
6722.000000;1.069547
6721.000000;1.066813
6720.000000;1.063858
6719.000000;1.060784
6718.000000;1.057858
6717.000000;1.055312
6716.000000;1.053167
6715.000000;1.051157
6714.000000;1.048887
6713.000000;1.046201
6712.000000;1.043332
6711.000000;1.040561
6710.000000;1.037843
6709.000000;1.034960
6708.000000;1.031926
6707.000000;1.028994
6706.000000;1.026331
6705.000000;1.023794
6704.000000;1.021261
6703.000000;1.018768
6702.000000;1.016307
6701.000000;1.013753
6700.000000;1.011068
6699.000000;1.008263
6698.000000;1.005529
6697.000000;1.002676
6696.000000;0.999963
6695.000000;0.997359
6694.000000;0.994672
6693.000000;0.991970
6692.000000;0.989302
6691.000000;0.986751
6690.000000;0.984238
6689.000000;0.981647
6688.000000;0.978981
6687.000000;0.976360
6686.000000;0.973862
6685.000000;0.971483
6684.000000;0.969206
6683.000000;0.966993
6682.000000;0.964713
6681.000000;0.962205
6680.000000;0.959456
6679.000000;0.956631
6678.000000;0.953935
6677.000000;0.951482
6676.000000;0.949261
6675.000000;0.947128
6674.000000;0.944863
6673.000000;0.942343
6672.000000;0.939670
6671.000000;0.937051
6670.000000;0.934584
6669.000000;0.932207
6668.000000;0.929838
6667.000000;0.927459
6666.000000;0.925097
6665.000000;0.922797
6664.000000;0.920609
6663.000000;0.918510
6662.000000;0.916355
6661.000000;0.913990
6660.000000;0.911396
6659.000000;0.908686
6658.000000;0.905979
6657.000000;0.903355
6656.000000;0.900881
6655.000000;0.898585
6654.000000;0.896403
6653.000000;0.894218
6652.000000;0.891959
6651.000000;0.889609
6650.000000;0.887186
6649.000000;0.884741
6648.000000;0.882347
6647.000000;0.880035
6646.000000;0.877777
6645.000000;0.875570
6644.000000;0.873464
6643.000000;0.871460
6642.000000;0.869455
6641.000000;0.867356
6640.000000;0.865170
6639.000000;0.862919
6638.000000;0.860572
6637.000000;0.858144
6636.000000;0.855776
6635.000000;0.853599
6634.000000;0.851566
6633.000000;0.849539
6632.000000;0.847460
6631.000000;0.845342
6630.000000;0.843154
6629.000000;0.840867
6628.000000;0.838566
6627.000000;0.836380
6626.000000;0.834297
6625.000000;0.832199
6624.000000;0.830041
6623.000000;0.827891
6622.000000;0.825798
6621.000000;0.823741
6620.000000;0.821715
6619.000000;0.819748
6618.000000;0.817805
6617.000000;0.815787
6616.000000;0.813651
6615.000000;0.811463
6614.000000;0.809300
6613.000000;0.807193
6612.000000;0.805153
6611.000000;0.803176
6610.000000;0.801205
6609.000000;0.799163
6608.000000;0.797056
6607.000000;0.794964
6606.000000;0.792938
6605.000000;0.790952
6604.000000;0.788982
6603.000000;0.787031
6602.000000;0.785075
6601.000000;0.783051
6600.000000;0.780938
6599.000000;0.778806
6598.000000;0.776740
6597.000000;0.774760
6596.000000;0.772820
6595.000000;0.770881
6594.000000;0.768948
6593.000000;0.767065
6592.000000;0.765251
6591.000000;0.763450
6590.000000;0.761565
6589.000000;0.759552
6588.000000;0.757476
6587.000000;0.755440
6586.000000;0.753512
6585.000000;0.751713
6584.000000;0.750021
6583.000000;0.748343
6582.000000;0.746554
6581.000000;0.744628
6580.000000;0.742698
6579.000000;0.740905
6578.000000;0.739228
6577.000000;0.737538
6576.000000;0.735781
6575.000000;0.734015
6574.000000;0.732262
6573.000000;0.730452
6572.000000;0.728542
6571.000000;0.726615
6570.000000;0.724807
6569.000000;0.723161
6568.000000;0.721578
6567.000000;0.719917
6566.000000;0.718123
6565.000000;0.716277
6564.000000;0.714497
6563.000000;0.712806
6562.000000;0.711121
6561.000000;0.709369
6560.000000;0.707581
6559.000000;0.705826
6558.000000;0.704111
6557.000000;0.702405
6556.000000;0.700703
6555.000000;0.699018
6554.000000;0.697338
6553.000000;0.695648
6552.000000;0.693981
6551.000000;0.692386
6550.000000;0.690843
6549.000000;0.689285
6548.000000;0.687671
6547.000000;0.686016
6546.000000;0.684337
6545.000000;0.682637
6544.000000;0.680930
6543.000000;0.679247
6542.000000;0.677605
6541.000000;0.676004
6540.000000;0.674453
6539.000000;0.672955
6538.000000;0.671485
6537.000000;0.670000
6536.000000;0.668485
6535.000000;0.666941
6534.000000;0.665367
6533.000000;0.663762
6532.000000;0.662146
6531.000000;0.660541
6530.000000;0.658953
6529.000000;0.657393
6528.000000;0.655883
6527.000000;0.654420
6526.000000;0.652952
6525.000000;0.651439
6524.000000;0.649903
6523.000000;0.648379
6522.000000;0.646857
6521.000000;0.645318
6520.000000;0.643804
6519.000000;0.642378
6518.000000;0.641025
6517.000000;0.639650
6516.000000;0.638197
6515.000000;0.636709
6514.000000;0.635261
6513.000000;0.633868
6512.000000;0.632479
6511.000000;0.631049
6510.000000;0.629597
6509.000000;0.628196
6508.000000;0.626883
6507.000000;0.625610
6506.000000;0.624293
6505.000000;0.622914
6504.000000;0.621538
6503.000000;0.620209
6502.000000;0.618879
6501.000000;0.617476
6500.000000;0.615991
6499.000000;0.614474
6498.000000;0.612971
6497.000000;0.611514
6496.000000;0.610132
6495.000000;0.608832
6494.000000;0.607573
6493.000000;0.606307
6492.000000;0.605021
6491.000000;0.603723
6490.000000;0.602416
6489.000000;0.601117
6488.000000;0.599872
6487.000000;0.598692
6486.000000;0.597516
6485.000000;0.596267
6484.000000;0.594939
6483.000000;0.593592
6482.000000;0.592280
6481.000000;0.591021
6480.000000;0.589814
6479.000000;0.588638
6478.000000;0.587446
6477.000000;0.586211
6476.000000;0.584949
6475.000000;0.583679
6474.000000;0.582387
6473.000000;0.581061
6472.000000;0.579753
6471.000000;0.578529
6470.000000;0.577393
6469.000000;0.576284
6468.000000;0.575140
6467.000000;0.573938
6466.000000;0.572686
6465.000000;0.571421
6464.000000;0.570203
6463.000000;0.569055
6462.000000;0.567945
6461.000000;0.566829
6460.000000;0.565717
6459.000000;0.564629
6458.000000;0.563524
6457.000000;0.562333
6456.000000;0.561056
6455.000000;0.559776
6454.000000;0.558577
6453.000000;0.557477
6452.000000;0.556440
6451.000000;0.555414
6450.000000;0.554351
6449.000000;0.553244
6448.000000;0.552136
6447.000000;0.551067
6446.000000;0.550021
6445.000000;0.548948
6444.000000;0.547823
6443.000000;0.546659
6442.000000;0.545472
6441.000000;0.544293
6440.000000;0.543189
6439.000000;0.542207
6438.000000;0.541301
6437.000000;0.540363
6436.000000;0.539326
6435.000000;0.538214
6434.000000;0.537083
6433.000000;0.535967
6432.000000;0.534893
6431.000000;0.533881
6430.000000;0.532924
6429.000000;0.531979
6428.000000;0.531007
6427.000000;0.529997
6426.000000;0.528948
6425.000000;0.527865
6424.000000;0.526781
6423.000000;0.525752
6422.000000;0.524807
6421.000000;0.523914
6420.000000;0.523004
6419.000000;0.522025
6418.000000;0.520979
6417.000000;0.519919
6416.000000;0.518916
6415.000000;0.517996
6414.000000;0.517116
6413.000000;0.516205
6412.000000;0.515239
6411.000000;0.514256
6410.000000;0.513317
6409.000000;0.512446
6408.000000;0.511617
6407.000000;0.510774
6406.000000;0.509868
6405.000000;0.508900
6404.000000;0.507912
6403.000000;0.506942
6402.000000;0.505997
6401.000000;0.505073
6400.000000;0.504175
6399.000000;0.503302
6398.000000;0.502437
6397.000000;0.501567
6396.000000;0.500703
6395.000000;0.499857
6394.000000;0.499012
6393.000000;0.498154
6392.000000;0.497299
6391.000000;0.496474
6390.000000;0.495661
6389.000000;0.494821
6388.000000;0.493939
6387.000000;0.493041
6386.000000;0.492151
6385.000000;0.491277
6384.000000;0.490423
6383.000000;0.489599
6382.000000;0.488805
6381.000000;0.488025
6380.000000;0.487245
6379.000000;0.486461
6378.000000;0.485674
6377.000000;0.484888
6376.000000;0.484105
6375.000000;0.483303
6374.000000;0.482444
6373.000000;0.481519
6372.000000;0.480580
6371.000000;0.479701
6370.000000;0.478907
6369.000000;0.478172
6368.000000;0.477459
6367.000000;0.476754
6366.000000;0.476049
6365.000000;0.475329
6364.000000;0.474580
6363.000000;0.473807
6362.000000;0.473028
6361.000000;0.472273
6360.000000;0.471553
6359.000000;0.470843
6358.000000;0.470098
6357.000000;0.469308
6356.000000;0.468522
6355.000000;0.467795
6354.000000;0.467122
6353.000000;0.466446
6352.000000;0.465732
6351.000000;0.465005
6350.000000;0.464308
6349.000000;0.463642
6348.000000;0.462964
6347.000000;0.462231
6346.000000;0.461452
6345.000000;0.460665
6344.000000;0.459899
6343.000000;0.459148
6342.000000;0.458402
6341.000000;0.457679
6340.000000;0.457003
6339.000000;0.456369
6338.000000;0.455744
6337.000000;0.455101
6336.000000;0.454438
6335.000000;0.453769
6334.000000;0.453115
6333.000000;0.452494
6332.000000;0.451892
6331.000000;0.451253
6330.000000;0.450540
6329.000000;0.449801
6328.000000;0.449125
6327.000000;0.448536
6326.000000;0.447966
6325.000000;0.447345
6324.000000;0.446672
6323.000000;0.445978
6322.000000;0.445280
6321.000000;0.444594
6320.000000;0.443947
6319.000000;0.443353
6318.000000;0.442791
6317.000000;0.442233
6316.000000;0.441665
6315.000000;0.441069
6314.000000;0.440417
6313.000000;0.439722
6312.000000;0.439049
6311.000000;0.438450
6310.000000;0.437916
6309.000000;0.437403
6308.000000;0.436879
6307.000000;0.436325
6306.000000;0.435722
6305.000000;0.435083
6304.000000;0.434450
6303.000000;0.433854
6302.000000;0.433281
6301.000000;0.432716
6300.000000;0.432174
6299.000000;0.431655
6298.000000;0.431119
6297.000000;0.430543
6296.000000;0.429964
6295.000000;0.429433
6294.000000;0.428937
6293.000000;0.428423
6292.000000;0.427867
6291.000000;0.427289
6290.000000;0.426700
6289.000000;0.426100
6288.000000;0.425506
6287.000000;0.424945
6286.000000;0.424411
6285.000000;0.423878
6284.000000;0.423339
6283.000000;0.422808
6282.000000;0.422291
6281.000000;0.421785
6280.000000;0.421292
6279.000000;0.420812
6278.000000;0.420329
6277.000000;0.419830
6276.000000;0.419328
6275.000000;0.418837
6274.000000;0.418341
6273.000000;0.417816
6272.000000;0.417270
6271.000000;0.416726
6270.000000;0.416192
6269.000000;0.415664
6268.000000;0.415161
6267.000000;0.414711
6266.000000;0.414309
6265.000000;0.413922
6264.000000;0.413518
6263.000000;0.413082
6262.000000;0.412599
6261.000000;0.412062
6260.000000;0.411494
6259.000000;0.410933
6258.000000;0.410409
6257.000000;0.409932
6256.000000;0.409503
6255.000000;0.409110
6254.000000;0.408731
6253.000000;0.408349
6252.000000;0.407959
6251.000000;0.407547
6250.000000;0.407084
6249.000000;0.406569
6248.000000;0.406043
6247.000000;0.405546
6246.000000;0.405069
6245.000000;0.404587
6244.000000;0.404111
6243.000000;0.403675
6242.000000;0.403277
6241.000000;0.402883
6240.000000;0.402469
6239.000000;0.402032
6238.000000;0.401578
6237.000000;0.401122
6236.000000;0.400699
6235.000000;0.400321
6234.000000;0.399942
6233.000000;0.399496
6232.000000;0.398979
6231.000000;0.398450
6230.000000;0.397966
6229.000000;0.397536
6228.000000;0.397148
6227.000000;0.396795
6226.000000;0.396462
6225.000000;0.396120
6224.000000;0.395750
6223.000000;0.395358
6222.000000;0.394965
6221.000000;0.394589
6220.000000;0.394233
6219.000000;0.393884
6218.000000;0.393517
6217.000000;0.393119
6216.000000;0.392697
6215.000000;0.392265
6214.000000;0.391831
6213.000000;0.391405
6212.000000;0.391006
6211.000000;0.390642
6210.000000;0.390294
6209.000000;0.389932
6208.000000;0.389549
6207.000000;0.389160
6206.000000;0.388773
6205.000000;0.388390
6204.000000;0.388013
6203.000000;0.387638
6202.000000;0.387253
6201.000000;0.386860
6200.000000;0.386475
6199.000000;0.386104
6198.000000;0.385729
6197.000000;0.385345
6196.000000;0.384975
6195.000000;0.384641
6194.000000;0.384321
6193.000000;0.383981
6192.000000;0.383625
6191.000000;0.383287
6190.000000;0.382980
6189.000000;0.382687
6188.000000;0.382388
6187.000000;0.382073
6186.000000;0.381740
6185.000000;0.381394
6184.000000;0.381047
6183.000000;0.380700
6182.000000;0.380334
6181.000000;0.379940
6180.000000;0.379548
6179.000000;0.379197
6178.000000;0.378890
6177.000000;0.378595
6176.000000;0.378286
6175.000000;0.377956
6174.000000;0.377605
6173.000000;0.377238
6172.000000;0.376867
6171.000000;0.376510
6170.000000;0.376173
6169.000000;0.375862
6168.000000;0.375583
6167.000000;0.375326
6166.000000;0.375051
6165.000000;0.374721
6164.000000;0.374349
6163.000000;0.373985
6162.000000;0.373680
6161.000000;0.373437
6160.000000;0.373214
6159.000000;0.372952
6158.000000;0.372624
6157.000000;0.372261
6156.000000;0.371924
6155.000000;0.371633
6154.000000;0.371359
6153.000000;0.371082
6152.000000;0.370821
6151.000000;0.370584
6150.000000;0.370339
6149.000000;0.370052
6148.000000;0.369741
6147.000000;0.369445
6146.000000;0.369169
6145.000000;0.368895
6144.000000;0.368625
6143.000000;0.368364
6142.000000;0.368094
6141.000000;0.367790
6140.000000;0.367471
6139.000000;0.367187
6138.000000;0.366953
6137.000000;0.366730
6136.000000;0.366480
6135.000000;0.366197
6134.000000;0.365899
6133.000000;0.365607
6132.000000;0.365338
6131.000000;0.365093
6130.000000;0.364856
6129.000000;0.364613
6128.000000;0.364356
6127.000000;0.364070
6126.000000;0.363741
6125.000000;0.363386
6124.000000;0.363067
6123.000000;0.362830
6122.000000;0.362653
6121.000000;0.362477
6120.000000;0.362265
6119.000000;0.362019
6118.000000;0.361750
6117.000000;0.361474
6116.000000;0.361218
6115.000000;0.360993
6114.000000;0.360768
6113.000000;0.360513
6112.000000;0.360239
6111.000000;0.359978
6110.000000;0.359731
6109.000000;0.359477
6108.000000;0.359220
6107.000000;0.358979
6106.000000;0.358753
6105.000000;0.358519
6104.000000;0.358283
6103.000000;0.358069
6102.000000;0.357876
6101.000000;0.357669
6100.000000;0.357428
6099.000000;0.357169
6098.000000;0.356918
6097.000000;0.356675
6096.000000;0.356435
6095.000000;0.356204
6094.000000;0.355995
6093.000000;0.355806
6092.000000;0.355614
6091.000000;0.355395
6090.000000;0.355137
6089.000000;0.354858
6088.000000;0.354600
6087.000000;0.354392
6086.000000;0.354224
6085.000000;0.354062
6084.000000;0.353884
6083.000000;0.353696
6082.000000;0.353514
6081.000000;0.353343
6080.000000;0.353175
6079.000000;0.352991
6078.000000;0.352773
6077.000000;0.352527
6076.000000;0.352288
6075.000000;0.352083
6074.000000;0.351911
6073.000000;0.351759
6072.000000;0.351623
6071.000000;0.351496
6070.000000;0.351353
6069.000000;0.351168
6068.000000;0.350944
6067.000000;0.350705
6066.000000;0.350464
6065.000000;0.350226
6064.000000;0.350005
6063.000000;0.349812
6062.000000;0.349638
6061.000000;0.349464
6060.000000;0.349287
6059.000000;0.349111
6058.000000;0.348933
6057.000000;0.348744
6056.000000;0.348555
6055.000000;0.348388
6054.000000;0.348252
6053.000000;0.348138
6052.000000;0.348028
6051.000000;0.347897
6050.000000;0.347726
6049.000000;0.347528
6048.000000;0.347344
6047.000000;0.347198
6046.000000;0.347068
6045.000000;0.346919
6044.000000;0.346747
6043.000000;0.346574
6042.000000;0.346411
6041.000000;0.346253
6040.000000;0.346106
6039.000000;0.345978
6038.000000;0.345859
6037.000000;0.345726
6036.000000;0.345563
6035.000000;0.345376
6034.000000;0.345187
6033.000000;0.345030
6032.000000;0.344927
6031.000000;0.344861
6030.000000;0.344784
6029.000000;0.344663
6028.000000;0.344520
6027.000000;0.344391
6026.000000;0.344286
6025.000000;0.344183
6024.000000;0.344065
6023.000000;0.343931
6022.000000;0.343789
6021.000000;0.343650
6020.000000;0.343515
6019.000000;0.343367
6018.000000;0.343192
6017.000000;0.343013
6016.000000;0.342886
6015.000000;0.342822
6014.000000;0.342761
6013.000000;0.342650
6012.000000;0.342503
6011.000000;0.342376
6010.000000;0.342284
6009.000000;0.342190
6008.000000;0.342065
6007.000000;0.341922
6006.000000;0.341789
6005.000000;0.341693
6004.000000;0.341650
6003.000000;0.341649
6002.000000;0.341651
6001.000000;0.341620
6000.000000;0.341551
5999.000000;0.341459
5998.000000;0.341351
5997.000000;0.341231
5996.000000;0.341110
5995.000000;0.341001
5994.000000;0.340900
5993.000000;0.340810
5992.000000;0.340751
5991.000000;0.340734
5990.000000;0.340722
5989.000000;0.340674
5988.000000;0.340595
5987.000000;0.340520
5986.000000;0.340461
5985.000000;0.340393
5984.000000;0.340303
5983.000000;0.340212
5982.000000;0.340144
5981.000000;0.340108
5980.000000;0.340090
5979.000000;0.340072
5978.000000;0.340032
5977.000000;0.339966
5976.000000;0.339889
5975.000000;0.339810
5974.000000;0.339719
5973.000000;0.339616
5972.000000;0.339531
5971.000000;0.339489
5970.000000;0.339476
5969.000000;0.339452
5968.000000;0.339406
5967.000000;0.339361
5966.000000;0.339337
5965.000000;0.339335
5964.000000;0.339352
5963.000000;0.339379
5962.000000;0.339390
5961.000000;0.339360
5960.000000;0.339293
5959.000000;0.339221
5958.000000;0.339169
5957.000000;0.339147
5956.000000;0.339162
5955.000000;0.339216
5954.000000;0.339290
5953.000000;0.339348
5952.000000;0.339362
5951.000000;0.339327
5950.000000;0.339260
5949.000000;0.339199
5948.000000;0.339183
5947.000000;0.339211
5946.000000;0.339242
5945.000000;0.339243
5944.000000;0.339220
5943.000000;0.339191
5942.000000;0.339156
5941.000000;0.339118
5940.000000;0.339105
5939.000000;0.339133
5938.000000;0.339180
5937.000000;0.339205
5936.000000;0.339201
5935.000000;0.339192
5934.000000;0.339192
5933.000000;0.339195
5932.000000;0.339213
5931.000000;0.339262
5930.000000;0.339341
5929.000000;0.339436
5928.000000;0.339532
5927.000000;0.339615
5926.000000;0.339658
5925.000000;0.339645
5924.000000;0.339605
5923.000000;0.339588
5922.000000;0.339619
5921.000000;0.339683
5920.000000;0.339756
5919.000000;0.339817
5918.000000;0.339846
5917.000000;0.339843
5916.000000;0.339834
5915.000000;0.339843
5914.000000;0.339870
5913.000000;0.339908
5912.000000;0.339969
5911.000000;0.340053
5910.000000;0.340130
5909.000000;0.340168
5908.000000;0.340180
5907.000000;0.340208
5906.000000;0.340269
5905.000000;0.340345
5904.000000;0.340417
5903.000000;0.340475
5902.000000;0.340515
5901.000000;0.340546
5900.000000;0.340598
5899.000000;0.340688
5898.000000;0.340787
5897.000000;0.340855
5896.000000;0.340887
5895.000000;0.340910
5894.000000;0.340939
5893.000000;0.340974
5892.000000;0.341022
5891.000000;0.341093
5890.000000;0.341175
5889.000000;0.341247
5888.000000;0.341319
5887.000000;0.341417
5886.000000;0.341545
5885.000000;0.341674
5884.000000;0.341786
5883.000000;0.341890
5882.000000;0.341994
5881.000000;0.342103
5880.000000;0.342218
5879.000000;0.342343
5878.000000;0.342467
5877.000000;0.342581
5876.000000;0.342699
5875.000000;0.342836
5874.000000;0.342976
5873.000000;0.343088
5872.000000;0.343175
5871.000000;0.343273
5870.000000;0.343407
5869.000000;0.343563
5868.000000;0.343713
5867.000000;0.343838
5866.000000;0.343937
5865.000000;0.344031
5864.000000;0.344151
5863.000000;0.344310
5862.000000;0.344482
5861.000000;0.344636
5860.000000;0.344784
5859.000000;0.344955
5858.000000;0.345148
5857.000000;0.345342
5856.000000;0.345532
5855.000000;0.345736
5854.000000;0.345959
5853.000000;0.346178
5852.000000;0.346372
5851.000000;0.346538
5850.000000;0.346688
5849.000000;0.346849
5848.000000;0.347044
5847.000000;0.347268
5846.000000;0.347477
5845.000000;0.347642
5844.000000;0.347787
5843.000000;0.347959
5842.000000;0.348171
5841.000000;0.348408
5840.000000;0.348662
5839.000000;0.348936
5838.000000;0.349205
5837.000000;0.349436
5836.000000;0.349632
5835.000000;0.349826
5834.000000;0.350043
5833.000000;0.350280
5832.000000;0.350526
5831.000000;0.350778
5830.000000;0.351031
5829.000000;0.351277
5828.000000;0.351515
5827.000000;0.351753
5826.000000;0.351989
5825.000000;0.352225
5824.000000;0.352473
5823.000000;0.352739
5822.000000;0.353002
5821.000000;0.353249
5820.000000;0.353497
5819.000000;0.353765
5818.000000;0.354042
5817.000000;0.354305
5816.000000;0.354568
5815.000000;0.354866
5814.000000;0.355196
5813.000000;0.355526
5812.000000;0.355838
5811.000000;0.356139
5810.000000;0.356439
5809.000000;0.356748
5808.000000;0.357082
5807.000000;0.357451
5806.000000;0.357826
5805.000000;0.358164
5804.000000;0.358460
5803.000000;0.358747
5802.000000;0.359047
5801.000000;0.359358
5800.000000;0.359687
5799.000000;0.360055
5798.000000;0.360456
5797.000000;0.360856
5796.000000;0.361224
5795.000000;0.361558
5794.000000;0.361870
5793.000000;0.362172
5792.000000;0.362487
5791.000000;0.362827
5790.000000;0.363189
5789.000000;0.363560
5788.000000;0.363947
5787.000000;0.364359
5786.000000;0.364784
5785.000000;0.365195
5784.000000;0.365587
5783.000000;0.365972
5782.000000;0.366353
5781.000000;0.366723
5780.000000;0.367097
5779.000000;0.367498
5778.000000;0.367927
5777.000000;0.368358
5776.000000;0.368780
5775.000000;0.369208
5774.000000;0.369652
5773.000000;0.370105
5772.000000;0.370563
5771.000000;0.371020
5770.000000;0.371464
5769.000000;0.371887
5768.000000;0.372310
5767.000000;0.372763
5766.000000;0.373241
5765.000000;0.373709
5764.000000;0.374148
5763.000000;0.374578
5762.000000;0.375022
5761.000000;0.375493
5760.000000;0.376000
5759.000000;0.376543
5758.000000;0.377100
5757.000000;0.377637
5756.000000;0.378134
5755.000000;0.378604
5754.000000;0.379067
5753.000000;0.379546
5752.000000;0.380056
5751.000000;0.380596
5750.000000;0.381139
5749.000000;0.381658
5748.000000;0.382156
5747.000000;0.382664
5746.000000;0.383205
5745.000000;0.383783
5744.000000;0.384386
5743.000000;0.384984
5742.000000;0.385549
5741.000000;0.386077
5740.000000;0.386605
5739.000000;0.387161
5738.000000;0.387740
5737.000000;0.388323
5736.000000;0.388910
5735.000000;0.389505
5734.000000;0.390097
5733.000000;0.390682
5732.000000;0.391287
5731.000000;0.391935
5730.000000;0.392599
5729.000000;0.393236
5728.000000;0.393845
5727.000000;0.394465
5726.000000;0.395110
5725.000000;0.395761
5724.000000;0.396404
5723.000000;0.397043
5722.000000;0.397681
5721.000000;0.398316
5720.000000;0.398957
5719.000000;0.399620
5718.000000;0.400303
5717.000000;0.400982
5716.000000;0.401638
5715.000000;0.402269
5714.000000;0.402884
5713.000000;0.403512
5712.000000;0.404187
5711.000000;0.404910
5710.000000;0.405643
5709.000000;0.406359
5708.000000;0.407080
5707.000000;0.407835
5706.000000;0.408597
5705.000000;0.409316
5704.000000;0.409992
5703.000000;0.410672
5702.000000;0.411385
5701.000000;0.412123
5700.000000;0.412875
5699.000000;0.413641
5698.000000;0.414404
5697.000000;0.415142
5696.000000;0.415843
5695.000000;0.416545
5694.000000;0.417230
5693.000000;0.417980
5692.000000;0.418697
5691.000000;0.419373
5690.000000;0.420095
5689.000000;0.420850
5688.000000;0.421654
5687.000000;0.422480
5686.000000;0.423292
5685.000000;0.424061
5684.000000;0.424788
5683.000000;0.425489
5682.000000;0.426176
5681.000000;0.426865
5680.000000;0.427581
5679.000000;0.428325
5678.000000;0.429064
5677.000000;0.429784
5676.000000;0.430517
5675.000000;0.431284
5674.000000;0.432057
5673.000000;0.432804
5672.000000;0.433553
5671.000000;0.434345
5670.000000;0.435161
5669.000000;0.435942
5668.000000;0.436664
5667.000000;0.437356
5666.000000;0.438055
5665.000000;0.438787
5664.000000;0.439559
5663.000000;0.440355
5662.000000;0.441133
5661.000000;0.441868
5660.000000;0.442581
5659.000000;0.443293
5658.000000;0.443988
5657.000000;0.444647
5656.000000;0.445289
5655.000000;0.445947
5654.000000;0.446616
5653.000000;0.447270
5652.000000;0.447905
5651.000000;0.448527
5650.000000;0.449126
5649.000000;0.449702
5648.000000;0.450289
5647.000000;0.450917
5646.000000;0.451562
5645.000000;0.452192
5644.000000;0.452818
5643.000000;0.453469
5642.000000;0.454135
5641.000000;0.454770
5640.000000;0.455360
5639.000000;0.455920
5638.000000;0.456457
5637.000000;0.456986
5636.000000;0.457547
5635.000000;0.458171
5634.000000;0.458825
5633.000000;0.459441
5632.000000;0.459996
5631.000000;0.460512
5630.000000;0.461010
5629.000000;0.461497
5628.000000;0.461989
5627.000000;0.462495
5626.000000;0.462994
5625.000000;0.463470
5624.000000;0.463951
5623.000000;0.464457
5622.000000;0.464952
5621.000000;0.465396
5620.000000;0.465818
5619.000000;0.466275
5618.000000;0.466771
5617.000000;0.467268
5616.000000;0.467744
5615.000000;0.468187
5614.000000;0.468564
5613.000000;0.468862
5612.000000;0.469150
5611.000000;0.469508
5610.000000;0.469920
5609.000000;0.470286
5608.000000;0.470553
5607.000000;0.470768
5606.000000;0.471014
5605.000000;0.471334
5604.000000;0.471722
5603.000000;0.472145
5602.000000;0.472556
5601.000000;0.472929
5600.000000;0.473262
5599.000000;0.473553
5598.000000;0.473785
5597.000000;0.473963
5596.000000;0.474126
5595.000000;0.474299
5594.000000;0.474458
5593.000000;0.474589
5592.000000;0.474721
5591.000000;0.474878
5590.000000;0.475035
5589.000000;0.475170
5588.000000;0.475312
5587.000000;0.475475
5586.000000;0.475610
5585.000000;0.475674
5584.000000;0.475701
5583.000000;0.475760
5582.000000;0.475864
5581.000000;0.475999
5580.000000;0.476174
5579.000000;0.476393
5578.000000;0.476598
5577.000000;0.476731
5576.000000;0.476815
5575.000000;0.476901
5574.000000;0.476983
5573.000000;0.477041
5572.000000;0.477116
5571.000000;0.477257
5570.000000;0.477421
5569.000000;0.477520
5568.000000;0.477554
5567.000000;0.477588
5566.000000;0.477624
5565.000000;0.477606
5564.000000;0.477547
5563.000000;0.477519
5562.000000;0.477519
5561.000000;0.477464
5560.000000;0.477337
5559.000000;0.477231
5558.000000;0.477215
5557.000000;0.477260
5556.000000;0.477345
5555.000000;0.477530
5554.000000;0.477844
5553.000000;0.478205
5552.000000;0.478523
5551.000000;0.478819
5550.000000;0.479153
5549.000000;0.479479
5548.000000;0.479675
5547.000000;0.479673
5546.000000;0.479507
5545.000000;0.479237
5544.000000;0.478900
5543.000000;0.478507
5542.000000;0.478066
5541.000000;0.477636
5540.000000;0.477352
5539.000000;0.477352
5538.000000;0.477614
5537.000000;0.477957
5536.000000;0.478238
5535.000000;0.478475
5534.000000;0.478713
5533.000000;0.478890
5532.000000;0.478934
5531.000000;0.478884
5530.000000;0.478800
5529.000000;0.478611
5528.000000;0.478197
5527.000000;0.477599
5526.000000;0.477037
5525.000000;0.476756
5524.000000;0.476850
5523.000000;0.477221
5522.000000;0.477669
5521.000000;0.478056
5520.000000;0.478430
5519.000000;0.478935
5518.000000;0.479543
5517.000000;0.480021
5516.000000;0.480203
5515.000000;0.480146
5514.000000;0.479980
5513.000000;0.479693
5512.000000;0.479285
5511.000000;0.479016
5510.000000;0.479220
5509.000000;0.479871
5508.000000;0.480586
5507.000000;0.481106
5506.000000;0.481551
5505.000000;0.482110
5504.000000;0.482651
5503.000000;0.482844
5502.000000;0.482624
5501.000000;0.482226
5500.000000;0.481786
5499.000000;0.481148
5498.000000;0.480199
5497.000000;0.479401
5496.000000;0.479667
5495.000000;0.481415
5494.000000;0.484062
5493.000000;0.486644
5492.000000;0.488846
5491.000000;0.491059
5490.000000;0.493391
5489.000000;0.495226
5488.000000;0.495973
5487.000000;0.495726
5486.000000;0.494822
5485.000000;0.493190
5484.000000;0.490672
5483.000000;0.487717
5482.000000;0.485153
5481.000000;0.483264
5480.000000;0.481748
5479.000000;0.480818
5478.000000;0.481467
5477.000000;0.484208
5476.000000;0.488137
5475.000000;0.491648
5474.000000;0.494016
5473.000000;0.495642
5472.000000;0.496863
5471.000000;0.497430
5470.000000;0.497235
5469.000000;0.496729
5468.000000;0.496337
5467.000000;0.495986
5466.000000;0.495456
5465.000000;0.495101
5464.000000;0.495790
5463.000000;0.497921
5462.000000;0.500802
5461.000000;0.503207
5460.000000;0.504476
5459.000000;0.504955
5458.000000;0.505217
5457.000000;0.505265
5456.000000;0.504776
5455.000000;0.503691
5454.000000;0.502299
5453.000000;0.501047
5452.000000;0.500353
5451.000000;0.500379
5450.000000;0.501090
5449.000000;0.502719
5448.000000;0.505776
5447.000000;0.510167
5446.000000;0.514682
5445.000000;0.518378
5444.000000;0.521912
5443.000000;0.526268
5442.000000;0.530692
5441.000000;0.533287
5440.000000;0.533380
5439.000000;0.532307
5438.000000;0.531658
5437.000000;0.531678
5436.000000;0.531840
5435.000000;0.531937
5434.000000;0.532112
5433.000000;0.532786
5432.000000;0.534645
5431.000000;0.538002
5430.000000;0.542278
5429.000000;0.546391
5428.000000;0.549479
5427.000000;0.551183
5426.000000;0.551453
5425.000000;0.550484
5424.000000;0.548768
5423.000000;0.546749
5422.000000;0.544412
5421.000000;0.541442
5420.000000;0.537791
5419.000000;0.534064
5418.000000;0.531671
5417.000000;0.532318
5416.000000;0.536668
5415.000000;0.543669
5414.000000;0.551614
5413.000000;0.559945
5412.000000;0.569252
5411.000000;0.579184
5410.000000;0.587679
5409.000000;0.592984
5408.000000;0.595318
5407.000000;0.595639
5406.000000;0.593902
5405.000000;0.589848
5404.000000;0.584662
5403.000000;0.580369
5402.000000;0.577853
5401.000000;0.576672
5400.000000;0.576680
5399.000000;0.578273
5398.000000;0.581494
5397.000000;0.586149
5396.000000;0.592262
5395.000000;0.599722
5394.000000;0.607609
5393.000000;0.614813
5392.000000;0.621194
5391.000000;0.627106
5390.000000;0.632315
5389.000000;0.636361
5388.000000;0.639578
5387.000000;0.642746
5386.000000;0.645816
5385.000000;0.648138
5384.000000;0.650019
5383.000000;0.652770
5382.000000;0.656755
5381.000000;0.661182
5380.000000;0.666006
5379.000000;0.672095
5378.000000;0.679561
5377.000000;0.687365
5376.000000;0.694897
5375.000000;0.702852
5374.000000;0.711689
5373.000000;0.720313
5372.000000;0.727395
5371.000000;0.732831
5370.000000;0.737139
5369.000000;0.740347
5368.000000;0.742519
5367.000000;0.744913
5366.000000;0.749319
5365.000000;0.756265
5364.000000;0.764772
5363.000000;0.773901
5362.000000;0.783436
5361.000000;0.793235
5360.000000;0.802866
5359.000000;0.812127
5358.000000;0.821554
5357.000000;0.832063
5356.000000;0.844313
5355.000000;0.858413
5354.000000;0.873833
5353.000000;0.889642
5352.000000;0.905235
5351.000000;0.920708
5350.000000;0.936038
5349.000000;0.950723
5348.000000;0.964937
5347.000000;0.980007
5346.000000;0.996871
5345.000000;1.014601
5344.000000;1.031402
5343.000000;1.047197
5342.000000;1.063940
5341.000000;1.082708
5340.000000;1.102468
5339.000000;1.122045
5338.000000;1.141440
5337.000000;1.160687
5336.000000;1.179036
5335.000000;1.196185
5334.000000;1.213149
5333.000000;1.230959
5332.000000;1.249173
5331.000000;1.266889
5330.000000;1.284540
5329.000000;1.303560
5328.000000;1.324649
5327.000000;1.347407
5326.000000;1.371478
5325.000000;1.396696
5324.000000;1.422156
5323.000000;1.446856
5322.000000;1.471276
5321.000000;1.496544
5320.000000;1.522427
5319.000000;1.547895
5318.000000;1.573417
5317.000000;1.600739
5316.000000;1.630453
5315.000000;1.661493
5314.000000;1.692964
5313.000000;1.724700
5312.000000;1.756243
5311.000000;1.787477
5310.000000;1.819888
5309.000000;1.855083
5308.000000;1.892219
5307.000000;1.928742
5306.000000;1.963548
5305.000000;1.997230
5304.000000;2.029732
5303.000000;2.060596
5302.000000;2.091085
5301.000000;2.123013
5300.000000;2.155800
5299.000000;2.187605
5298.000000;2.218657
5297.000000;2.249811
5296.000000;2.278650
5295.000000;2.301774
5294.000000;2.320663
5293.000000;2.340088
5292.000000;2.361565
5291.000000;2.383281
5290.000000;2.404937
5289.000000;2.427460
5288.000000;2.448594
5287.000000;2.464318
5286.000000;2.474318
5285.000000;2.481258
5284.000000;2.486445
5283.000000;2.490911
5282.000000;2.498330
5281.000000;2.511578
5280.000000;2.527370
5279.000000;2.539136
5278.000000;2.544753
5277.000000;2.546084
5276.000000;2.544272
5275.000000;2.540643
5274.000000;2.538280
5273.000000;2.538523
5272.000000;2.538615
5271.000000;2.536771
5270.000000;2.536389
5269.000000;2.540893
5268.000000;2.548241
5267.000000;2.554776
5266.000000;2.561148
5265.000000;2.569622
5264.000000;2.578412
5263.000000;2.583613
5262.000000;2.584737
5261.000000;2.583593
5260.000000;2.580676
5259.000000;2.577438
5258.000000;2.577483
5257.000000;2.581663
5256.000000;2.585515
5255.000000;2.584857
5254.000000;2.581483
5253.000000;2.579193
5252.000000;2.577485
5251.000000;2.574450
5250.000000;2.572505
5249.000000;2.575128
5248.000000;2.580949
5247.000000;2.586086
5246.000000;2.589711
5245.000000;2.592638
5244.000000;2.593170
5243.000000;2.589589
5242.000000;2.584606
5241.000000;2.582453
5240.000000;2.583179
5239.000000;2.583576
5238.000000;2.581823
5237.000000;2.578078
5236.000000;2.572377
5235.000000;2.565443
5234.000000;2.559981
5233.000000;2.557943
5232.000000;2.558007
5231.000000;2.558111
5230.000000;2.558837
5229.000000;2.561784
5228.000000;2.565985
5227.000000;2.568528
5226.000000;2.568011
5225.000000;2.565697
5224.000000;2.563640
5223.000000;2.562884
5222.000000;2.563032
5221.000000;2.562854
5220.000000;2.562115
5219.000000;2.562661
5218.000000;2.565759
5217.000000;2.568451
5216.000000;2.565863
5215.000000;2.558566
5214.000000;2.553399
5213.000000;2.555419
5212.000000;2.562251
5211.000000;2.567211
5210.000000;2.566717
5209.000000;2.562886
5208.000000;2.560392
5207.000000;2.562846
5206.000000;2.570541
5205.000000;2.579871
5204.000000;2.586027
5203.000000;2.587565
5202.000000;2.586392
5201.000000;2.583146
5200.000000;2.576325
5199.000000;2.567237
5198.000000;2.561623
5197.000000;2.563640
5196.000000;2.571041
5195.000000;2.577919
5194.000000;2.580764
5193.000000;2.580780
5192.000000;2.581707
5191.000000;2.586185
5190.000000;2.593039
5189.000000;2.597229
5188.000000;2.594408
5187.000000;2.586709
5186.000000;2.580683
5185.000000;2.579448
5184.000000;2.580423
5183.000000;2.580501
5182.000000;2.579485
5181.000000;2.577427
5180.000000;2.573121
5179.000000;2.567148
5178.000000;2.562742
5177.000000;2.561581
5176.000000;2.561642
5175.000000;2.560897
5174.000000;2.559905
5173.000000;2.558883
5172.000000;2.555991
5171.000000;2.550793
5170.000000;2.546200
5169.000000;2.544946
5168.000000;2.546665
5167.000000;2.549738
5166.000000;2.553384
5165.000000;2.556201
5164.000000;2.555547
5163.000000;2.551150
5162.000000;2.546768
5161.000000;2.545614
5160.000000;2.546652
5159.000000;2.547316
5158.000000;2.547392
5157.000000;2.547822
5156.000000;2.547932
5155.000000;2.546720
5154.000000;2.545368
5153.000000;2.545810
5152.000000;2.547882
5151.000000;2.549793
5150.000000;2.550360
5149.000000;2.549379
5148.000000;2.547190
5147.000000;2.545304
5146.000000;2.545921
5145.000000;2.549137
5144.000000;2.551669
5143.000000;2.549939
5142.000000;2.544220
5141.000000;2.538826
5140.000000;2.538547
5139.000000;2.544973
5138.000000;2.554500
5137.000000;2.559866
5136.000000;2.556598
5135.000000;2.548124
5134.000000;2.541559
5133.000000;2.539688
5132.000000;2.539919
5131.000000;2.540190
5130.000000;2.541830
5129.000000;2.545090
5128.000000;2.546246
5127.000000;2.542500
5126.000000;2.536930
5125.000000;2.535237
5124.000000;2.539720
5123.000000;2.547933
5122.000000;2.555271
5121.000000;2.558410
5120.000000;2.557678
5119.000000;2.557154
5118.000000;2.561085
5117.000000;2.568312
5116.000000;2.572172
5115.000000;2.568128
5114.000000;2.559181
5113.000000;2.551388
5112.000000;2.547359
5111.000000;2.546214
5110.000000;2.546719
5109.000000;2.547679
5108.000000;2.546949
5107.000000;2.542977
5106.000000;2.536940
5105.000000;2.531547
5104.000000;2.528474
5103.000000;2.528117
5102.000000;2.530528
5101.000000;2.535000
5100.000000;2.539511
5099.000000;2.542073
5098.000000;2.542436
5097.000000;2.541733
5096.000000;2.540806
5095.000000;2.539444
5094.000000;2.537124
5093.000000;2.533806
5092.000000;2.530226
5091.000000;2.527871
5090.000000;2.527592
5089.000000;2.528135
5088.000000;2.527834
5087.000000;2.527711
5086.000000;2.530427
5085.000000;2.535863
5084.000000;2.539980
5083.000000;2.539366
5082.000000;2.535479
5081.000000;2.532489
5080.000000;2.532405
5079.000000;2.533965
5078.000000;2.535193
5077.000000;2.535738
5076.000000;2.536632
5075.000000;2.538287
5074.000000;2.539061
5073.000000;2.536183
5072.000000;2.528905
5071.000000;2.520096
5070.000000;2.513640
5069.000000;2.511058
5068.000000;2.511417
5067.000000;2.513349
5066.000000;2.515704
5065.000000;2.517227
5064.000000;2.517603
5063.000000;2.518252
5062.000000;2.520149
5061.000000;2.521378
5060.000000;2.519219
5059.000000;2.514260
5058.000000;2.509429
5057.000000;2.505340
5056.000000;2.500110
5055.000000;2.494128
5054.000000;2.491111
5053.000000;2.493114
5052.000000;2.497429
5051.000000;2.499891
5050.000000;2.499314
5049.000000;2.496877
5048.000000;2.493354
5047.000000;2.489285
5046.000000;2.485868
5045.000000;2.483678
5044.000000;2.481887
5043.000000;2.480200
5042.000000;2.480030
5041.000000;2.482006
5040.000000;2.483596
5039.000000;2.481176
5038.000000;2.474083
5037.000000;2.465210
5036.000000;2.458067
5035.000000;2.454398
5034.000000;2.453923
5033.000000;2.455291
5032.000000;2.457207
5031.000000;2.459051
5030.000000;2.460328
5029.000000;2.459805
5028.000000;2.456266
5027.000000;2.450228
5026.000000;2.443698
5025.000000;2.438173
5024.000000;2.434074
5023.000000;2.431862
5022.000000;2.431929
5021.000000;2.432878
5020.000000;2.431848
5019.000000;2.427976
5018.000000;2.423923
5017.000000;2.422387
5016.000000;2.422583
5015.000000;2.421746
5014.000000;2.418995
5013.000000;2.415922
5012.000000;2.413769
5011.000000;2.411719
5010.000000;2.408266
5009.000000;2.403198
5008.000000;2.397682
5007.000000;2.392867
5006.000000;2.388680
5005.000000;2.383947
5004.000000;2.377726
5003.000000;2.370514
5002.000000;2.363980
5001.000000;2.359618
5000.000000;2.357656
4999.000000;2.356951
4998.000000;2.355472
4997.000000;2.351651
4996.000000;2.345794
4995.000000;2.339802
4994.000000;2.335573
4993.000000;2.333302
4992.000000;2.331712
4991.000000;2.329052
4990.000000;2.323986
4989.000000;2.316513
4988.000000;2.308687
4987.000000;2.303414
4986.000000;2.301440
4985.000000;2.300053
4984.000000;2.295904
4983.000000;2.288623
4982.000000;2.280405
4981.000000;2.272920
4980.000000;2.266372
4979.000000;2.260989
4978.000000;2.257347
4977.000000;2.255014
4976.000000;2.252482
4975.000000;2.248822
4974.000000;2.244117
4973.000000;2.238328
4972.000000;2.231189
4971.000000;2.223259
4970.000000;2.215772
4969.000000;2.209226
4968.000000;2.203200
4967.000000;2.197792
4966.000000;2.193894
4965.000000;2.191321
4964.000000;2.187933
4963.000000;2.181781
4962.000000;2.173510
4961.000000;2.165616
4960.000000;2.159871
4959.000000;2.156296
4958.000000;2.153721
4957.000000;2.150485
4956.000000;2.145210
4955.000000;2.137760
4954.000000;2.129358
4953.000000;2.121524
4952.000000;2.115006
4951.000000;2.109717
4950.000000;2.105163
4949.000000;2.100651
4948.000000;2.095505
4947.000000;2.089499
4946.000000;2.082879
4945.000000;2.075926
4944.000000;2.068923
4943.000000;2.062464
4942.000000;2.057057
4941.000000;2.052194
4940.000000;2.046435
4939.000000;2.038964
4938.000000;2.030611
4937.000000;2.022932
4936.000000;2.016659
4935.000000;2.011349
4934.000000;2.006184
4933.000000;2.000708
4932.000000;1.994989
4931.000000;1.989418
4930.000000;1.984301
4929.000000;1.979457
4928.000000;1.974315
4927.000000;1.968521
4926.000000;1.962313
4925.000000;1.956170
4924.000000;1.950224
4923.000000;1.944165
4922.000000;1.937604
4921.000000;1.930565
4920.000000;1.923639
4919.000000;1.917529
4918.000000;1.912342
4917.000000;1.907440
4916.000000;1.902161
4915.000000;1.896547
4914.000000;1.890988
4913.000000;1.885433
4912.000000;1.879546
4911.000000;1.873526
4910.000000;1.867946
4909.000000;1.862626
4908.000000;1.856448
4907.000000;1.848797
4906.000000;1.840642
4905.000000;1.833513
4904.000000;1.827796
4903.000000;1.822715
4902.000000;1.817738
4901.000000;1.813186
4900.000000;1.809246
4899.000000;1.805073
4898.000000;1.799477
4897.000000;1.792338
4896.000000;1.784822
4895.000000;1.778160
4894.000000;1.772559
4893.000000;1.767367
4892.000000;1.762020
4891.000000;1.756609
4890.000000;1.751616
4889.000000;1.747311
4888.000000;1.743419
4887.000000;1.739230
4886.000000;1.734047
4885.000000;1.727776
4884.000000;1.721111
4883.000000;1.714961
4882.000000;1.709566
4881.000000;1.704330
4880.000000;1.698589
4879.000000;1.692399
4878.000000;1.686398
4877.000000;1.681022
4876.000000;1.676086
4875.000000;1.671034
4874.000000;1.665432
4873.000000;1.659330
4872.000000;1.653293
4871.000000;1.647973
4870.000000;1.643423
4869.000000;1.638927
4868.000000;1.633760
4867.000000;1.628057
4866.000000;1.622613
4865.000000;1.617845
4864.000000;1.613310
4863.000000;1.608342
4862.000000;1.602836
4861.000000;1.597221
4860.000000;1.591873
4859.000000;1.586818
4858.000000;1.581880
4857.000000;1.576915
4856.000000;1.571913
4855.000000;1.566957
4854.000000;1.562099
4853.000000;1.557227
4852.000000;1.552154
4851.000000;1.546847
4850.000000;1.541452
4849.000000;1.536055
4848.000000;1.530561
4847.000000;1.524926
4846.000000;1.519384
4845.000000;1.514270
4844.000000;1.509689
4843.000000;1.505475
4842.000000;1.501423
4841.000000;1.497409
4840.000000;1.493283
4839.000000;1.488841
4838.000000;1.483988
4837.000000;1.478892
4836.000000;1.473864
4835.000000;1.469094
4834.000000;1.464532
4833.000000;1.460012
4832.000000;1.455455
4831.000000;1.450894
4830.000000;1.446316
4829.000000;1.441574
4828.000000;1.436570
4827.000000;1.431493
4826.000000;1.426733
4825.000000;1.422461
4824.000000;1.418414
4823.000000;1.414167
4822.000000;1.409582
4821.000000;1.404853
4820.000000;1.400187
4819.000000;1.395618
4818.000000;1.391160
4817.000000;1.386932
4816.000000;1.382959
4815.000000;1.378999
4814.000000;1.374745
4813.000000;1.370197
4812.000000;1.365667
4811.000000;1.361399
4810.000000;1.357301
4809.000000;1.353116
4808.000000;1.348722
4807.000000;1.344183
4806.000000;1.339639
4805.000000;1.335210
4804.000000;1.330980
4803.000000;1.326965
4802.000000;1.323069
4801.000000;1.319159
4800.000000;1.315140
4799.000000;1.310976
4798.000000;1.306686
4797.000000;1.302383
4796.000000;1.298255
4795.000000;1.294415
4794.000000;1.290772
4793.000000;1.287110
4792.000000;1.283287
4791.000000;1.279304
4790.000000;1.275265
4789.000000;1.271321
4788.000000;1.267602
4787.000000;1.264057
4786.000000;1.260414
4785.000000;1.256425
4784.000000;1.252157
4783.000000;1.247904
4782.000000;1.243825
4781.000000;1.239834
4780.000000;1.235869
4779.000000;1.232043
4778.000000;1.228438
4777.000000;1.224902
4776.000000;1.221237
4775.000000;1.217470
4774.000000;1.213794
4773.000000;1.210285
4772.000000;1.206837
4771.000000;1.203347
4770.000000;1.199800
4769.000000;1.196165
4768.000000;1.192380
4767.000000;1.188514
4766.000000;1.184801
4765.000000;1.181425
4764.000000;1.178277
4763.000000;1.175040
4762.000000;1.171520
4761.000000;1.167849
4760.000000;1.164328
4759.000000;1.161089
4758.000000;1.157959
4757.000000;1.154667
4756.000000;1.151124
4755.000000;1.147479
4754.000000;1.143936
4753.000000;1.140591
4752.000000;1.137441
4751.000000;1.134426
4750.000000;1.131445
4749.000000;1.128398
4748.000000;1.125280
4747.000000;1.122184
4746.000000;1.119162
4745.000000;1.116154
4744.000000;1.113076
4743.000000;1.109931
4742.000000;1.106772
4741.000000;1.103614
4740.000000;1.100454
4739.000000;1.097329
4738.000000;1.094257
4737.000000;1.091201
4736.000000;1.088153
4735.000000;1.085216
4734.000000;1.082467
4733.000000;1.079776
4732.000000;1.076888
4731.000000;1.073734
4730.000000;1.070523
4729.000000;1.067480
4728.000000;1.064610
4727.000000;1.061790
4726.000000;1.058991
4725.000000;1.056289
4724.000000;1.053685
4723.000000;1.051047
4722.000000;1.048249
4721.000000;1.045305
4720.000000;1.042358
4719.000000;1.039563
4718.000000;1.036990
4717.000000;1.034592
4716.000000;1.032257
4715.000000;1.029903
4714.000000;1.027547
4713.000000;1.025240
4712.000000;1.022946
4711.000000;1.020534
4710.000000;1.017929
4709.000000;1.015212
4708.000000;1.012549
4707.000000;1.010024
4706.000000;1.007597
4705.000000;1.005204
4704.000000;1.002838
4703.000000;1.000519
4702.000000;0.998231
4701.000000;0.995920
4700.000000;0.993544
4699.000000;0.991122
4698.000000;0.988725
4697.000000;0.986432
4696.000000;0.984261
4695.000000;0.982145
4694.000000;0.979995
4693.000000;0.977790
4692.000000;0.975581
4691.000000;0.973394
4690.000000;0.971195
4689.000000;0.968961
4688.000000;0.966761
4687.000000;0.964696
4686.000000;0.962787
4685.000000;0.960944
4684.000000;0.959067
4683.000000;0.957134
4682.000000;0.955206
4681.000000;0.953356
4680.000000;0.951599
4679.000000;0.949867
4678.000000;0.948046
4677.000000;0.946069
4676.000000;0.943990
4675.000000;0.941933
4674.000000;0.939989
4673.000000;0.938163
4672.000000;0.936395
4671.000000;0.934624
4670.000000;0.932826
4669.000000;0.931029
4668.000000;0.929286
4667.000000;0.927612
4666.000000;0.925964
4665.000000;0.924287
4664.000000;0.922585
4663.000000;0.920910
4662.000000;0.919293
4661.000000;0.917721
4660.000000;0.916160
4659.000000;0.914578
4658.000000;0.912954
4657.000000;0.911299
4656.000000;0.909662
4655.000000;0.908088
4654.000000;0.906557
4653.000000;0.905007
4652.000000;0.903415
4651.000000;0.901822
4650.000000;0.900290
4649.000000;0.898844
4648.000000;0.897468
4647.000000;0.896120
4646.000000;0.894747
4645.000000;0.893330
4644.000000;0.891906
4643.000000;0.890533
4642.000000;0.889225
4641.000000;0.887950
4640.000000;0.886686
4639.000000;0.885437
4638.000000;0.884198
4637.000000;0.882944
4636.000000;0.881668
4635.000000;0.880392
4634.000000;0.879127
4633.000000;0.877862
4632.000000;0.876597
4631.000000;0.875347
4630.000000;0.874100
4629.000000;0.872829
4628.000000;0.871557
4627.000000;0.870360
4626.000000;0.869266
4625.000000;0.868208
4624.000000;0.867123
4623.000000;0.866053
4622.000000;0.865081
4621.000000;0.864191
4620.000000;0.863247
4619.000000;0.862141
4618.000000;0.860900
4617.000000;0.859651
4616.000000;0.858510
4615.000000;0.857518
4614.000000;0.856637
4613.000000;0.855770
4612.000000;0.854821
4611.000000;0.853787
4610.000000;0.852800
4609.000000;0.852028
4608.000000;0.851502
4607.000000;0.851050
4606.000000;0.850431
4605.000000;0.849551
4604.000000;0.848535
4603.000000;0.847587
4602.000000;0.846794
4601.000000;0.846078
4600.000000;0.845320
4599.000000;0.844492
4598.000000;0.843664
4597.000000;0.842903
4596.000000;0.842199
4595.000000;0.841495
4594.000000;0.840772
4593.000000;0.840072
4592.000000;0.839444
4591.000000;0.838877
4590.000000;0.838336
4589.000000;0.837819
4588.000000;0.837347
4587.000000;0.836903
4586.000000;0.836433
4585.000000;0.835928
4584.000000;0.835459
4583.000000;0.835089
4582.000000;0.834798
4581.000000;0.834521
4580.000000;0.834232
4579.000000;0.833923
4578.000000;0.833555
4577.000000;0.833083
4576.000000;0.832555
4575.000000;0.832115
4574.000000;0.831879
4573.000000;0.831824
4572.000000;0.831806
4571.000000;0.831689
4570.000000;0.831446
4569.000000;0.831151
4568.000000;0.830896
4567.000000;0.830702
4566.000000;0.830538
4565.000000;0.830395
4564.000000;0.830315
4563.000000;0.830325
4562.000000;0.830399
4561.000000;0.830490
4560.000000;0.830568
4559.000000;0.830594
4558.000000;0.830511
4557.000000;0.830336
4556.000000;0.830200
4555.000000;0.830241
4554.000000;0.830454
4553.000000;0.830717
4552.000000;0.830950
4551.000000;0.831189
4550.000000;0.831497
4549.000000;0.831881
4548.000000;0.832295
4547.000000;0.832674
4546.000000;0.832962
4545.000000;0.833145
4544.000000;0.833292
4543.000000;0.833514
4542.000000;0.833856
4541.000000;0.834262
4540.000000;0.834648
4539.000000;0.834976
4538.000000;0.835253
4537.000000;0.835511
4536.000000;0.835809
4535.000000;0.836203
4534.000000;0.836705
4533.000000;0.837273
4532.000000;0.837828
4531.000000;0.838274
4530.000000;0.838551
4529.000000;0.838711
4528.000000;0.838922
4527.000000;0.839306
4526.000000;0.839814
4525.000000;0.840316
4524.000000;0.840785
4523.000000;0.841293
4522.000000;0.841830
4521.000000;0.842260
4520.000000;0.842500
4519.000000;0.842650
4518.000000;0.842882
4517.000000;0.843266
4516.000000;0.843758
4515.000000;0.844281
4514.000000;0.844777
4513.000000;0.845228
4512.000000;0.845666
4511.000000;0.846137
4510.000000;0.846619
4509.000000;0.847030
4508.000000;0.847356
4507.000000;0.847694
4506.000000;0.848123
4505.000000;0.848605
4504.000000;0.849068
4503.000000;0.849523
4502.000000;0.850047
4501.000000;0.850672
4500.000000;0.851366
4499.000000;0.852093
4498.000000;0.852825
4497.000000;0.853513
4496.000000;0.854115
4495.000000;0.854658
4494.000000;0.855222
4493.000000;0.855866
4492.000000;0.856605
4491.000000;0.857429
4490.000000;0.858318
4489.000000;0.859233
4488.000000;0.860133
4487.000000;0.861003
4486.000000;0.861869
4485.000000;0.862778
4484.000000;0.863767
4483.000000;0.864805
4482.000000;0.865788
4481.000000;0.866661
4480.000000;0.867550
4479.000000;0.868669
4478.000000;0.870041
4477.000000;0.871415
4476.000000;0.872543
4475.000000;0.873464
4474.000000;0.874438
4473.000000;0.875637
4472.000000;0.877012
4471.000000;0.878434
4470.000000;0.879833
4469.000000;0.881171
4468.000000;0.882404
4467.000000;0.883528
4466.000000;0.884615
4465.000000;0.885781
4464.000000;0.887129
4463.000000;0.888712
4462.000000;0.890492
4461.000000;0.892311
4460.000000;0.893959
4459.000000;0.895336
4458.000000;0.896533
4457.000000;0.897740
4456.000000;0.899116
4455.000000;0.900711
4454.000000;0.902467
4453.000000;0.904248
4452.000000;0.905928
4451.000000;0.907482
4450.000000;0.908994
4449.000000;0.910576
4448.000000;0.912290
4447.000000;0.914162
4446.000000;0.916193
4445.000000;0.918322
4444.000000;0.920422
4443.000000;0.922401
4442.000000;0.924293
4441.000000;0.926209
4440.000000;0.928184
4439.000000;0.930135
4438.000000;0.931980
4437.000000;0.933768
4436.000000;0.935632
4435.000000;0.937656
4434.000000;0.939800
4433.000000;0.941967
4432.000000;0.944093
4431.000000;0.946167
4430.000000;0.948198
4429.000000;0.950204
4428.000000;0.952225
4427.000000;0.954319
4426.000000;0.956549
4425.000000;0.958963
4424.000000;0.961558
4423.000000;0.964235
4422.000000;0.966804
4421.000000;0.969113
4420.000000;0.971187
4419.000000;0.973241
4418.000000;0.975513
4417.000000;0.978075
4416.000000;0.980786
4415.000000;0.983414
4414.000000;0.985817
4413.000000;0.988047
4412.000000;0.990311
4411.000000;0.992814
4410.000000;0.995627
4409.000000;0.998646
4408.000000;1.001661
4407.000000;1.004466
4406.000000;1.006964
4405.000000;1.009225
4404.000000;1.011445
4403.000000;1.013813
4402.000000;1.016395
4401.000000;1.019127
4400.000000;1.021917
4399.000000;1.024721
4398.000000;1.027546
4397.000000;1.030403
4396.000000;1.033263
4395.000000;1.036064
4394.000000;1.038795
4393.000000;1.041583
4392.000000;1.044624
4391.000000;1.047985
4390.000000;1.051485
4389.000000;1.054850
4388.000000;1.057969
4387.000000;1.060948
4386.000000;1.063919
4385.000000;1.066889
4384.000000;1.069804
4383.000000;1.072673
4382.000000;1.075588
4381.000000;1.078649
4380.000000;1.081890
4379.000000;1.085244
4378.000000;1.088562
4377.000000;1.091728
4376.000000;1.094778
4375.000000;1.097865
4374.000000;1.101067
4373.000000;1.104291
4372.000000;1.107433
4371.000000;1.110595
4370.000000;1.114036
4369.000000;1.117875
4368.000000;1.121941
4367.000000;1.125933
4366.000000;1.129698
4365.000000;1.133262
4364.000000;1.136675
4363.000000;1.139950
4362.000000;1.143190
4361.000000;1.146624
4360.000000;1.150415
4359.000000;1.154476
4358.000000;1.158556
4357.000000;1.162480
4356.000000;1.166278
4355.000000;1.170137
4354.000000;1.174323
4353.000000;1.179016
4352.000000;1.184048
4351.000000;1.188832
4350.000000;1.192804
4349.000000;1.196046
4348.000000;1.199300
4347.000000;1.203243
4346.000000;1.207850
4345.000000;1.212569
4344.000000;1.216980
4343.000000;1.221135
4342.000000;1.225351
4341.000000;1.229859
4340.000000;1.234656
4339.000000;1.239544
4338.000000;1.244251
4337.000000;1.248615
4336.000000;1.252705
4335.000000;1.256772
4334.000000;1.261092
4333.000000;1.265817
4332.000000;1.270865
4331.000000;1.275903
4330.000000;1.280514
4329.000000;1.284521
4328.000000;1.288159
4327.000000;1.291912
4326.000000;1.296186
4325.000000;1.301107
4324.000000;1.306519
4323.000000;1.312112
4322.000000;1.317585
4321.000000;1.322784
4320.000000;1.327749
4319.000000;1.332704
4318.000000;1.338001
4317.000000;1.343841
4316.000000;1.349903
4315.000000;1.355418
4314.000000;1.359923
4313.000000;1.363865
4312.000000;1.368117
4311.000000;1.372989
4310.000000;1.378121
4309.000000;1.383312
4308.000000;1.388890
4307.000000;1.395066
4306.000000;1.401402
4305.000000;1.407285
4304.000000;1.412571
4303.000000;1.417472
4302.000000;1.422145
4301.000000;1.426746
4300.000000;1.431547
4299.000000;1.436682
4298.000000;1.442072
4297.000000;1.447861
4296.000000;1.454450
4295.000000;1.461737
4294.000000;1.468810
4293.000000;1.475001
4292.000000;1.480749
4291.000000;1.486716
4290.000000;1.492529
4289.000000;1.497351
4288.000000;1.501450
4287.000000;1.506110
4286.000000;1.512022
4285.000000;1.518676
4284.000000;1.525388
4283.000000;1.532001
4282.000000;1.538316
4281.000000;1.543823
4280.000000;1.548593
4279.000000;1.553702
4278.000000;1.560120
4277.000000;1.567639
4276.000000;1.575294
4275.000000;1.582399
4274.000000;1.588756
4273.000000;1.594295
4272.000000;1.599139
4271.000000;1.603901
4270.000000;1.609410
4269.000000;1.616113
4268.000000;1.623815
4267.000000;1.631828
4266.000000;1.639337
4265.000000;1.645920
4264.000000;1.651771
4263.000000;1.657312
4262.000000;1.662790
4261.000000;1.668520
4260.000000;1.675218
4259.000000;1.683456
4258.000000;1.692757
4257.000000;1.701782
4256.000000;1.709520
4255.000000;1.715871
4254.000000;1.721228
4253.000000;1.726201
4252.000000;1.731681
4251.000000;1.738277
4250.000000;1.745454
4249.000000;1.751953
4248.000000;1.757448
4247.000000;1.763150
4246.000000;1.770407
4245.000000;1.779275
4244.000000;1.788716
4243.000000;1.797762
4242.000000;1.805949
4241.000000;1.813237
4240.000000;1.819681
4239.000000;1.825194
4238.000000;1.829694
4237.000000;1.833691
4236.000000;1.838278
4235.000000;1.843957
4234.000000;1.849985
4233.000000;1.855748
4232.000000;1.862294
4231.000000;1.871313
4230.000000;1.882884
4229.000000;1.895364
4228.000000;1.907073
4227.000000;1.916754
4226.000000;1.923010
4225.000000;1.925653
4224.000000;1.927549
4223.000000;1.932451
4222.000000;1.940601
4221.000000;1.948744
4220.000000;1.955018
4219.000000;1.961406
4218.000000;1.970229
4217.000000;1.980574
4216.000000;1.990089
4215.000000;1.998612
4214.000000;2.007551
4213.000000;2.016890
4212.000000;2.025372
4211.000000;2.032760
4210.000000;2.039465
4209.000000;2.044812
4208.000000;2.048412
4207.000000;2.052552
4206.000000;2.060250
4205.000000;2.070945
4204.000000;2.080542
4203.000000;2.086921
4202.000000;2.092756
4201.000000;2.101179
4200.000000;2.111544
4199.000000;2.120435
4198.000000;2.125603
4197.000000;2.128099
4196.000000;2.130834
4195.000000;2.136260
4194.000000;2.144828
4193.000000;2.154863
4192.000000;2.164742
4191.000000;2.173930
4190.000000;2.182015
4189.000000;2.188849
4188.000000;2.195191
4187.000000;2.202580
4186.000000;2.211680
4185.000000;2.220818
4184.000000;2.228183
4183.000000;2.235343
4182.000000;2.245877
4181.000000;2.259777
4180.000000;2.271628
4179.000000;2.276270
4178.000000;2.275344
4177.000000;2.276602
4176.000000;2.286303
4175.000000;2.303763
4174.000000;2.323126
4173.000000;2.338959
4172.000000;2.349980
4171.000000;2.356993
4170.000000;2.359756
4169.000000;2.359022
4168.000000;2.360520
4167.000000;2.371711
4166.000000;2.393157
4165.000000;2.414989
4164.000000;2.425665
4163.000000;2.425996
4162.000000;2.426476
4161.000000;2.431244
4160.000000;2.434510
4159.000000;2.434025
4158.000000;2.438533
4157.000000;2.456990
4156.000000;2.486597
4155.000000;2.513159
4154.000000;2.525172
4153.000000;2.526216
4152.000000;2.527657
4151.000000;2.535815
4150.000000;2.550067
4149.000000;2.566231
4148.000000;2.578160
4147.000000;2.580325
4146.000000;2.573510
4145.000000;2.564893
4144.000000;2.561035
4143.000000;2.563531
4142.000000;2.569502
4141.000000;2.576727
4140.000000;2.587034
4139.000000;2.601398
4138.000000;2.618079
4137.000000;2.635076
4136.000000;2.649913
4135.000000;2.659191
4134.000000;2.659367
4133.000000;2.652128
4132.000000;2.642892
4131.000000;2.631227
4130.000000;2.617226
4129.000000;2.610542
4128.000000;2.621469
4127.000000;2.649293
4126.000000;2.681399
4125.000000;2.701107
4124.000000;2.702263
4123.000000;2.694084
4122.000000;2.695189
4121.000000;2.720304
4120.000000;2.763546
4119.000000;2.793611
4118.000000;2.783149
4117.000000;2.748121
4116.000000;2.723412
4115.000000;2.721783
4114.000000;2.731430
4113.000000;2.736554
4112.000000;2.736915
4111.000000;2.735099
4110.000000;2.732937
4109.000000;2.739153
4108.000000;2.756140
4107.000000;2.773927
4106.000000;2.781619
4105.000000;2.785659
4104.000000;2.802980
4103.000000;2.833774
4102.000000;2.857137
4101.000000;2.864606
4100.000000;2.877583
4099.000000;2.910761
4098.000000;2.944147
4097.000000;2.934574
4096.000000;2.873217
4095.000000;2.801529
4094.000000;2.754438
4093.000000;2.750185
4092.000000;2.799891
4091.000000;2.893643
4090.000000;2.969568
4089.000000;2.946894
4088.000000;2.861332
4087.000000;2.804800
4086.000000;2.808656
4085.000000;2.848337
4084.000000;2.881385
4083.000000;2.901167
4082.000000;2.923343
4081.000000;2.942603
4080.000000;2.945557
4079.000000;2.942115
4078.000000;2.962209
4077.000000;3.021396
4076.000000;3.095406
4075.000000;3.125755
4074.000000;3.102178
4073.000000;3.076788
4072.000000;3.063893
4071.000000;3.021061
4070.000000;2.952172
4069.000000;2.924937
4068.000000;2.962588
4067.000000;3.025055
4066.000000;3.089950
4065.000000;3.090548
4064.000000;2.992888
4063.000000;2.937178
4062.000000;2.954541
4061.000000;2.984517
4060.000000;2.968787
4059.000000;2.934192
4058.000000;2.910324
4057.000000;2.887024
4056.000000;2.861842
4055.000000;2.832377
4054.000000;2.800200
4053.000000;2.784573
4052.000000;2.798363
4051.000000;2.835010
4050.000000;2.874373
4049.000000;2.898979
4048.000000;2.909443
4047.000000;2.908232
4046.000000;2.887856
4045.000000;2.859873
4044.000000;2.856038
4043.000000;2.888597
4042.000000;2.934793
4041.000000;2.965246
4040.000000;2.983192
4039.000000;3.014398
4038.000000;3.078657
4037.000000;3.183233
4036.000000;3.320070
4035.000000;3.453728
4034.000000;3.500225
4033.000000;3.399766
4032.000000;3.219806
4031.000000;3.072330
4030.000000;3.017749
4029.000000;3.100406
4028.000000;3.317485
4027.000000;3.281992
4026.000000;3.065531
4025.000000;2.975672
4024.000000;2.968020
4023.000000;3.016090
4022.000000;3.047238
4021.000000;3.024105
4020.000000;2.989996
4019.000000;2.978398
4018.000000;2.985545
4017.000000;2.969029
4016.000000;2.933467
4015.000000;2.929254
4014.000000;2.974318
4013.000000;3.033776
4012.000000;3.064883
4011.000000;3.089526
4010.000000;3.128461
4009.000000;3.179609
4008.000000;3.245130
4007.000000;3.346586
4006.000000;3.428325
4005.000000;3.376250
4004.000000;3.326879
4003.000000;3.271190
4002.000000;3.201378
4001.000000;3.156394
4000.000000;3.079270
3999.000000;3.024958
3998.000000;3.039682
3997.000000;3.025668
3996.000000;2.966153
3995.000000;2.950222
3994.000000;2.977450
3993.000000;3.006541
3992.000000;3.039359
3991.000000;3.115458
3990.000000;3.278563
3989.000000;3.449519
3988.000000;3.542567
3987.000000;3.740377
3986.000000;3.480654
3985.000000;3.186128
3984.000000;3.037042
3983.000000;2.955350
3982.000000;2.921755
3981.000000;2.919530
3980.000000;2.941283
3979.000000;2.967812
3978.000000;2.951609
3977.000000;2.875608
3976.000000;2.801276
3975.000000;2.785954
3974.000000;2.838208
3973.000000;2.925176
3972.000000;3.002003
3971.000000;3.039462
3970.000000;3.025062
3969.000000;2.996234
3968.000000;3.001700
3967.000000;3.062472
3966.000000;3.171152
3965.000000;3.260839
3964.000000;3.279935
3963.000000;3.262637
3962.000000;3.223072
3961.000000;3.169109
3960.000000;3.101531
3959.000000;3.021785
3958.000000;2.965345
3957.000000;2.961674
3956.000000;3.014750
3955.000000;3.118697
3954.000000;3.172248
3953.000000;3.052146
3952.000000;2.928742
3951.000000;2.900084
3950.000000;2.986146
3949.000000;3.176926
3948.000000;3.283523
3947.000000;3.246345
3946.000000;3.333438
3945.000000;3.610624
3944.000000;3.551979
3943.000000;3.347598
3942.000000;3.367176
3941.000000;3.507272
3940.000000;3.887998
3939.000000;3.761170
3938.000000;3.362194
3937.000000;3.191619
3936.000000;3.103625
3935.000000;3.068133
3934.000000;3.061390
3933.000000;3.059538
3932.000000;3.030839
3931.000000;2.991404
3930.000000;2.965055
3929.000000;2.942905
3928.000000;2.922421
3927.000000;2.919533
3926.000000;2.963843
3925.000000;3.080120
3924.000000;3.224977
3923.000000;3.289597
3922.000000;3.424278
3921.000000;3.535584
3920.000000;3.320050
3919.000000;3.192648
3918.000000;3.307909
3917.000000;3.745569
3916.000000;3.558676
3915.000000;3.263249
3914.000000;3.199345
3913.000000;3.172053
3912.000000;3.231061
3911.000000;3.349094
3910.000000;3.454021
3909.000000;3.677619
3908.000000;3.753265
3907.000000;3.387462
3906.000000;3.200599
3905.000000;3.180052
3904.000000;3.270709
3903.000000;3.397458
3902.000000;3.442459
3901.000000;3.295883
3900.000000;3.103104
3899.000000;3.037747
3898.000000;3.073977
3897.000000;3.124770
3896.000000;3.106083
3895.000000;3.040786
3894.000000;2.987956
3893.000000;2.986103
3892.000000;3.016806
3891.000000;3.071705
3890.000000;3.284246
3889.000000;3.449013
3888.000000;3.219416
3887.000000;3.126481
3886.000000;3.107112
3885.000000;3.184548
3884.000000;3.544645
3883.000000;3.353930
3882.000000;3.024746
3881.000000;2.897292
3880.000000;2.850761
3879.000000;2.919199
3878.000000;3.116593
3877.000000;3.377959
3876.000000;3.459527
3875.000000;3.420959
3874.000000;3.285414
3873.000000;3.285709
3872.000000;3.635824
3871.000000;3.339528
3870.000000;2.982599
3869.000000;2.861093
3868.000000;2.816940
3867.000000;2.799764
3866.000000;2.814489
3865.000000;2.888702
3864.000000;3.007137
3863.000000;3.090795
3862.000000;3.075782
3861.000000;3.034861
3860.000000;3.000463
3859.000000;3.036163
3858.000000;3.092687
3857.000000;2.992632
3856.000000;2.822254
3855.000000;2.865120
3854.000000;3.077904
3853.000000;3.007573
3852.000000;3.070823
3851.000000;3.315023
3850.000000;3.514866
3849.000000;3.088655
3848.000000;3.152355
3847.000000;2.667968
3846.000000;2.423222
3845.000000;2.544312
3844.000000;2.527527
3843.000000;2.644725
3842.000000;2.832458
3841.000000;3.017837
3840.000000;3.196666
3839.000000;3.103556
3838.000000;3.024178
3837.000000;2.949099
3836.000000;2.871834
3835.000000;2.859018
3834.000000;3.017120
3833.000000;3.283878
3832.000000;3.841301
3831.000000;3.216186
3830.000000;3.019801
3829.000000;3.391913
3828.000000;3.066996
3827.000000;2.866041
3826.000000;2.861078
3825.000000;2.967384
3824.000000;3.141874
3823.000000;3.184906
3822.000000;3.062997
3821.000000;2.992976
3820.000000;2.857587
3819.000000;2.597358
3818.000000;2.436972
3817.000000;2.409029
3816.000000;2.450071
3815.000000;2.479177
3814.000000;2.458461
3813.000000;2.404858
3812.000000;2.367917
3811.000000;2.421956
3810.000000;2.619313
3809.000000;2.948670
3808.000000;3.307447
3807.000000;3.553141
3806.000000;3.665393
3805.000000;3.273060
3804.000000;3.070519
3803.000000;3.265196
3802.000000;2.884706
3801.000000;2.526812
3800.000000;2.463989
3799.000000;2.611152
3798.000000;2.861077
3797.000000;2.781186
3796.000000;2.607453
3795.000000;2.589508
3794.000000;2.651576
3793.000000;2.709843
3792.000000;2.785679
3791.000000;2.950150
3790.000000;3.189883
3789.000000;3.286589
3788.000000;3.191479
3787.000000;3.070509
3786.000000;2.981829
3785.000000;2.948396
3784.000000;2.989764
3783.000000;3.060650
3782.000000;2.991980
3781.000000;2.859342
3780.000000;2.837311
3779.000000;3.035048
3778.000000;3.119813
3777.000000;2.817937
3776.000000;2.667317
3775.000000;2.654403
3774.000000;2.691550
3773.000000;2.766538
3772.000000;2.870266
3771.000000;2.873889
3770.000000;2.805839
3769.000000;2.765284
3768.000000;2.717989
3767.000000;2.661223
3766.000000;2.636312
3765.000000;2.673469
3764.000000;2.787571
3763.000000;2.852566
3762.000000;2.770974
3761.000000;2.746855
3760.000000;2.727748
3759.000000;2.642263
3758.000000;2.606590
3757.000000;2.638380
3756.000000;2.959607
3755.000000;3.328859
3754.000000;2.707867
3753.000000;2.545629
3752.000000;2.408804
3751.000000;2.382858
3750.000000;2.145466
3749.000000;2.300340
3748.000000;3.266254
3747.000000;2.810929
3746.000000;3.120698
3745.000000;2.966092
3744.000000;3.556063
3743.000000;2.630929
3742.000000;2.440155
3741.000000;2.488154
3740.000000;2.372189
3739.000000;2.418569
3738.000000;2.515478
3737.000000;2.624660
3736.000000;2.580810
3735.000000;2.476004
3734.000000;2.573834
3733.000000;2.926774
3732.000000;2.720054
3731.000000;2.509746
3730.000000;2.612306
3729.000000;2.977417
3728.000000;3.007397
3727.000000;3.041366
3726.000000;3.102407
3725.000000;2.732770
3724.000000;2.633069
3723.000000;2.688330
3722.000000;2.792027
3721.000000;3.002856
3720.000000;3.192030
3719.000000;2.986717
3718.000000;2.837753
3717.000000;2.766364
3716.000000;2.664417
3715.000000;2.618892
3714.000000;2.684488
3713.000000;2.854394
3712.000000;3.181666
3711.000000;3.220559
3710.000000;2.806145
3709.000000;2.568480
3708.000000;2.841335
3707.000000;2.925113
3706.000000;2.469384
3705.000000;2.472971
3704.000000;2.626039
3703.000000;3.025677
3702.000000;3.073335
3701.000000;2.577131
3700.000000;2.461612
3699.000000;2.470162
3698.000000;2.597188
3697.000000;3.032794
3696.000000;3.366129
3695.000000;3.053376
3694.000000;3.011169
3693.000000;2.866684
3692.000000;2.773234
3691.000000;2.887502
3690.000000;3.106904
3689.000000;3.124533
3688.000000;2.723482
3687.000000;2.421124
3686.000000;2.244109
3685.000000;2.299956
3684.000000;2.478386
3683.000000;2.372406
3682.000000;2.302069
3681.000000;2.327538
3680.000000;2.359191
3679.000000;2.425271
3678.000000;2.631971
3677.000000;3.032569
3676.000000;2.821283
3675.000000;2.537428
3674.000000;2.509317
3673.000000;2.829632
3672.000000;2.543769
3671.000000;2.184812
3670.000000;2.093643
3669.000000;2.196984
3668.000000;2.514912
3667.000000;2.416759
3666.000000;2.324149
3665.000000;2.535787
3664.000000;2.582321
3663.000000;2.691679
3662.000000;3.069829
3661.000000;2.558113
3660.000000;2.269168
3659.000000;2.202784
3658.000000;2.247412
3657.000000;2.358987
3656.000000;2.400749
3655.000000;2.311960
3654.000000;2.223667
3653.000000;2.234396
3652.000000;2.381656
3651.000000;2.598040
3650.000000;2.466182
3649.000000;2.318610
3648.000000;2.436584
3647.000000;2.670592
3646.000000;2.371345
3645.000000;2.155591
3644.000000;2.124111
3643.000000;2.193844
3642.000000;2.486864
3641.000000;2.690478
3640.000000;2.518295
3639.000000;2.661042
3638.000000;2.857379
3637.000000;2.702330
3636.000000;2.655450
3635.000000;2.907984
3634.000000;3.014055
3633.000000;2.546998
3632.000000;2.479620
3631.000000;2.520714
3630.000000;2.352854
3629.000000;2.203874
3628.000000;2.202015
3627.000000;2.363503
3626.000000;2.502515
3625.000000;2.541931
3624.000000;2.693666
3623.000000;2.859631
3622.000000;2.978035
3621.000000;3.148332
3620.000000;2.963496
3619.000000;2.842980
3618.000000;2.933244
3617.000000;2.798302
3616.000000;2.532400
3615.000000;2.348225
3614.000000;2.212009
3613.000000;2.120118
3612.000000;2.118670
3611.000000;2.226060
3610.000000;2.436777
3609.000000;2.715536
3608.000000;2.750888
3607.000000;2.618133
3606.000000;2.580208
3605.000000;2.585779
3604.000000;2.584607
3603.000000;2.606002
3602.000000;2.653991
3601.000000;2.570406
3600.000000;2.428954
3599.000000;2.364582
3598.000000;2.440729
3597.000000;2.824646
3596.000000;2.644811
3595.000000;2.272727
3594.000000;2.199544
3593.000000;2.204765
3592.000000;2.257501
3591.000000;2.385299
3590.000000;2.522909
3589.000000;2.613586
3588.000000;2.647142
3587.000000;2.732378
3586.000000;2.570333
3585.000000;2.565589
3584.000000;3.024580
3583.000000;2.454678
3582.000000;2.104702
3581.000000;2.012213
3580.000000;2.016879
3579.000000;2.057357
3578.000000;2.087578
3577.000000;2.121658
3576.000000;2.152185
3575.000000;2.194361
3574.000000;2.311309
3573.000000;2.381798
3572.000000;2.237416
3571.000000;2.152012
3570.000000;2.209996
3569.000000;2.341339
3568.000000;2.429183
3567.000000;2.375316
3566.000000;2.322585
3565.000000;2.329473
3564.000000;2.421639
3563.000000;2.940185
3562.000000;2.941279
3561.000000;2.413944
3560.000000;2.231531
3559.000000;2.105983
3558.000000;2.070785
3557.000000;2.110785
3556.000000;2.175918
3555.000000;2.191853
3554.000000;2.126992
3553.000000;2.069188
3552.000000;2.059509
3551.000000;2.104617
3550.000000;2.161818
3549.000000;2.142765
3548.000000;2.072299
3547.000000;2.031266
3546.000000;2.060156
3545.000000;2.180871
3544.000000;2.400392
3543.000000;2.572060
3542.000000;2.554336
3541.000000;2.604803
3540.000000;2.771034
3539.000000;2.759442
3538.000000;2.427675
3537.000000;2.181801
3536.000000;2.077896
3535.000000;2.047429
3534.000000;2.046644
3533.000000;2.061499
3532.000000;2.110167
3531.000000;2.185440
3530.000000;2.204995
3529.000000;2.157186
3528.000000;2.114827
3527.000000;2.122928
3526.000000;2.259052
3525.000000;2.698766
3524.000000;2.854906
3523.000000;2.447639
3522.000000;2.301565
3521.000000;2.221840
3520.000000;2.204523
3519.000000;2.257087
3518.000000;2.366344
3517.000000;2.587941
3516.000000;2.785175
3515.000000;2.679123
3514.000000;2.504401
3513.000000;2.350675
3512.000000;2.293226
3511.000000;2.338163
3510.000000;2.484159
3509.000000;2.744886
3508.000000;2.660704
3507.000000;2.418000
3506.000000;2.375049
3505.000000;2.359890
3504.000000;2.215953
3503.000000;2.120005
3502.000000;2.144751
3501.000000;2.227680
3500.000000;2.296828
3499.000000;2.367792
3498.000000;2.471790
3497.000000;2.605284
3496.000000;2.764750
3495.000000;2.838701
3494.000000;2.777143
3493.000000;2.668043
3492.000000;2.549243
3491.000000;2.701477
3490.000000;3.084658
3489.000000;2.781141
3488.000000;2.732096
3487.000000;2.802073
3486.000000;2.594349
3485.000000;2.386543
3484.000000;2.347242
3483.000000;2.382258
3482.000000;2.335943
3481.000000;2.243276
3480.000000;2.303466
3479.000000;2.936812
3478.000000;2.805949
3477.000000;2.488532
3476.000000;2.663963
3475.000000;2.715109
3474.000000;2.537790
3473.000000;2.442883
3472.000000;2.430554
3471.000000;2.438057
3470.000000;2.457590
3469.000000;2.536024
3468.000000;2.644009
3467.000000;2.566596
3466.000000;2.462532
3465.000000;2.498422
3464.000000;2.632512
3463.000000;2.669464
3462.000000;2.491658
3461.000000;2.342137
3460.000000;2.310998
3459.000000;2.422817
3458.000000;2.813671
3457.000000;3.055138
3456.000000;2.901700
3455.000000;2.907198
3454.000000;2.754742
3453.000000;2.744067
3452.000000;2.672318
3451.000000;2.620559
3450.000000;2.714954
3449.000000;2.601919
3448.000000;2.438004
3447.000000;2.441434
3446.000000;2.714177
3445.000000;2.807714
3444.000000;2.554380
3443.000000;2.503770
3442.000000;2.590614
3441.000000;2.713655
3440.000000;2.606843
3439.000000;2.589680
3438.000000;2.814389
3437.000000;2.946894
3436.000000;2.788220
3435.000000;2.831420
3434.000000;2.699913
3433.000000;2.482089
3432.000000;2.485474
3431.000000;2.651220
3430.000000;2.790099
3429.000000;2.855706
3428.000000;2.978001
3427.000000;3.031086
3426.000000;3.003380
3425.000000;3.134603
3424.000000;3.551952
3423.000000;3.022782
3422.000000;2.846068
3421.000000;2.919775
3420.000000;2.759062
3419.000000;2.640760
3418.000000;2.708122
3417.000000;3.008710
3416.000000;3.866659
3415.000000;3.635740
3414.000000;3.108680
3413.000000;2.801636
3412.000000;2.708364
3411.000000;2.813872
3410.000000;2.967237
3409.000000;2.788355
3408.000000;2.631132
3407.000000;2.564440
3406.000000;2.452878
3405.000000;2.341990
3404.000000;2.324151
3403.000000;2.378265
3402.000000;2.417182
3401.000000;2.384388
3400.000000;2.360033
3399.000000;2.428614
3398.000000;2.645992
3397.000000;2.993721
3396.000000;2.780463
3395.000000;2.576438
3394.000000;2.607093
3393.000000;2.987660
3392.000000;2.904535
3391.000000;2.611519
3390.000000;2.570745
3389.000000;2.794868
3388.000000;3.631546
3387.000000;2.703667
3386.000000;2.541854
3385.000000;2.573733
3384.000000;2.726592
3383.000000;2.880580
3382.000000;2.803283
3381.000000;2.656023
3380.000000;2.575882
3379.000000;2.728091
3378.000000;3.117939
3377.000000;2.835995
3376.000000;2.652018
3375.000000;2.756936
3374.000000;3.040395
3373.000000;3.130817
3372.000000;3.033390
3371.000000;3.327557
3370.000000;3.020454
3369.000000;2.825725
3368.000000;3.486122
3367.000000;2.832878
3366.000000;2.502525
3365.000000;2.463028
3364.000000;2.548351
3363.000000;2.783603
3362.000000;3.226298
3361.000000;3.097753
3360.000000;2.920106
3359.000000;2.836681
3358.000000;2.797911
3357.000000;2.872041
3356.000000;3.142860
3355.000000;3.210516
3354.000000;2.980805
3353.000000;2.963087
3352.000000;3.053868
3351.000000;3.487622
3350.000000;3.095654
3349.000000;2.627224
3348.000000;2.489734
3347.000000;2.527162
3346.000000;2.788717
3345.000000;3.285127
3344.000000;3.003072
3343.000000;2.780809
3342.000000;2.797046
3341.000000;3.071757
3340.000000;3.087208
3339.000000;2.829987
3338.000000;2.792486
3337.000000;2.810298
3336.000000;2.784088
3335.000000;2.760181
3334.000000;2.807549
3333.000000;2.947978
3332.000000;3.086811
3331.000000;3.043545
3330.000000;2.897561
3329.000000;2.774304
3328.000000;2.682837
3327.000000;2.621767
3326.000000;2.593222
3325.000000;2.742057
3324.000000;2.972175
3323.000000;2.765829
3322.000000;2.726120
3321.000000;2.934688
3320.000000;2.868517
3319.000000;2.711239
3318.000000;2.690161
3317.000000;2.724116
3316.000000;2.752965
3315.000000;2.778265
3314.000000;2.945665
3313.000000;3.100635
3312.000000;3.017996
3311.000000;3.044733
3310.000000;3.117063
3309.000000;3.227607
3308.000000;3.336189
3307.000000;2.935492
3306.000000;2.653775
3305.000000;2.588840
3304.000000;2.698042
3303.000000;2.788407
3302.000000;2.688799
3301.000000;2.638313
3300.000000;2.633847
3299.000000;2.621158
3298.000000;2.609035
3297.000000;2.670056
3296.000000;2.767908
3295.000000;2.710074
3294.000000;2.595003
3293.000000;2.550528
3292.000000;2.596110
3291.000000;2.747720
3290.000000;2.931179
3289.000000;3.019198
3288.000000;3.728117
3287.000000;3.226545
3286.000000;2.954656
3285.000000;3.112058
3284.000000;3.468795
3283.000000;3.005602
3282.000000;2.780669
3281.000000;2.687294
3280.000000;2.721949
3279.000000;2.948903
3278.000000;3.462275
3277.000000;3.034402
3276.000000;2.793316
3275.000000;2.787139
3274.000000;3.019081
3273.000000;2.998415
3272.000000;2.694699
3271.000000;2.601251
3270.000000;2.558760
3269.000000;2.572766
3268.000000;2.687559
3267.000000;2.953573
3266.000000;3.204681
3265.000000;3.167493
3264.000000;3.022688
3263.000000;2.994211
3262.000000;3.072982
3261.000000;3.597288
3260.000000;3.230691
3259.000000;2.941637
3258.000000;2.896301
3257.000000;2.877316
3256.000000;2.790465
3255.000000;2.677911
3254.000000;2.626183
3253.000000;2.611746
3252.000000;2.595204
3251.000000;2.597414
3250.000000;2.652834
3249.000000;2.794451
3248.000000;3.051658
3247.000000;3.268421
3246.000000;3.354104
3245.000000;3.395849
3244.000000;3.149396
3243.000000;3.213210
3242.000000;3.490669
3241.000000;2.933503
3240.000000;2.683517
3239.000000;2.694487
3238.000000;3.000985
3237.000000;3.166311
3236.000000;2.943056
3235.000000;3.085176
3234.000000;3.222538
3233.000000;2.986214
3232.000000;2.880037
3231.000000;2.835392
3230.000000;2.761889
3229.000000;2.682227
3228.000000;2.661743
3227.000000;2.704622
3226.000000;2.756595
3225.000000;2.846675
3224.000000;3.170027
3223.000000;3.034849
3222.000000;2.697864
3221.000000;2.628677
3220.000000;2.651711
3219.000000;2.739892
3218.000000;2.934445
3217.000000;3.075989
3216.000000;2.891302
3215.000000;2.978068
3214.000000;3.102624
3213.000000;2.804241
3212.000000;2.652411
3211.000000;2.647285
3210.000000;2.740260
3209.000000;2.879418
3208.000000;2.956339
3207.000000;3.015223
3206.000000;3.102080
3205.000000;3.180296
3204.000000;3.603286
3203.000000;3.329772
3202.000000;2.899434
3201.000000;2.744453
3200.000000;2.678196
3199.000000;2.657194
3198.000000;2.674671
3197.000000;2.659972
3196.000000;2.585759
3195.000000;2.515273
3194.000000;2.501300
3193.000000;2.584768
3192.000000;2.782261
3191.000000;2.981018
3190.000000;2.876615
3189.000000;2.698804
3188.000000;2.653984
3187.000000;2.687220
3186.000000;2.679870
3185.000000;2.693154
3184.000000;2.857993
3183.000000;3.195794
3182.000000;3.363020
3181.000000;3.551296
3180.000000;3.522528
3179.000000;3.431421
3178.000000;3.499911
3177.000000;3.615497
3176.000000;3.104702
3175.000000;2.853660
3174.000000;2.807742
3173.000000;2.817863
3172.000000;2.809492
3171.000000;2.849532
3170.000000;3.130984
3169.000000;3.735685
3168.000000;2.981208
3167.000000;2.887345
3166.000000;2.948961
3165.000000;3.065442
3164.000000;2.936126
3163.000000;2.857256
3162.000000;2.944638
3161.000000;3.269223
3160.000000;3.416165
3159.000000;3.163747
3158.000000;2.982595
3157.000000;2.926780
3156.000000;2.915346
3155.000000;2.825387
3154.000000;2.945250
3153.000000;3.001091
3152.000000;2.728966
3151.000000;2.683422
3150.000000;2.922080
3149.000000;3.213713
3148.000000;2.832773
3147.000000;2.790649
3146.000000;2.948381
3145.000000;3.263956
3144.000000;3.804075
3143.000000;3.727023
3142.000000;3.752129
3141.000000;3.101642
3140.000000;2.911002
3139.000000;2.959740
3138.000000;3.081541
3137.000000;3.040707
3136.000000;2.988436
3135.000000;2.948209
3134.000000;2.855344
3133.000000;2.804368
3132.000000;2.848428
3131.000000;3.299922
3130.000000;3.496812
3129.000000;3.215931
3128.000000;3.248307
3127.000000;3.075581
3126.000000;3.023912
3125.000000;3.086895
3124.000000;3.167663
3123.000000;3.405626
3122.000000;3.368536
3121.000000;3.365246
3120.000000;3.204988
3119.000000;2.842517
3118.000000;2.842701
3117.000000;3.170333
3116.000000;3.134329
3115.000000;2.950494
3114.000000;2.997178
3113.000000;2.996312
3112.000000;3.018679
3111.000000;3.295080
3110.000000;3.338042
3109.000000;2.966457
3108.000000;2.886276
3107.000000;2.983993
3106.000000;3.373459
3105.000000;3.187455
3104.000000;2.915358
3103.000000;2.828264
3102.000000;2.735580
3101.000000;2.655851
3100.000000;2.649795
3099.000000;2.771389
3098.000000;3.305815
3097.000000;3.275693
3096.000000;3.088337
3095.000000;3.037415
3094.000000;2.724503
3093.000000;2.573512
3092.000000;2.547094
3091.000000;2.566763
3090.000000;2.637822
3089.000000;2.829711
3088.000000;3.066157
3087.000000;3.009099
3086.000000;3.021469
3085.000000;3.221155
3084.000000;3.151603
3083.000000;2.955492
3082.000000;2.818944
3081.000000;2.771989
3080.000000;2.911182
3079.000000;3.512236
3078.000000;3.179685
3077.000000;2.787811
3076.000000;2.678988
3075.000000;2.663011
3074.000000;2.786005
3073.000000;3.191172
3072.000000;3.437429
3071.000000;3.106809
3070.000000;3.109776
3069.000000;3.207078
3068.000000;3.113487
3067.000000;3.216709
3066.000000;4.102795
3065.000000;3.224076
3064.000000;3.010915
3063.000000;2.843160
3062.000000;2.769817
3061.000000;2.821438
3060.000000;3.060681
3059.000000;3.563451
3058.000000;3.158926
3057.000000;2.800238
3056.000000;2.655542
3055.000000;2.623506
3054.000000;2.692736
3053.000000;2.860022
3052.000000;3.150926
3051.000000;3.648528
3050.000000;3.130646
3049.000000;2.794315
3048.000000;2.665508
3047.000000;2.608784
3046.000000;2.632153
3045.000000;2.743880
3044.000000;3.096509
3043.000000;3.303344
3042.000000;2.932904
3041.000000;2.868541
3040.000000;3.032205
3039.000000;3.341815
3038.000000;3.118417
3037.000000;2.918568
3036.000000;2.859307
3035.000000;2.863768
3034.000000;3.101602
3033.000000;3.559396
3032.000000;2.817983
3031.000000;2.556841
3030.000000;2.467235
3029.000000;2.514473
3028.000000;2.696170
3027.000000;3.008056
3026.000000;3.365747
3025.000000;3.314567
3024.000000;3.032081
3023.000000;2.885813
3022.000000;2.855532
3021.000000;2.834588
3020.000000;2.798225
3019.000000;2.822720
3018.000000;3.013824
3017.000000;3.147484
3016.000000;2.934414
3015.000000;2.778360
3014.000000;2.719149
3013.000000;2.766712
3012.000000;2.916432
3011.000000;3.019049
3010.000000;2.899719
3009.000000;2.803252
3008.000000;2.785944
3007.000000;2.834373
3006.000000;3.023411
3005.000000;3.478998
3004.000000;3.176825
3003.000000;2.815788
3002.000000;2.694268
3001.000000;2.621012
3000.000000;2.568746
2999.000000;2.549484
2998.000000;2.594643
2997.000000;2.674465
2996.000000;2.768121
2995.000000;2.894738
2994.000000;3.046752
2993.000000;3.729337
2992.000000;3.377789
2991.000000;3.245760
2990.000000;3.222177
2989.000000;2.834649
2988.000000;2.723941
2987.000000;2.804070
2986.000000;3.038095
2985.000000;3.218548
2984.000000;3.173945
2983.000000;3.227465
2982.000000;3.118641
2981.000000;3.072166
2980.000000;3.120356
2979.000000;3.099280
2978.000000;2.950564
2977.000000;2.861652
2976.000000;2.896084
2975.000000;3.014621
2974.000000;3.157143
2973.000000;3.262649
2972.000000;3.623413
2971.000000;3.520772
2970.000000;3.133292
2969.000000;3.006034
2968.000000;2.893271
2967.000000;2.872387
2966.000000;2.981980
2965.000000;2.879814
2964.000000;2.728489
2963.000000;2.751707
2962.000000;2.985173
2961.000000;3.149583
2960.000000;3.033676
2959.000000;3.113594
2958.000000;3.058896
2957.000000;2.938640
2956.000000;2.898517
2955.000000;2.813113
2954.000000;2.829909
2953.000000;3.060594
2952.000000;3.262333
2951.000000;3.064633
2950.000000;2.977857
2949.000000;3.026675
2948.000000;3.024431
2947.000000;2.911639
2946.000000;2.942490
2945.000000;3.218399
2944.000000;3.333690
2943.000000;3.160517
2942.000000;3.046099
2941.000000;2.893144
2940.000000;2.805588
2939.000000;2.837713
2938.000000;2.903164
2937.000000;3.015026
2936.000000;3.355716
2935.000000;3.434720
2934.000000;3.547244
2933.000000;3.172215
2932.000000;2.903381
2931.000000;2.912547
2930.000000;3.211375
2929.000000;3.555165
2928.000000;2.982353
2927.000000;2.866691
2926.000000;2.905083
2925.000000;2.909286
2924.000000;2.909660
2923.000000;3.021842
2922.000000;3.125062
2921.000000;2.994931
2920.000000;2.843161
2919.000000;2.711598
2918.000000;2.619371
2917.000000;2.615056
2916.000000;2.725130
2915.000000;3.097231
2914.000000;3.453790
2913.000000;3.102471
2912.000000;3.003680
2911.000000;2.924340
2910.000000;2.856938
2909.000000;2.945827
2908.000000;2.974362
2907.000000;2.828521
2906.000000;2.810009
2905.000000;3.026629
2904.000000;3.517437
2903.000000;3.640572
2902.000000;3.843844
2901.000000;3.673810
2900.000000;3.073590
2899.000000;2.725641
2898.000000;2.567177
2897.000000;2.528699
2896.000000;2.552364
2895.000000;2.602735
2894.000000;2.669192
2893.000000;2.764198
2892.000000;2.867869
2891.000000;2.850988
2890.000000;2.738415
2889.000000;2.676166
2888.000000;2.648294
2887.000000;2.625537
2886.000000;2.634682
2885.000000;2.752498
2884.000000;3.105273
2883.000000;3.271079
2882.000000;3.066721
2881.000000;3.193738
2880.000000;3.507111
2879.000000;3.116084
2878.000000;2.904447
2877.000000;2.864743
2876.000000;2.935916
2875.000000;2.914495
2874.000000;2.696068
2873.000000;2.580577
2872.000000;2.616962
2871.000000;2.873432
2870.000000;3.015269
2869.000000;2.755208
2868.000000;2.696333
2867.000000;2.729846
2866.000000;2.752661
2865.000000;2.725888
2864.000000;2.674550
2863.000000;2.681897
2862.000000;2.776711
2861.000000;3.082928
2860.000000;3.609122
2859.000000;3.204787
2858.000000;2.998363
2857.000000;3.059885
2856.000000;3.427079
2855.000000;3.396272
2854.000000;3.101207
2853.000000;3.098383
2852.000000;3.191741
2851.000000;3.470939
2850.000000;3.470744
2849.000000;3.133525
2848.000000;3.077508
2847.000000;3.072300
2846.000000;3.025816
2845.000000;3.007494
2844.000000;3.111109
2843.000000;3.519677
2842.000000;3.218645
2841.000000;2.776681
2840.000000;2.614090
2839.000000;2.577140
2838.000000;2.659806
2837.000000;2.851901
2836.000000;3.005973
2835.000000;3.030058
2834.000000;3.107622
2833.000000;3.255350
2832.000000;3.319260
2831.000000;3.297981
2830.000000;3.255550
2829.000000;3.214102
2828.000000;3.162134
2827.000000;3.210801
2826.000000;3.540328
2825.000000;3.514347
2824.000000;3.091518
2823.000000;2.913763
2822.000000;2.839406
2821.000000;2.815950
2820.000000;3.073912
2819.000000;3.568441
2818.000000;3.238167
2817.000000;3.092364
2816.000000;2.845514
2815.000000;2.879380
2814.000000;3.168571
2813.000000;2.914130
2812.000000;2.722228
2811.000000;2.716582
2810.000000;2.742752
2809.000000;2.719606
2808.000000;2.663162
2807.000000;2.654079
2806.000000;2.750758
2805.000000;3.022062
2804.000000;3.390922
2803.000000;3.357717
2802.000000;3.140859
2801.000000;3.231659
2800.000000;3.445978
2799.000000;3.080022
2798.000000;2.910379
2797.000000;2.923386
2796.000000;2.954914
2795.000000;2.917237
2794.000000;2.953189
2793.000000;3.089682
2792.000000;3.090153
2791.000000;3.157015
2790.000000;3.520729
2789.000000;3.239100
2788.000000;2.914415
2787.000000;2.824648
2786.000000;2.798147
2785.000000;2.839151
2784.000000;2.983497
2783.000000;3.221160
2782.000000;3.270105
2781.000000;3.180570
2780.000000;3.115270
2779.000000;2.992007
2778.000000;2.922245
2777.000000;2.907250
2776.000000;2.862837
2775.000000;2.843107
2774.000000;2.918776
2773.000000;2.950003
2772.000000;2.882196
2771.000000;2.920508
2770.000000;3.074882
2769.000000;3.186115
2768.000000;3.156895
2767.000000;3.032649
2766.000000;2.916494
2765.000000;3.017565
2764.000000;3.402331
2763.000000;3.176792
2762.000000;2.915888
2761.000000;2.885577
2760.000000;2.921079
2759.000000;2.928961
2758.000000;2.893693
2757.000000;2.866930
2756.000000;2.860587
2755.000000;3.107011
2754.000000;3.535444
2753.000000;3.270906
2752.000000;3.035544
2751.000000;2.758833
2750.000000;2.645296
2749.000000;2.727803
2748.000000;2.891784
2747.000000;2.860443
2746.000000;2.966556
2745.000000;3.635808
2744.000000;3.176198
2743.000000;2.944921
2742.000000;2.953580
2741.000000;2.981261
2740.000000;3.070234
2739.000000;3.154657
2738.000000;3.195049
2737.000000;3.201965
2736.000000;3.420020
2735.000000;3.573317
2734.000000;3.222409
2733.000000;3.136083
2732.000000;3.493873
2731.000000;3.768803
2730.000000;3.170419
2729.000000;3.038314
2728.000000;2.894942
2727.000000;2.863771
2726.000000;3.466158
2725.000000;3.156172
2724.000000;2.725135
2723.000000;2.692905
2722.000000;2.731192
2721.000000;2.719998
2720.000000;2.679667
2719.000000;2.732335
2718.000000;2.855668
2717.000000;3.116963
2716.000000;3.471025
2715.000000;3.238461
2714.000000;3.092526
2713.000000;3.103979
2712.000000;3.254953
2711.000000;3.195389
2710.000000;3.070983
2709.000000;3.137561
2708.000000;3.335701
2707.000000;3.394046
2706.000000;2.989158
2705.000000;2.854623
2704.000000;3.029792
2703.000000;3.168781
2702.000000;3.004195
2701.000000;2.949349
2700.000000;2.909341
2699.000000;2.801452
2698.000000;2.723253
2697.000000;2.767561
2696.000000;3.111789
2695.000000;3.344341
2694.000000;3.042899
2693.000000;2.987202
2692.000000;2.941162
2691.000000;2.846905
2690.000000;2.807448
2689.000000;2.864456
2688.000000;3.069204
2687.000000;3.434151
2686.000000;3.488276
2685.000000;3.141928
2684.000000;2.921033
2683.000000;2.838461
2682.000000;2.858397
2681.000000;2.975946
2680.000000;3.240118
2679.000000;3.295509
2678.000000;3.086341
2677.000000;2.985802
2676.000000;2.919276
2675.000000;2.873509
2674.000000;2.855796
2673.000000;2.887850
2672.000000;2.936099
2671.000000;2.938743
2670.000000;3.031582
2669.000000;3.411449
2668.000000;3.738367
2667.000000;3.403141
2666.000000;3.246101
2665.000000;3.132369
2664.000000;3.035905
2663.000000;2.958968
2662.000000;2.907790
2661.000000;2.903055
2660.000000;2.985644
2659.000000;3.101558
2658.000000;2.995029
2657.000000;2.886646
2656.000000;3.180366
2655.000000;3.337029
2654.000000;2.849303
2653.000000;2.736703
2652.000000;2.768236
2651.000000;2.915359
2650.000000;3.274193
2649.000000;3.738323
2648.000000;3.688402
2647.000000;3.426426
2646.000000;3.363449
2645.000000;3.523714
2644.000000;3.545238
2643.000000;3.357909
2642.000000;3.332178
2641.000000;3.158663
2640.000000;2.892457
2639.000000;2.739398
2638.000000;2.756641
2637.000000;3.008460
2636.000000;3.269319
2635.000000;3.133782
2634.000000;3.155650
2633.000000;3.222760
2632.000000;3.125377
2631.000000;2.989607
2630.000000;2.863430
2629.000000;2.770204
2628.000000;2.728347
2627.000000;2.763431
2626.000000;2.986598
2625.000000;3.279798
2624.000000;2.977572
2623.000000;2.775556
2622.000000;2.753454
2621.000000;2.858474
2620.000000;3.096159
2619.000000;3.299817
2618.000000;3.230137
2617.000000;3.195944
2616.000000;3.365642
2615.000000;3.317372
2614.000000;3.237203
2613.000000;3.486903
2612.000000;4.039976
2611.000000;4.449135
2610.000000;3.745625
2609.000000;3.384896
2608.000000;3.448241
2607.000000;3.261642
2606.000000;2.951651
2605.000000;2.893008
2604.000000;2.915032
2603.000000;2.878347
2602.000000;2.833746
2601.000000;2.866792
2600.000000;2.933419
2599.000000;3.037841
2598.000000;3.154008
2597.000000;3.107685
2596.000000;3.372621
2595.000000;3.386835
2594.000000;2.932453
2593.000000;2.843912
2592.000000;3.001320
2591.000000;3.279621
2590.000000;3.430124
2589.000000;3.468185
2588.000000;3.134757
2587.000000;3.015637
2586.000000;3.103624
2585.000000;3.171576
2584.000000;3.261229
2583.000000;3.569833
2582.000000;3.775336
2581.000000;3.329993
2580.000000;3.362734
2579.000000;3.203825
2578.000000;2.937198
2577.000000;3.028818
2576.000000;3.193343
2575.000000;3.024276
2574.000000;3.014695
2573.000000;3.322009
2572.000000;3.304477
2571.000000;2.977326
2570.000000;2.885495
2569.000000;2.874613
2568.000000;2.859293
2567.000000;2.823541
2566.000000;2.793388
2565.000000;2.856692
2564.000000;3.049201
2563.000000;3.158048
2562.000000;3.043541
2561.000000;3.060317
2560.000000;3.390240
2559.000000;3.500139
2558.000000;3.147167
2557.000000;3.022783
2556.000000;2.930221
2555.000000;2.830443
2554.000000;2.800110
2553.000000;2.846111
2552.000000;2.957710
2551.000000;3.058297
2550.000000;2.966165
2549.000000;2.819302
2548.000000;2.764192
2547.000000;2.850166
2546.000000;3.137161
2545.000000;3.405836
2544.000000;3.742184
2543.000000;3.797667
2542.000000;3.394558
2541.000000;3.409812
2540.000000;3.455921
2539.000000;3.377932
2538.000000;3.447008
2537.000000;3.902005
2536.000000;3.295176
2535.000000;2.954268
2534.000000;2.898008
2533.000000;2.905346
2532.000000;2.883920
2531.000000;2.805957
2530.000000;2.775756
2529.000000;2.803381
2528.000000;2.848472
2527.000000;2.908065
2526.000000;3.092752
2525.000000;3.532058
2524.000000;3.408849
2523.000000;3.569152
2522.000000;4.153192
2521.000000;3.325852
2520.000000;3.433830
2519.000000;3.537713
2518.000000;3.214167
2517.000000;3.158167
2516.000000;3.201242
2515.000000;3.312134
2514.000000;3.537394
2513.000000;3.450913
2512.000000;3.128043
2511.000000;2.954275
2510.000000;2.877572
2509.000000;2.791396
2508.000000;2.664849
2507.000000;2.579927
2506.000000;2.579080
2505.000000;2.602914
2504.000000;2.612012
2503.000000;2.684553
2502.000000;3.013774
2501.000000;3.469978
2500.000000;3.144008
2499.000000;3.193720
2498.000000;3.462130
2497.000000;3.401834
2496.000000;3.121459
2495.000000;3.059652
2494.000000;3.111860
2493.000000;3.057560
2492.000000;2.982766
2491.000000;3.011993
2490.000000;3.476442
2489.000000;3.604740
2488.000000;3.230355
2487.000000;3.651947
2486.000000;3.341757
2485.000000;2.924645
2484.000000;2.796789
2483.000000;2.769913
2482.000000;2.848141
2481.000000;2.896073
2480.000000;2.868391
2479.000000;2.886661
2478.000000;2.914681
2477.000000;2.874725
2476.000000;2.885116
2475.000000;3.031203
2474.000000;3.452551
2473.000000;4.146798
2472.000000;3.548941
2471.000000;3.399493
2470.000000;3.179554
2469.000000;2.953206
2468.000000;2.870387
2467.000000;2.883667
2466.000000;2.951555
2465.000000;3.047591
2464.000000;3.113325
2463.000000;3.174413
2462.000000;3.240788
2461.000000;3.082042
2460.000000;2.969525
2459.000000;2.986363
2458.000000;2.941501
2457.000000;2.881918
2456.000000;2.878333
2455.000000;2.895275
2454.000000;2.859155
2453.000000;2.852739
2452.000000;2.916792
2451.000000;3.150130
2450.000000;3.958778
2449.000000;3.307808
2448.000000;3.036471
2447.000000;3.146162
2446.000000;3.262217
2445.000000;2.881244
2444.000000;2.678590
2443.000000;2.629123
2442.000000;2.656628
2441.000000;2.739290
2440.000000;2.869928
2439.000000;3.308447
2438.000000;3.330490
2437.000000;2.873196
2436.000000;2.748684
2435.000000;2.644036
2434.000000;2.584797
2433.000000;2.598054
2432.000000;2.676572
2431.000000;2.790152
2430.000000;2.942839
2429.000000;3.251797
2428.000000;3.539242
2427.000000;3.989017
2426.000000;3.502791
2425.000000;3.027263
2424.000000;2.848527
2423.000000;2.821158
2422.000000;2.943030
2421.000000;3.119612
2420.000000;3.128757
2419.000000;3.020693
2418.000000;3.194533
2417.000000;3.672570
2416.000000;3.103751
2415.000000;2.985621
2414.000000;3.077402
2413.000000;3.136424
2412.000000;3.091833
2411.000000;3.035685
2410.000000;2.952597
2409.000000;2.898378
2408.000000;2.980984
2407.000000;3.296396
2406.000000;3.693974
2405.000000;3.311840
2404.000000;3.186700
2403.000000;3.435948
2402.000000;3.340697
2401.000000;3.033632
2400.000000;2.874219
2399.000000;2.747418
2398.000000;2.658565
2397.000000;2.647447
2396.000000;2.732471
2395.000000;2.880680
2394.000000;3.019238
2393.000000;3.165973
2392.000000;3.535458
2391.000000;3.723583
2390.000000;3.148103
2389.000000;2.919443
2388.000000;2.795841
2387.000000;2.779399
2386.000000;2.904204
2385.000000;3.121483
2384.000000;3.197530
2383.000000;3.145410
2382.000000;3.093304
2381.000000;2.972750
2380.000000;2.881437
2379.000000;2.867403
2378.000000;2.890752
2377.000000;2.945608
2376.000000;3.082004
2375.000000;3.313993
2374.000000;3.510778
2373.000000;3.760795
2372.000000;3.892136
2371.000000;3.407052
2370.000000;3.219753
2369.000000;3.347713
2368.000000;3.888312
2367.000000;3.696902
2366.000000;3.295555
2365.000000;3.097521
2364.000000;3.026638
2363.000000;3.072533
2362.000000;3.191199
2361.000000;3.306724
2360.000000;3.328648
2359.000000;3.259264
2358.000000;3.238244
2357.000000;3.515296
2356.000000;3.667354
2355.000000;3.259987
2354.000000;3.263508
2353.000000;3.360236
2352.000000;3.248939
2351.000000;3.165076
2350.000000;3.440986
2349.000000;3.968725
2348.000000;3.641933
2347.000000;3.510714
2346.000000;3.482442
2345.000000;3.863260
2344.000000;3.432063
2343.000000;3.214264
2342.000000;3.484111
2341.000000;3.170463
2340.000000;2.977928
2339.000000;3.007494
2338.000000;3.323670
2337.000000;4.091513
2336.000000;3.297871
2335.000000;3.217006
2334.000000;3.455049
2333.000000;3.954491
2332.000000;3.490789
2331.000000;3.434261
2330.000000;3.342339
2329.000000;3.189273
2328.000000;3.196847
2327.000000;3.295773
2326.000000;3.371738
2325.000000;3.228558
2324.000000;3.029308
2323.000000;2.967035
2322.000000;3.079786
2321.000000;3.370557
2320.000000;3.937185
2319.000000;3.692813
2318.000000;3.299239
2317.000000;3.140559
2316.000000;3.048326
2315.000000;2.971177
2314.000000;2.864445
2313.000000;2.766802
2312.000000;2.735648
2311.000000;2.804013
2310.000000;2.988951
2309.000000;3.354802
2308.000000;3.390923
2307.000000;3.114268
2306.000000;3.160816
2305.000000;3.436424
2304.000000;3.206836
2303.000000;2.859309
2302.000000;2.740147
2301.000000;2.763963
2300.000000;2.909868
2299.000000;3.093957
2298.000000;3.170611
2297.000000;3.159780
2296.000000;3.185298
2295.000000;3.354792
2294.000000;3.656610
2293.000000;3.241931
2292.000000;2.935280
2291.000000;2.806650
2290.000000;2.795924
2289.000000;2.915063
2288.000000;3.150898
2287.000000;3.219759
2286.000000;3.159853
2285.000000;3.185285
2284.000000;3.161860
2283.000000;3.286523
2282.000000;3.796186
2281.000000;3.240073
2280.000000;3.084010
2279.000000;3.109240
2278.000000;3.025153
2277.000000;2.975528
2276.000000;3.070731
2275.000000;3.164929
2274.000000;3.090659
2273.000000;2.997606
2272.000000;2.993157
2271.000000;3.491080
2270.000000;3.516356
2269.000000;3.090570
2268.000000;3.102552
2267.000000;3.062096
2266.000000;2.983704
2265.000000;2.994494
2264.000000;2.963355
2263.000000;2.817467
2262.000000;2.747249
2261.000000;2.778903
2260.000000;2.813385
2259.000000;2.773088
2258.000000;2.753669
2257.000000;2.835099
2256.000000;3.065772
2255.000000;3.278747
2254.000000;3.528910
2253.000000;3.667637
2252.000000;2.920268
2251.000000;2.771225
2250.000000;2.770311
2249.000000;2.793402
2248.000000;2.778627
2247.000000;2.846288
2246.000000;2.981576
2245.000000;3.273101
2244.000000;3.595095
2243.000000;3.144298
2242.000000;3.001756
2241.000000;3.128862
2240.000000;3.517694
2239.000000;3.285715
2238.000000;2.962754
2237.000000;2.812064
2236.000000;2.739398
2235.000000;2.741218
2234.000000;2.819175
2233.000000;2.942140
2232.000000;3.019959
2231.000000;3.025000
2230.000000;3.055153
2229.000000;3.168727
2228.000000;3.503830
2227.000000;3.726314
2226.000000;3.165058
2225.000000;3.017726
2224.000000;2.900683
2223.000000;2.804084
2222.000000;2.787912
2221.000000;2.892253
2220.000000;3.030533
2219.000000;3.045851
2218.000000;3.050368
2217.000000;3.096283
2216.000000;3.064319
2215.000000;3.005873
2214.000000;3.058103
2213.000000;3.217401
2212.000000;3.243573
2211.000000;3.366700
2210.000000;3.842895
2209.000000;3.293881
2208.000000;3.283693
2207.000000;4.129634
2206.000000;3.429150
2205.000000;3.108638
2204.000000;2.971412
2203.000000;3.043309
2202.000000;3.137258
2201.000000;2.970586
2200.000000;2.950249
2199.000000;3.291084
2198.000000;3.571214
2197.000000;3.007171
2196.000000;2.968726
2195.000000;2.983406
2194.000000;2.979029
2193.000000;2.905798
2192.000000;2.860986
2191.000000;2.841602
2190.000000;2.794416
2189.000000;2.726665
2188.000000;2.700355
2187.000000;2.750410
2186.000000;2.887924
2185.000000;2.881149
2184.000000;2.741663
2183.000000;2.717564
2182.000000;2.809673
2181.000000;2.882788
2180.000000;2.954752
2179.000000;3.093719
2178.000000;3.115188
2177.000000;3.112089
2176.000000;3.032096
2175.000000;3.004956
2174.000000;3.102778
2173.000000;3.042027
2172.000000;2.821572
2171.000000;2.720408
2170.000000;2.762309
2169.000000;2.966455
2168.000000;3.338416
2167.000000;3.704201
2166.000000;3.552994
2165.000000;3.280702
2164.000000;3.159299
2163.000000;3.234976
2162.000000;3.053880
2161.000000;2.843949
2160.000000;2.819289
2159.000000;2.912364
2158.000000;3.077696
2157.000000;3.287135
2156.000000;3.371745
2155.000000;3.180161
2154.000000;3.030601
2153.000000;2.933639
2152.000000;2.838372
2151.000000;2.761627
2150.000000;2.756592
2149.000000;2.864540
2148.000000;3.090670
2147.000000;3.259244
2146.000000;3.344451
2145.000000;3.619530
2144.000000;3.869598
2143.000000;3.656019
2142.000000;3.149409
2141.000000;2.961740
2140.000000;3.004439
2139.000000;3.344663
2138.000000;3.170263
2137.000000;2.852417
2136.000000;2.804370
2135.000000;2.864452
2134.000000;2.974061
2133.000000;2.996948
2132.000000;2.944880
2131.000000;2.933436
2130.000000;3.011715
2129.000000;3.145698
2128.000000;3.122759
2127.000000;3.019514
2126.000000;3.120120
2125.000000;3.385406
2124.000000;3.065173
2123.000000;2.958052
2122.000000;2.895659
2121.000000;2.863280
2120.000000;2.933502
2119.000000;3.053979
2118.000000;3.034905
2117.000000;2.903690
2116.000000;2.817904
2115.000000;2.808792
2114.000000;2.893946
2113.000000;3.092149
2112.000000;3.688923
2111.000000;3.674338
2110.000000;3.245544
2109.000000;3.196947
2108.000000;3.207189
2107.000000;3.908198
2106.000000;3.541986
2105.000000;3.281526
2104.000000;3.310197
2103.000000;3.236601
2102.000000;3.264802
2101.000000;3.130610
2100.000000;2.900969
2099.000000;2.780277
2098.000000;2.780428
2097.000000;2.871600
2096.000000;2.909493
2095.000000;2.872458
2094.000000;2.870105
2093.000000;2.915048
2092.000000;3.087249
2091.000000;3.223950
2090.000000;2.992290
2089.000000;2.856550
2088.000000;2.810480
2087.000000;2.822563
2086.000000;2.879062
2085.000000;2.989674
2084.000000;3.166087
2083.000000;3.447095
2082.000000;3.379170
2081.000000;3.127663
2080.000000;3.022963
2079.000000;3.025381
2078.000000;3.071763
2077.000000;3.036384
2076.000000;3.010261
2075.000000;3.104002
2074.000000;3.329554
2073.000000;3.542525
2072.000000;3.392468
2071.000000;3.227451
2070.000000;3.007835
2069.000000;2.753347
2068.000000;2.593575
2067.000000;2.548173
2066.000000;2.616252
2065.000000;2.788938
2064.000000;3.118726
2063.000000;3.602811
2062.000000;3.158504
2061.000000;2.843223
2060.000000;2.762293
2059.000000;2.858035
2058.000000;3.296729
2057.000000;3.402836
2056.000000;3.372876
2055.000000;3.591079
2054.000000;3.142186
2053.000000;3.064655
2052.000000;3.142425
2051.000000;3.196476
2050.000000;3.117680
2049.000000;2.985096
2048.000000;3.000650
2047.000000;3.206692
2046.000000;3.632941
2045.000000;3.598888
2044.000000;3.178266
2043.000000;3.014279
2042.000000;3.027135
2041.000000;3.208323
2040.000000;3.519466
2039.000000;3.960668
2038.000000;4.227779
2037.000000;3.466794
2036.000000;3.228355
2035.000000;3.120912
2034.000000;3.172642
2033.000000;3.285998
2032.000000;3.539111
2031.000000;3.605672
2030.000000;3.300166
2029.000000;3.280609
2028.000000;3.276127
2027.000000;3.183520
2026.000000;3.078717
2025.000000;3.024508
2024.000000;3.131918
2023.000000;3.396650
2022.000000;4.737107
2021.000000;3.444224
2020.000000;3.137389
2019.000000;3.196573
2018.000000;3.111909
2017.000000;2.892148
2016.000000;2.779766
2015.000000;2.685545
2014.000000;2.652444
2013.000000;2.743246
2012.000000;3.042714
2011.000000;3.625361
2010.000000;3.552765
2009.000000;3.519992
2008.000000;3.420018
2007.000000;3.162363
2006.000000;2.989956
2005.000000;2.903575
2004.000000;2.903361
2003.000000;3.360029
2002.000000;3.500737
2001.000000;3.095525
2000.000000;3.079799
1999.000000;2.836864
1998.000000;2.649538
1997.000000;2.601193
1996.000000;2.664677
1995.000000;2.777798
1994.000000;2.799419
1993.000000;2.839764
1992.000000;2.956043
1991.000000;3.005575
1990.000000;3.113397
1989.000000;3.304235
1988.000000;3.277006
1987.000000;3.363132
1986.000000;3.180258
1985.000000;2.873360
1984.000000;2.787773
1983.000000;2.821055
1982.000000;2.885444
1981.000000;2.885202
1980.000000;2.880501
1979.000000;2.931753
1978.000000;3.000651
1977.000000;3.059160
1976.000000;3.120254
1975.000000;3.096394
1974.000000;2.999509
1973.000000;2.911828
1972.000000;2.795249
1971.000000;2.699785
1970.000000;2.679167
1969.000000;2.730766
1968.000000;2.842310
1967.000000;3.048416
1966.000000;3.244794
1965.000000;2.945321
1964.000000;2.765969
1963.000000;2.745859
1962.000000;2.802343
1961.000000;2.871074
1960.000000;2.962116
1959.000000;3.033863
1958.000000;3.129026
1957.000000;3.010405
1956.000000;2.755969
1955.000000;2.719149
1954.000000;2.851600
1953.000000;2.945917
1952.000000;2.873767
1951.000000;2.839930
1950.000000;2.858360
1949.000000;2.858356
1948.000000;2.776448
1947.000000;2.721904
1946.000000;2.753218
1945.000000;2.840241
1944.000000;2.938689
1943.000000;2.937901
1942.000000;2.866836
1941.000000;2.822418
1940.000000;2.820039
1939.000000;2.851187
1938.000000;2.896579
1937.000000;2.999791
1936.000000;3.046377
1935.000000;2.916807
1934.000000;2.871379
1933.000000;2.959903
1932.000000;3.126090
1931.000000;3.524578
1930.000000;3.940554
1929.000000;3.284654
1928.000000;3.160995
1927.000000;3.048243
1926.000000;2.974439
1925.000000;2.998406
1924.000000;3.246198
1923.000000;3.613327
1922.000000;3.411353
1921.000000;3.183558
1920.000000;2.957814
1919.000000;2.820872
1918.000000;2.825470
1917.000000;2.943752
1916.000000;3.058594
1915.000000;3.120840
1914.000000;3.094004
1913.000000;2.981573
1912.000000;2.956223
1911.000000;3.182889
1910.000000;3.379918
1909.000000;2.857329
1908.000000;2.688251
1907.000000;2.673309
1906.000000;2.755432
1905.000000;2.977724
1904.000000;3.232555
1903.000000;3.240305
1902.000000;3.241128
1901.000000;3.153360
1900.000000;3.145463
1899.000000;3.579755
1898.000000;3.856934
1897.000000;3.210489
1896.000000;3.085925
1895.000000;3.071296
1894.000000;3.089336
1893.000000;3.246649
1892.000000;3.558737
1891.000000;3.682107
1890.000000;3.028957
1889.000000;2.766780
1888.000000;2.774265
1887.000000;2.949082
1886.000000;3.076066
1885.000000;3.024412
1884.000000;3.126855
1883.000000;3.550548
1882.000000;4.102108
1881.000000;3.606886
1880.000000;3.076407
1879.000000;2.800637
1878.000000;2.671498
1877.000000;2.665381
1876.000000;2.779794
1875.000000;3.084078
1874.000000;3.493847
1873.000000;3.211245
1872.000000;3.045870
1871.000000;3.079190
1870.000000;3.477221
1869.000000;3.729511
1868.000000;3.154086
1867.000000;2.958468
1866.000000;2.896377
1865.000000;2.993056
1864.000000;3.237609
1863.000000;3.225100
1862.000000;3.412602
1861.000000;3.434795
1860.000000;2.991020
1859.000000;2.828773
1858.000000;2.743784
1857.000000;2.725908
1856.000000;2.743061
1855.000000;2.704160
1854.000000;2.717932
1853.000000;2.844541
1852.000000;3.010916
1851.000000;3.267038
1850.000000;3.346201
1849.000000;2.970323
1848.000000;2.938729
1847.000000;3.012456
1846.000000;2.889595
1845.000000;2.852031
1844.000000;2.993232
1843.000000;3.177978
1842.000000;3.126323
1841.000000;2.948876
1840.000000;2.854597
1839.000000;2.917840
1838.000000;3.468912
1837.000000;3.495255
1836.000000;3.242583
1835.000000;3.500196
1834.000000;3.494893
1833.000000;4.045764
1832.000000;3.235896
1831.000000;2.876526
1830.000000;2.805761
1829.000000;2.771045
1828.000000;2.697270
1827.000000;2.614542
1826.000000;2.576672
1825.000000;2.581287
1824.000000;2.615138
1823.000000;2.695134
1822.000000;2.874772
1821.000000;3.096465
1820.000000;3.154776
1819.000000;3.198744
1818.000000;3.147732
1817.000000;2.943664
1816.000000;2.794528
1815.000000;2.712393
1814.000000;2.660597
1813.000000;2.605516
1812.000000;2.556617
1811.000000;2.565218
1810.000000;2.660083
1809.000000;2.796712
1808.000000;2.841372
1807.000000;2.818206
1806.000000;2.865296
1805.000000;2.918345
1804.000000;2.862294
1803.000000;2.841523
1802.000000;2.951940
1801.000000;3.284724
1800.000000;3.471115
1799.000000;3.128471
1798.000000;2.982113
1797.000000;2.932326
1796.000000;2.906351
1795.000000;2.776868
1794.000000;2.608092
1793.000000;2.527608
1792.000000;2.555876
1791.000000;2.674841
1790.000000;2.749442
1789.000000;2.690526
1788.000000;2.672249
1787.000000;2.737156
1786.000000;2.773768
1785.000000;2.778623
1784.000000;2.763474
1783.000000;2.686780
1782.000000;2.638470
1781.000000;2.667364
1780.000000;2.714171
1779.000000;2.723945
1778.000000;2.740944
1777.000000;2.825223
1776.000000;3.054606
1775.000000;3.418689
1774.000000;3.660001
1773.000000;3.958471
1772.000000;3.561169
1771.000000;3.299308
1770.000000;3.221313
1769.000000;3.259773
1768.000000;3.224559
1767.000000;3.074397
1766.000000;3.083883
1765.000000;3.515236
1764.000000;3.787202
1763.000000;3.158643
1762.000000;2.970382
1761.000000;2.941191
1760.000000;3.113359
1759.000000;3.225269
1758.000000;2.918474
1757.000000;2.904242
1756.000000;3.449461
1755.000000;3.164575
1754.000000;2.907476
1753.000000;3.104273
1752.000000;3.057375
1751.000000;2.829616
1750.000000;2.754698
1749.000000;2.947805
1748.000000;3.511888
1747.000000;2.935771
1746.000000;2.686518
1745.000000;2.656484
1744.000000;2.755041
1743.000000;3.057163
1742.000000;3.567155
1741.000000;3.505702
1740.000000;3.174000
1739.000000;3.088824
1738.000000;3.047384
1737.000000;2.920603
1736.000000;2.712624
1735.000000;2.571057
1734.000000;2.556227
1733.000000;2.627630
1732.000000;2.721463
1731.000000;2.907407
1730.000000;3.090085
1729.000000;2.981350
1728.000000;3.012008
1727.000000;3.259437
1726.000000;3.078315
1725.000000;2.860374
1724.000000;2.832243
1723.000000;3.106469
1722.000000;3.436799
1721.000000;2.898879
1720.000000;2.766884
1719.000000;2.853599
1718.000000;3.203224
1717.000000;3.338443
1716.000000;2.921206
1715.000000;2.852394
1714.000000;2.948206
1713.000000;3.098234
1712.000000;3.137457
1711.000000;3.170333
1710.000000;3.206070
1709.000000;3.291714
1708.000000;3.382430
1707.000000;3.129120
1706.000000;2.966623
1705.000000;2.973869
1704.000000;3.210817
1703.000000;3.409767
1702.000000;3.174849
1701.000000;3.189408
1700.000000;3.061256
1699.000000;2.847213
1698.000000;2.752440
1697.000000;2.830303
1696.000000;3.067141
1695.000000;2.970924
1694.000000;2.813661
1693.000000;2.735423
1692.000000;2.768361
1691.000000;2.758021
1690.000000;2.632251
1689.000000;2.619052
1688.000000;2.734635
1687.000000;2.929676
1686.000000;3.027877
1685.000000;2.948735
1684.000000;2.889275
1683.000000;2.927146
1682.000000;2.906878
1681.000000;2.779088
1680.000000;2.918169
1679.000000;3.186314
1678.000000;2.896998
1677.000000;2.886419
1676.000000;2.978921
1675.000000;2.825758
1674.000000;2.728371
1673.000000;2.838506
1672.000000;3.237513
1671.000000;3.196453
1670.000000;3.047535
1669.000000;3.258080
1668.000000;3.724817
1667.000000;3.419912
1666.000000;2.948867
1665.000000;2.724025
1664.000000;2.643241
1663.000000;2.665524
1662.000000;2.719436
1661.000000;2.788340
1660.000000;2.842911
1659.000000;2.867286
1658.000000;2.928119
1657.000000;2.851675
1656.000000;2.662911
1655.000000;2.585846
1654.000000;2.670997
1653.000000;2.901444
1652.000000;3.120755
1651.000000;3.162354
1650.000000;3.120315
1649.000000;2.977774
1648.000000;2.745987
1647.000000;2.698836
1646.000000;2.790272
1645.000000;3.035790
1644.000000;3.556983
1643.000000;2.860965
1642.000000;2.596451
1641.000000;2.567827
1640.000000;2.636544
1639.000000;2.815013
1638.000000;3.230449
1637.000000;4.201605
1636.000000;3.679265
1635.000000;3.841015
1634.000000;3.239755
1633.000000;3.028952
1632.000000;3.392730
1631.000000;3.318723
1630.000000;2.804500
1629.000000;2.756796
1628.000000;2.933757
1627.000000;2.964188
1626.000000;2.789542
1625.000000;2.750175
1624.000000;2.912011
1623.000000;2.944594
1622.000000;2.789199
1621.000000;2.702465
1620.000000;2.805314
1619.000000;2.991103
1618.000000;3.119480
1617.000000;3.626932
1616.000000;3.201517
1615.000000;2.896664
1614.000000;2.784463
1613.000000;2.950833
1612.000000;3.660652
1611.000000;2.976147
1610.000000;2.713466
1609.000000;2.677031
1608.000000;2.783397
1607.000000;2.910165
1606.000000;2.789502
1605.000000;2.767247
1604.000000;3.167295
1603.000000;3.277026
1602.000000;2.820453
1601.000000;2.815622
1600.000000;3.006643
1599.000000;3.594164
1598.000000;3.693174
1597.000000;3.316911
1596.000000;3.245787
1595.000000;2.932404
1594.000000;2.826595
1593.000000;2.842250
1592.000000;3.032148
1591.000000;3.811400
1590.000000;3.231299
1589.000000;2.876105
1588.000000;2.807124
1587.000000;2.812379
1586.000000;2.930361
1585.000000;3.065010
1584.000000;3.060467
1583.000000;3.018240
1582.000000;3.220037
1581.000000;3.509404
1580.000000;3.192342
1579.000000;3.004527
1578.000000;2.961433
1577.000000;3.038276
1576.000000;3.255946
1575.000000;3.281613
1574.000000;3.071150
1573.000000;2.947116
1572.000000;2.923817
1571.000000;2.912877
1570.000000;2.908658
1569.000000;2.967932
1568.000000;3.253326
1567.000000;3.584135
1566.000000;3.161208
1565.000000;2.995988
1564.000000;2.953816
1563.000000;2.889916
1562.000000;2.873732
1561.000000;2.881281
1560.000000;2.907560
1559.000000;2.934958
1558.000000;2.921708
1557.000000;2.781962
1556.000000;2.672049
1555.000000;2.763428
1554.000000;3.106685
1553.000000;3.640696
1552.000000;3.663607
1551.000000;3.448795
1550.000000;3.266038
1549.000000;3.120339
1548.000000;3.082026
1547.000000;3.068770
1546.000000;3.072658
1545.000000;3.419933
1544.000000;3.341186
1543.000000;2.867216
1542.000000;2.753776
1541.000000;2.968722
1540.000000;3.467281
1539.000000;3.314321
1538.000000;3.085697
1537.000000;2.891398
1536.000000;2.781901
1535.000000;2.952620
1534.000000;3.240485
1533.000000;3.017397
1532.000000;2.870667
1531.000000;2.959526
1530.000000;3.149106
1529.000000;3.005317
1528.000000;2.885695
1527.000000;2.937278
1526.000000;3.062042
1525.000000;3.163929
1524.000000;2.933133
1523.000000;2.683360
1522.000000;2.581847
1521.000000;2.626822
1520.000000;2.870140
1519.000000;3.279246
1518.000000;3.584986
1517.000000;3.286750
1516.000000;2.996184
1515.000000;3.104017
1514.000000;3.048549
1513.000000;2.767878
1512.000000;2.707063
1511.000000;2.799361
1510.000000;3.038471
1509.000000;3.067503
1508.000000;2.706938
1507.000000;2.520062
1506.000000;2.491962
1505.000000;2.491457
1504.000000;2.515395
1503.000000;2.573423
1502.000000;2.623189
1501.000000;2.708836
1500.000000;2.716250
1499.000000;2.659112
1498.000000;2.720357
1497.000000;3.039747
1496.000000;3.213533
1495.000000;2.870490
1494.000000;2.786655
1493.000000;2.774230
1492.000000;2.739141
1491.000000;2.718763
1490.000000;2.768646
1489.000000;2.925268
1488.000000;3.178438
1487.000000;3.579464
1486.000000;3.471010
1485.000000;3.195748
1484.000000;3.024759
1483.000000;2.959771
1482.000000;3.184372
1481.000000;3.204487
1480.000000;2.843873
1479.000000;2.753466
1478.000000;2.894467
1477.000000;3.247182
1476.000000;3.302459
1475.000000;3.042478
1474.000000;2.932185
1473.000000;3.169649
1472.000000;3.694953
1471.000000;3.176609
1470.000000;3.305117
1469.000000;3.454071
1468.000000;2.896431
1467.000000;2.724344
1466.000000;2.750189
1465.000000;2.972002
1464.000000;3.294210
1463.000000;2.962853
1462.000000;2.652540
1461.000000;2.555298
1460.000000;2.611098
1459.000000;2.622861
1458.000000;2.504218
1457.000000;2.448510
1456.000000;2.442927
1455.000000;2.420691
1454.000000;2.406716
1453.000000;2.323426
1452.000000;2.252792
1451.000000;2.301008
1450.000000;2.547581
1449.000000;2.954901
1448.000000;3.092388
1447.000000;2.931325
1446.000000;2.478384
1445.000000;2.287427
1444.000000;2.237719
1443.000000;2.200411
1442.000000;2.192798
1441.000000;2.260506
1440.000000;2.421508
1439.000000;2.629990
1438.000000;2.808644
1437.000000;2.938670
1436.000000;2.879878
1435.000000;2.639930
1434.000000;2.492292
1433.000000;2.534148
1432.000000;2.698773
1431.000000;2.651674
1430.000000;2.559740
1429.000000;2.653820
1428.000000;3.007841
1427.000000;3.187470
1426.000000;2.895638
1425.000000;2.829610
1424.000000;2.822267
1423.000000;2.732775
1422.000000;2.629169
1421.000000;2.596838
1420.000000;2.791935
1419.000000;3.048721
1418.000000;2.787577
1417.000000;2.727963
1416.000000;2.953204
1415.000000;3.433566
1414.000000;3.290778
1413.000000;2.960998
1412.000000;2.874438
1411.000000;2.944346
1410.000000;3.094583
1409.000000;3.120864
1408.000000;3.207180
1407.000000;3.181350
1406.000000;2.868829
1405.000000;2.646813
1404.000000;2.537475
1403.000000;2.528507
1402.000000;2.608334
1401.000000;2.819620
1400.000000;3.198163
1399.000000;3.176430
1398.000000;3.091642
1397.000000;3.146668
1396.000000;3.153905
1395.000000;3.127017
1394.000000;3.040605
1393.000000;2.847841
1392.000000;2.704429
1391.000000;2.701608
1390.000000;2.692115
1389.000000;2.600503
1388.000000;2.568109
1387.000000;2.630791
1386.000000;2.703256
1385.000000;2.665155
1384.000000;2.648114
1383.000000;2.817467
1382.000000;2.978650
1381.000000;2.786156
1380.000000;2.657731
1379.000000;2.680000
1378.000000;2.838759
1377.000000;3.165607
1376.000000;3.097451
1375.000000;2.818343
1374.000000;2.679300
1373.000000;2.651081
1372.000000;2.741320
1371.000000;3.100055
1370.000000;3.320190
1369.000000;2.857717
1368.000000;2.762229
1367.000000;2.823940
1366.000000;3.124527
1365.000000;3.169878
1364.000000;2.746944
1363.000000;2.647356
1362.000000;2.673808
1361.000000;2.704790
1360.000000;2.670037
1359.000000;2.660415
1358.000000;2.767557
1357.000000;2.999727
1356.000000;3.207961
1355.000000;3.280911
1354.000000;3.120380
1353.000000;2.941727
1352.000000;2.853196
1351.000000;2.979895
1350.000000;3.454464
1349.000000;2.846232
1348.000000;2.602254
1347.000000;2.627477
1346.000000;2.780854
1345.000000;2.964213
1344.000000;2.954720
1343.000000;3.093217
1342.000000;3.556652
1341.000000;2.929496
1340.000000;2.688825
1339.000000;2.643681
1338.000000;2.657619
1337.000000;2.703751
1336.000000;2.858187
1335.000000;3.250766
1334.000000;3.257367
1333.000000;3.199530
1332.000000;3.460342
1331.000000;3.102919
1330.000000;2.870986
1329.000000;3.013101
1328.000000;3.320028
1327.000000;2.972960
1326.000000;2.773071
1325.000000;2.726552
1324.000000;2.697943
1323.000000;2.725183
1322.000000;2.819905
1321.000000;2.987480
1320.000000;2.946856
1319.000000;2.736661
1318.000000;2.687101
1317.000000;2.722567
1316.000000;2.662351
1315.000000;2.637675
1314.000000;2.691447
1313.000000;2.732380
1312.000000;2.799083
1311.000000;2.876452
1310.000000;2.915260
1309.000000;3.039563
1308.000000;3.020614
1307.000000;2.741430
1306.000000;2.581572
1305.000000;2.502692
1304.000000;2.450547
1303.000000;2.432840
1302.000000;2.486787
1301.000000;2.625599
1300.000000;2.816987
1299.000000;3.270411
1298.000000;3.430105
1297.000000;3.179018
1296.000000;3.126006
1295.000000;2.849088
1294.000000;2.714769
1293.000000;2.719717
1292.000000;2.742803
1291.000000;2.815793
1290.000000;2.977502
1289.000000;3.019098
1288.000000;3.285143
1287.000000;3.437136
1286.000000;3.070803
1285.000000;3.196389
1284.000000;2.752526
1283.000000;2.481557
1282.000000;2.409499
1281.000000;2.457244
1280.000000;2.608757
1279.000000;2.747671
1278.000000;2.654427
1277.000000;2.475942
1276.000000;2.421580
1275.000000;2.540513
1274.000000;2.770700
1273.000000;2.844235
1272.000000;2.816295
1271.000000;2.798529
1270.000000;2.913095
1269.000000;3.270438
1268.000000;3.003964
1267.000000;2.772178
1266.000000;2.693074
1265.000000;2.735477
1264.000000;2.951714
1263.000000;3.040446
1262.000000;2.838827
1261.000000;2.661663
1260.000000;2.509838
1259.000000;2.449742
1258.000000;2.499582
1257.000000;2.600861
1256.000000;2.685561
1255.000000;2.815309
1254.000000;2.838024
1253.000000;2.706361
1252.000000;2.710502
1251.000000;2.844860
1250.000000;2.787910
1249.000000;2.618841
1248.000000;2.534971
1247.000000;2.493602
1246.000000;2.492817
1245.000000;2.519159
1244.000000;2.549049
1243.000000;2.575370
1242.000000;2.585756
1241.000000;2.545514
1240.000000;2.484399
1239.000000;2.469384
1238.000000;2.524999
1237.000000;2.603299
1236.000000;2.583112
1235.000000;2.517729
1234.000000;2.505403
1233.000000;2.542003
1232.000000;2.614946
1231.000000;2.767968
1230.000000;3.076368
1229.000000;3.382900
1228.000000;3.299914
1227.000000;3.045166
1226.000000;2.859800
1225.000000;3.014593
1224.000000;2.953265
1223.000000;2.615353
1222.000000;2.524747
1221.000000;2.607835
1220.000000;2.845262
1219.000000;3.139179
1218.000000;3.131247
1217.000000;2.997898
1216.000000;3.018200
1215.000000;3.280305
1214.000000;3.173637
1213.000000;2.932681
1212.000000;2.879570
1211.000000;3.004565
1210.000000;3.312620
1209.000000;3.089556
1208.000000;2.838544
1207.000000;2.721197
1206.000000;2.693117
1205.000000;2.781532
1204.000000;3.023011
1203.000000;2.944282
1202.000000;2.662732
1201.000000;2.597075
1200.000000;2.656477
