Criado como novo conjunto de dados;"0307_DANIEL.spp","70385.5 Secs"
cm-1;Abs
10000.000000;0.597651
9999.000000;0.596816
9998.000000;0.595761
9997.000000;0.594686
9996.000000;0.593909
9995.000000;0.593497
9994.000000;0.593198
9993.000000;0.592767
9992.000000;0.592217
9991.000000;0.591670
9990.000000;0.591085
9989.000000;0.590262
9988.000000;0.589082
9987.000000;0.587662
9986.000000;0.586275
9985.000000;0.585213
9984.000000;0.584667
9983.000000;0.584581
9982.000000;0.584610
9981.000000;0.584304
9980.000000;0.583422
9979.000000;0.582084
9978.000000;0.580666
9977.000000;0.579600
9976.000000;0.579143
9975.000000;0.579145
9974.000000;0.579064
9973.000000;0.578413
9972.000000;0.577258
9971.000000;0.576105
9970.000000;0.575264
9969.000000;0.574532
9968.000000;0.573603
9967.000000;0.572541
9966.000000;0.571590
9965.000000;0.570719
9964.000000;0.569673
9963.000000;0.568476
9962.000000;0.567512
9961.000000;0.566974
9960.000000;0.566485
9959.000000;0.565483
9958.000000;0.563890
9957.000000;0.562241
9956.000000;0.561145
9955.000000;0.560719
9954.000000;0.560536
9953.000000;0.560047
9952.000000;0.559052
9951.000000;0.557800
9950.000000;0.556682
9949.000000;0.555887
9948.000000;0.555365
9947.000000;0.554991
9946.000000;0.554611
9945.000000;0.553976
9944.000000;0.552872
9943.000000;0.551380
9942.000000;0.549844
9941.000000;0.548488
9940.000000;0.547222
9939.000000;0.545913
9938.000000;0.544679
9937.000000;0.543744
9936.000000;0.543123
9935.000000;0.542664
9934.000000;0.542303
9933.000000;0.542058
9932.000000;0.541788
9931.000000;0.541209
9930.000000;0.540241
9929.000000;0.539140
9928.000000;0.538178
9927.000000;0.537360
9926.000000;0.536523
9925.000000;0.535600
9924.000000;0.534635
9923.000000;0.533631
9922.000000;0.532562
9921.000000;0.531497
9920.000000;0.530566
9919.000000;0.529780
9918.000000;0.528998
9917.000000;0.528130
9916.000000;0.527259
9915.000000;0.526490
9914.000000;0.525731
9913.000000;0.524754
9912.000000;0.523482
9911.000000;0.522140
9910.000000;0.521024
9909.000000;0.520188
9908.000000;0.519429
9907.000000;0.518568
9906.000000;0.517628
9905.000000;0.516681
9904.000000;0.515661
9903.000000;0.514436
9902.000000;0.513031
9901.000000;0.511650
9900.000000;0.510473
9899.000000;0.509513
9898.000000;0.508675
9897.000000;0.507879
9896.000000;0.507105
9895.000000;0.506360
9894.000000;0.505627
9893.000000;0.504805
9892.000000;0.503749
9891.000000;0.502419
9890.000000;0.500997
9889.000000;0.499774
9888.000000;0.498889
9887.000000;0.498246
9886.000000;0.497649
9885.000000;0.496944
9884.000000;0.496057
9883.000000;0.495019
9882.000000;0.494002
9881.000000;0.493199
9880.000000;0.492588
9879.000000;0.491912
9878.000000;0.490965
9877.000000;0.489833
9876.000000;0.488739
9875.000000;0.487740
9874.000000;0.486698
9873.000000;0.485515
9872.000000;0.484246
9871.000000;0.482953
9870.000000;0.481581
9869.000000;0.480096
9868.000000;0.478663
9867.000000;0.477550
9866.000000;0.476806
9865.000000;0.476145
9864.000000;0.475214
9863.000000;0.473950
9862.000000;0.472590
9861.000000;0.471359
9860.000000;0.470261
9859.000000;0.469177
9858.000000;0.468048
9857.000000;0.466863
9856.000000;0.465618
9855.000000;0.464382
9854.000000;0.463309
9853.000000;0.462434
9852.000000;0.461549
9851.000000;0.460449
9850.000000;0.459265
9849.000000;0.458309
9848.000000;0.457611
9847.000000;0.456830
9846.000000;0.455717
9845.000000;0.454436
9844.000000;0.453312
9843.000000;0.452445
9842.000000;0.451689
9841.000000;0.450872
9840.000000;0.449887
9839.000000;0.448713
9838.000000;0.447468
9837.000000;0.446333
9836.000000;0.445264
9835.000000;0.443955
9834.000000;0.442265
9833.000000;0.440533
9832.000000;0.439244
9831.000000;0.438438
9830.000000;0.437709
9829.000000;0.436718
9828.000000;0.435485
9827.000000;0.434160
9826.000000;0.432796
9825.000000;0.431429
9824.000000;0.430192
9823.000000;0.429185
9822.000000;0.428340
9821.000000;0.427487
9820.000000;0.426480
9819.000000;0.425228
9818.000000;0.423719
9817.000000;0.422078
9816.000000;0.420510
9815.000000;0.419097
9814.000000;0.417728
9813.000000;0.416283
9812.000000;0.414812
9811.000000;0.413497
9810.000000;0.412472
9809.000000;0.411703
9808.000000;0.410987
9807.000000;0.410043
9806.000000;0.408714
9805.000000;0.407127
9804.000000;0.405603
9803.000000;0.404346
9802.000000;0.403273
9801.000000;0.402143
9800.000000;0.400809
9799.000000;0.399334
9798.000000;0.397913
9797.000000;0.396710
9796.000000;0.395717
9795.000000;0.394802
9794.000000;0.393890
9793.000000;0.393043
9792.000000;0.392271
9791.000000;0.391360
9790.000000;0.390078
9789.000000;0.388489
9788.000000;0.386875
9787.000000;0.385309
9786.000000;0.383574
9785.000000;0.381595
9784.000000;0.379730
9783.000000;0.378401
9782.000000;0.377581
9781.000000;0.376845
9780.000000;0.375884
9779.000000;0.374757
9778.000000;0.373637
9777.000000;0.372506
9776.000000;0.371212
9775.000000;0.369726
9774.000000;0.368222
9773.000000;0.366906
9772.000000;0.365787
9771.000000;0.364663
9770.000000;0.363333
9769.000000;0.361811
9768.000000;0.360302
9767.000000;0.358960
9766.000000;0.357726
9765.000000;0.356415
9764.000000;0.354932
9763.000000;0.353355
9762.000000;0.351846
9761.000000;0.350503
9760.000000;0.349272
9759.000000;0.348004
9758.000000;0.346633
9757.000000;0.345259
9756.000000;0.344020
9755.000000;0.342865
9754.000000;0.341583
9753.000000;0.340057
9752.000000;0.338410
9751.000000;0.336829
9750.000000;0.335345
9749.000000;0.333831
9748.000000;0.332169
9747.000000;0.330355
9746.000000;0.328526
9745.000000;0.326926
9744.000000;0.325757
9743.000000;0.324956
9742.000000;0.324175
9741.000000;0.323097
9740.000000;0.321710
9739.000000;0.320234
9738.000000;0.318823
9737.000000;0.317445
9736.000000;0.315985
9735.000000;0.314347
9734.000000;0.312515
9733.000000;0.310623
9732.000000;0.308934
9731.000000;0.307614
9730.000000;0.306493
9729.000000;0.305199
9728.000000;0.303553
9727.000000;0.301743
9726.000000;0.300081
9725.000000;0.298685
9724.000000;0.297447
9723.000000;0.296186
9722.000000;0.294770
9721.000000;0.293175
9720.000000;0.291528
9719.000000;0.290040
9718.000000;0.288788
9717.000000;0.287595
9716.000000;0.286194
9715.000000;0.284528
9714.000000;0.282787
9713.000000;0.281150
9712.000000;0.279614
9711.000000;0.278109
9710.000000;0.276657
9709.000000;0.275286
9708.000000;0.273843
9707.000000;0.272088
9706.000000;0.269983
9705.000000;0.267745
9704.000000;0.265559
9703.000000;0.263415
9702.000000;0.261310
9701.000000;0.259448
9700.000000;0.258018
9699.000000;0.256851
9698.000000;0.255527
9697.000000;0.253850
9696.000000;0.252042
9695.000000;0.250414
9694.000000;0.249030
9693.000000;0.247755
9692.000000;0.246457
9691.000000;0.245049
9690.000000;0.243458
9689.000000;0.241712
9688.000000;0.239970
9687.000000;0.238348
9686.000000;0.236787
9685.000000;0.235170
9684.000000;0.233507
9683.000000;0.231862
9682.000000;0.230204
9681.000000;0.228470
9680.000000;0.226730
9679.000000;0.225127
9678.000000;0.223647
9677.000000;0.222102
9676.000000;0.220360
9675.000000;0.218494
9674.000000;0.216661
9673.000000;0.214953
9672.000000;0.213367
9671.000000;0.211809
9670.000000;0.210109
9669.000000;0.208136
9668.000000;0.205997
9667.000000;0.204022
9666.000000;0.202447
9665.000000;0.201114
9664.000000;0.199561
9663.000000;0.197450
9662.000000;0.194891
9661.000000;0.192354
9660.000000;0.190252
9659.000000;0.188629
9658.000000;0.187237
9657.000000;0.185838
9656.000000;0.184364
9655.000000;0.182817
9654.000000;0.181154
9653.000000;0.179376
9652.000000;0.177626
9651.000000;0.176076
9650.000000;0.174707
9649.000000;0.173286
9648.000000;0.171558
9647.000000;0.169402
9646.000000;0.166885
9645.000000;0.164294
9644.000000;0.162081
9643.000000;0.160569
9642.000000;0.159587
9641.000000;0.158512
9640.000000;0.156801
9639.000000;0.154472
9638.000000;0.152023
9637.000000;0.149920
9636.000000;0.148245
9635.000000;0.146759
9634.000000;0.145169
9633.000000;0.143323
9632.000000;0.141258
9631.000000;0.139139
9630.000000;0.137156
9629.000000;0.135413
9628.000000;0.133859
9627.000000;0.132349
9626.000000;0.130752
9625.000000;0.129019
9624.000000;0.127146
9623.000000;0.125123
9622.000000;0.122962
9621.000000;0.120756
9620.000000;0.118642
9619.000000;0.116683
9618.000000;0.114840
9617.000000;0.113052
9616.000000;0.111280
9615.000000;0.109448
9614.000000;0.107427
9613.000000;0.105146
9612.000000;0.102682
9611.000000;0.100180
9610.000000;0.097747
9609.000000;0.095468
9608.000000;0.093454
9607.000000;0.091730
9606.000000;0.090150
9605.000000;0.088547
9604.000000;0.086936
9603.000000;0.085401
9602.000000;0.083786
9601.000000;0.081746
9600.000000;0.079218
9599.000000;0.076661
9598.000000;0.074597
9597.000000;0.073010
9596.000000;0.071400
9595.000000;0.069404
9594.000000;0.067171
9593.000000;0.065062
9592.000000;0.063166
9591.000000;0.061277
9590.000000;0.059235
9589.000000;0.057106
9588.000000;0.055017
9587.000000;0.052969
9586.000000;0.050850
9585.000000;0.048577
9584.000000;0.046160
9583.000000;0.043687
9582.000000;0.041303
9581.000000;0.039154
9580.000000;0.037279
9579.000000;0.035545
9578.000000;0.033736
9577.000000;0.031710
9576.000000;0.029473
9575.000000;0.027156
9574.000000;0.024941
9573.000000;0.022958
9572.000000;0.021177
9571.000000;0.019404
9570.000000;0.017480
9569.000000;0.015486
9568.000000;0.013665
9567.000000;0.012117
9566.000000;0.010639
9565.000000;0.008918
9564.000000;0.006822
9563.000000;0.004448
9562.000000;0.001948
9561.000000;-0.000612
9560.000000;-0.003231
9559.000000;-0.005853
9558.000000;-0.008299
9557.000000;-0.010353
9556.000000;-0.011988
9555.000000;-0.013489
9554.000000;-0.015227
9553.000000;-0.017258
9552.000000;-0.019245
9551.000000;-0.020888
9550.000000;-0.022332
9549.000000;-0.024036
9548.000000;-0.026246
9547.000000;-0.028743
9546.000000;-0.031130
9545.000000;-0.033219
9544.000000;-0.035087
9543.000000;-0.036870
9542.000000;-0.038621
9541.000000;-0.040330
9540.000000;-0.042004
9539.000000;-0.043697
9538.000000;-0.045503
9537.000000;-0.047490
9536.000000;-0.049614
9535.000000;-0.051686
9534.000000;-0.053490
9533.000000;-0.054964
9532.000000;-0.056263
9531.000000;-0.057640
9530.000000;-0.059280
9529.000000;-0.061227
9528.000000;-0.063415
9527.000000;-0.065691
9526.000000;-0.067852
9525.000000;-0.069747
9524.000000;-0.071405
9523.000000;-0.073016
9522.000000;-0.074726
9521.000000;-0.076502
9520.000000;-0.078252
9519.000000;-0.080008
9518.000000;-0.081871
9517.000000;-0.083784
9516.000000;-0.085525
9515.000000;-0.086988
9514.000000;-0.088351
9513.000000;-0.089842
9512.000000;-0.091448
9511.000000;-0.092996
9510.000000;-0.094466
9509.000000;-0.096074
9508.000000;-0.097971
9507.000000;-0.099985
9506.000000;-0.101767
9505.000000;-0.103166
9504.000000;-0.104407
9503.000000;-0.105827
9502.000000;-0.107487
9501.000000;-0.109100
9500.000000;-0.110380
9499.000000;-0.111423
9498.000000;-0.112606
9497.000000;-0.114128
9496.000000;-0.115771
9495.000000;-0.117168
9494.000000;-0.118199
9493.000000;-0.119051
9492.000000;-0.119965
9491.000000;-0.121066
9490.000000;-0.122348
9489.000000;-0.123707
9488.000000;-0.124986
9487.000000;-0.126085
9486.000000;-0.127030
9485.000000;-0.127878
9484.000000;-0.128608
9483.000000;-0.129240
9482.000000;-0.129975
9481.000000;-0.131032
9480.000000;-0.132306
9479.000000;-0.133388
9478.000000;-0.133987
9477.000000;-0.134236
9476.000000;-0.134523
9475.000000;-0.135142
9474.000000;-0.136151
9473.000000;-0.137398
9472.000000;-0.138573
9471.000000;-0.139369
9470.000000;-0.139768
9469.000000;-0.140112
9468.000000;-0.140760
9467.000000;-0.141722
9466.000000;-0.142715
9465.000000;-0.143515
9464.000000;-0.144076
9463.000000;-0.144383
9462.000000;-0.144401
9461.000000;-0.144208
9460.000000;-0.144044
9459.000000;-0.144130
9458.000000;-0.144506
9457.000000;-0.145069
9456.000000;-0.145694
9455.000000;-0.146263
9454.000000;-0.146647
9453.000000;-0.146765
9452.000000;-0.146630
9451.000000;-0.146350
9450.000000;-0.146081
9449.000000;-0.145932
9448.000000;-0.145852
9447.000000;-0.145632
9446.000000;-0.145137
9445.000000;-0.144539
9444.000000;-0.144210
9443.000000;-0.144363
9442.000000;-0.144869
9441.000000;-0.145436
9440.000000;-0.145820
9439.000000;-0.145841
9438.000000;-0.145413
9437.000000;-0.144689
9436.000000;-0.144050
9435.000000;-0.143763
9434.000000;-0.143674
9433.000000;-0.143391
9432.000000;-0.142735
9431.000000;-0.141918
9430.000000;-0.141279
9429.000000;-0.140981
9428.000000;-0.140950
9427.000000;-0.140975
9426.000000;-0.140804
9425.000000;-0.140248
9424.000000;-0.139287
9423.000000;-0.138097
9422.000000;-0.136963
9421.000000;-0.136106
9420.000000;-0.135509
9419.000000;-0.134894
9418.000000;-0.133959
9417.000000;-0.132726
9416.000000;-0.131574
9415.000000;-0.130823
9414.000000;-0.130360
9413.000000;-0.129790
9412.000000;-0.128914
9411.000000;-0.127900
9410.000000;-0.127019
9409.000000;-0.126403
9408.000000;-0.126030
9407.000000;-0.125715
9406.000000;-0.125095
9405.000000;-0.123841
9404.000000;-0.122045
9403.000000;-0.120223
9402.000000;-0.118809
9401.000000;-0.117740
9400.000000;-0.116678
9399.000000;-0.115489
9398.000000;-0.114338
9397.000000;-0.113374
9396.000000;-0.112525
9395.000000;-0.111620
9394.000000;-0.110558
9393.000000;-0.109322
9392.000000;-0.107946
9391.000000;-0.106507
9390.000000;-0.105118
9389.000000;-0.103879
9388.000000;-0.102829
9387.000000;-0.101901
9386.000000;-0.100955
9385.000000;-0.099922
9384.000000;-0.098916
9383.000000;-0.098079
9382.000000;-0.097290
9381.000000;-0.096188
9380.000000;-0.094594
9379.000000;-0.092790
9378.000000;-0.091200
9377.000000;-0.089887
9376.000000;-0.088573
9375.000000;-0.087084
9374.000000;-0.085557
9373.000000;-0.084169
9372.000000;-0.082887
9371.000000;-0.081588
9370.000000;-0.080261
9369.000000;-0.078991
9368.000000;-0.077806
9367.000000;-0.076639
9366.000000;-0.075390
9365.000000;-0.073987
9364.000000;-0.072415
9363.000000;-0.070756
9362.000000;-0.069148
9361.000000;-0.067685
9360.000000;-0.066384
9359.000000;-0.065213
9358.000000;-0.064127
9357.000000;-0.063051
9356.000000;-0.061914
9355.000000;-0.060673
9354.000000;-0.059253
9353.000000;-0.057532
9352.000000;-0.055509
9351.000000;-0.053490
9350.000000;-0.051937
9349.000000;-0.051053
9348.000000;-0.050583
9347.000000;-0.050042
9346.000000;-0.049070
9345.000000;-0.047581
9344.000000;-0.045735
9343.000000;-0.043826
9342.000000;-0.042077
9341.000000;-0.040480
9340.000000;-0.038899
9339.000000;-0.037325
9338.000000;-0.035905
9337.000000;-0.034683
9336.000000;-0.033487
9335.000000;-0.032156
9334.000000;-0.030748
9333.000000;-0.029400
9332.000000;-0.028099
9331.000000;-0.026736
9330.000000;-0.025298
9329.000000;-0.023871
9328.000000;-0.022501
9327.000000;-0.021172
9326.000000;-0.019868
9325.000000;-0.018534
9324.000000;-0.017030
9323.000000;-0.015276
9322.000000;-0.013437
9321.000000;-0.011820
9320.000000;-0.010563
9319.000000;-0.009499
9318.000000;-0.008361
9317.000000;-0.007039
9316.000000;-0.005620
9315.000000;-0.004257
9314.000000;-0.003039
9313.000000;-0.001960
9312.000000;-0.000956
9311.000000;0.000061
9310.000000;0.001228
9309.000000;0.002693
9308.000000;0.004463
9307.000000;0.006301
9306.000000;0.007918
9305.000000;0.009319
9304.000000;0.010808
9303.000000;0.012572
9302.000000;0.014392
9301.000000;0.015894
9300.000000;0.016999
9299.000000;0.017964
9298.000000;0.019061
9297.000000;0.020359
9296.000000;0.021781
9295.000000;0.023201
9294.000000;0.024490
9293.000000;0.025627
9292.000000;0.026792
9291.000000;0.028213
9290.000000;0.029888
9289.000000;0.031544
9288.000000;0.032887
9287.000000;0.033835
9286.000000;0.034537
9285.000000;0.035258
9284.000000;0.036226
9283.000000;0.037467
9282.000000;0.038762
9281.000000;0.039855
9280.000000;0.040729
9279.000000;0.041595
9278.000000;0.042617
9277.000000;0.043791
9276.000000;0.045065
9275.000000;0.046441
9274.000000;0.047890
9273.000000;0.049300
9272.000000;0.050589
9271.000000;0.051800
9270.000000;0.052988
9269.000000;0.054109
9268.000000;0.055103
9267.000000;0.056031
9266.000000;0.057011
9265.000000;0.058062
9264.000000;0.059101
9263.000000;0.060137
9262.000000;0.061344
9261.000000;0.062871
9260.000000;0.064593
9259.000000;0.066140
9258.000000;0.067227
9257.000000;0.067905
9256.000000;0.068463
9255.000000;0.069125
9254.000000;0.069951
9253.000000;0.070980
9252.000000;0.072310
9251.000000;0.073956
9250.000000;0.075738
9249.000000;0.077403
9248.000000;0.078770
9247.000000;0.079720
9246.000000;0.080201
9245.000000;0.080396
9244.000000;0.080759
9243.000000;0.081692
9242.000000;0.083179
9241.000000;0.084852
9240.000000;0.086371
9239.000000;0.087603
9238.000000;0.088509
9237.000000;0.089115
9236.000000;0.089623
9235.000000;0.090324
9234.000000;0.091322
9233.000000;0.092472
9232.000000;0.093647
9231.000000;0.094904
9230.000000;0.096303
9229.000000;0.097703
9228.000000;0.098902
9227.000000;0.099877
9226.000000;0.100780
9225.000000;0.101735
9224.000000;0.102748
9223.000000;0.103774
9222.000000;0.104781
9221.000000;0.105775
9220.000000;0.106792
9219.000000;0.107834
9218.000000;0.108778
9217.000000;0.109435
9216.000000;0.109794
9215.000000;0.110154
9214.000000;0.110903
9213.000000;0.112154
9212.000000;0.113636
9211.000000;0.114935
9210.000000;0.115814
9209.000000;0.116329
9208.000000;0.116710
9207.000000;0.117169
9206.000000;0.117813
9205.000000;0.118679
9204.000000;0.119767
9203.000000;0.121007
9202.000000;0.122262
9201.000000;0.123455
9200.000000;0.124652
9199.000000;0.125940
9198.000000;0.127211
9197.000000;0.128205
9196.000000;0.128792
9195.000000;0.129138
9194.000000;0.129557
9193.000000;0.130255
9192.000000;0.131229
9191.000000;0.132300
9190.000000;0.133225
9189.000000;0.133893
9188.000000;0.134466
9187.000000;0.135248
9186.000000;0.136347
9185.000000;0.137533
9184.000000;0.138497
9183.000000;0.139180
9182.000000;0.139781
9181.000000;0.140524
9180.000000;0.141483
9179.000000;0.142564
9178.000000;0.143560
9177.000000;0.144258
9176.000000;0.144607
9175.000000;0.144787
9174.000000;0.145063
9173.000000;0.145582
9172.000000;0.146318
9171.000000;0.147173
9170.000000;0.148058
9169.000000;0.148909
9168.000000;0.149704
9167.000000;0.150473
9166.000000;0.151265
9165.000000;0.152095
9164.000000;0.152922
9163.000000;0.153692
9162.000000;0.154388
9161.000000;0.155078
9160.000000;0.155870
9159.000000;0.156785
9158.000000;0.157689
9157.000000;0.158423
9156.000000;0.159024
9155.000000;0.159694
9154.000000;0.160520
9153.000000;0.161352
9152.000000;0.162034
9151.000000;0.162685
9150.000000;0.163569
9149.000000;0.164727
9148.000000;0.165880
9147.000000;0.166748
9146.000000;0.167368
9145.000000;0.168000
9144.000000;0.168753
9143.000000;0.169396
9142.000000;0.169611
9141.000000;0.169412
9140.000000;0.169257
9139.000000;0.169670
9138.000000;0.170768
9137.000000;0.172182
9136.000000;0.173405
9135.000000;0.174170
9134.000000;0.174537
9133.000000;0.174749
9132.000000;0.175073
9131.000000;0.175675
9130.000000;0.176527
9129.000000;0.177462
9128.000000;0.178326
9127.000000;0.179072
9126.000000;0.179691
9125.000000;0.180174
9124.000000;0.180595
9123.000000;0.181117
9122.000000;0.181781
9121.000000;0.182377
9120.000000;0.182663
9119.000000;0.182711
9118.000000;0.182887
9117.000000;0.183482
9116.000000;0.184443
9115.000000;0.185485
9114.000000;0.186340
9113.000000;0.186887
9112.000000;0.187177
9111.000000;0.187438
9110.000000;0.187947
9109.000000;0.188792
9108.000000;0.189767
9107.000000;0.190595
9106.000000;0.191225
9105.000000;0.191844
9104.000000;0.192593
9103.000000;0.193365
9102.000000;0.193903
9101.000000;0.194063
9100.000000;0.193970
9099.000000;0.193936
9098.000000;0.194240
9097.000000;0.194929
9096.000000;0.195784
9095.000000;0.196504
9094.000000;0.196979
9093.000000;0.197355
9092.000000;0.197846
9091.000000;0.198491
9090.000000;0.199148
9089.000000;0.199700
9088.000000;0.200173
9087.000000;0.200659
9086.000000;0.201186
9085.000000;0.201716
9084.000000;0.202226
9083.000000;0.202709
9082.000000;0.203119
9081.000000;0.203403
9080.000000;0.203598
9079.000000;0.203870
9078.000000;0.204379
9077.000000;0.205112
9076.000000;0.205902
9075.000000;0.206611
9074.000000;0.207284
9073.000000;0.208051
9072.000000;0.208883
9071.000000;0.209539
9070.000000;0.209826
9069.000000;0.209887
9068.000000;0.210092
9067.000000;0.210621
9066.000000;0.211247
9065.000000;0.211621
9064.000000;0.211705
9063.000000;0.211810
9062.000000;0.212232
9061.000000;0.212975
9060.000000;0.213811
9059.000000;0.214490
9058.000000;0.214833
9057.000000;0.214768
9056.000000;0.214404
9055.000000;0.214067
9054.000000;0.214112
9053.000000;0.214644
9052.000000;0.215426
9051.000000;0.216116
9050.000000;0.216579
9049.000000;0.216954
9048.000000;0.217425
9047.000000;0.217987
9046.000000;0.218454
9045.000000;0.218684
9044.000000;0.218737
9043.000000;0.218810
9042.000000;0.219065
9041.000000;0.219532
9040.000000;0.220128
9039.000000;0.220744
9038.000000;0.221321
9037.000000;0.221871
9036.000000;0.222402
9035.000000;0.222808
9034.000000;0.222915
9033.000000;0.222712
9032.000000;0.222499
9031.000000;0.222722
9030.000000;0.223589
9029.000000;0.224871
9028.000000;0.226069
9027.000000;0.226758
9026.000000;0.226831
9025.000000;0.226515
9024.000000;0.226192
9023.000000;0.226129
9022.000000;0.226313
9021.000000;0.226527
9020.000000;0.226627
9019.000000;0.226719
9018.000000;0.227028
9017.000000;0.227600
9016.000000;0.228194
9015.000000;0.228499
9014.000000;0.228449
9013.000000;0.228301
9012.000000;0.228400
9011.000000;0.228895
9010.000000;0.229637
9009.000000;0.230306
9008.000000;0.230652
9007.000000;0.230682
9006.000000;0.230663
9005.000000;0.230903
9004.000000;0.231485
9003.000000;0.232208
9002.000000;0.232792
9001.000000;0.233084
9000.000000;0.233068
8999.000000;0.232791
8998.000000;0.232406
8997.000000;0.232208
8996.000000;0.232454
8995.000000;0.233092
8994.000000;0.233763
8993.000000;0.234125
8992.000000;0.234097
8991.000000;0.233825
8990.000000;0.233536
8989.000000;0.233472
8988.000000;0.233793
8987.000000;0.234434
8986.000000;0.235141
8985.000000;0.235727
8984.000000;0.236220
8983.000000;0.236698
8982.000000;0.237111
8981.000000;0.237367
8980.000000;0.237498
8979.000000;0.237601
8978.000000;0.237694
8977.000000;0.237765
8976.000000;0.237887
8975.000000;0.238137
8974.000000;0.238413
8973.000000;0.238534
8972.000000;0.238495
8971.000000;0.238498
8970.000000;0.238670
8969.000000;0.238915
8968.000000;0.239076
8967.000000;0.239146
8966.000000;0.239238
8965.000000;0.239432
8964.000000;0.239711
8963.000000;0.239982
8962.000000;0.240136
8961.000000;0.240120
8960.000000;0.240016
8959.000000;0.240006
8958.000000;0.240232
8957.000000;0.240678
8956.000000;0.241193
8955.000000;0.241625
8954.000000;0.241928
8953.000000;0.242176
8952.000000;0.242444
8951.000000;0.242680
8950.000000;0.242750
8949.000000;0.242634
8948.000000;0.242516
8947.000000;0.242606
8946.000000;0.242907
8945.000000;0.243247
8944.000000;0.243483
8943.000000;0.243603
8942.000000;0.243649
8941.000000;0.243649
8940.000000;0.243613
8939.000000;0.243532
8938.000000;0.243409
8937.000000;0.243328
8936.000000;0.243446
8935.000000;0.243801
8934.000000;0.244172
8933.000000;0.244271
8932.000000;0.244074
8931.000000;0.243836
8930.000000;0.243792
8929.000000;0.243949
8928.000000;0.244197
8927.000000;0.244475
8926.000000;0.244742
8925.000000;0.244913
8924.000000;0.244918
8923.000000;0.244789
8922.000000;0.244651
8921.000000;0.244630
8920.000000;0.244777
8919.000000;0.245021
8918.000000;0.245206
8917.000000;0.245246
8916.000000;0.245244
8915.000000;0.245398
8914.000000;0.245758
8913.000000;0.246161
8912.000000;0.246403
8911.000000;0.246402
8910.000000;0.246205
8909.000000;0.245938
8908.000000;0.245787
8907.000000;0.245911
8906.000000;0.246280
8905.000000;0.246647
8904.000000;0.246743
8903.000000;0.246506
8902.000000;0.246119
8901.000000;0.245876
8900.000000;0.246010
8899.000000;0.246536
8898.000000;0.247198
8897.000000;0.247617
8896.000000;0.247555
8895.000000;0.247068
8894.000000;0.246434
8893.000000;0.245986
8892.000000;0.245957
8891.000000;0.246344
8890.000000;0.246908
8889.000000;0.247378
8888.000000;0.247712
8887.000000;0.248075
8886.000000;0.248546
8885.000000;0.248944
8884.000000;0.248996
8883.000000;0.248614
8882.000000;0.247978
8881.000000;0.247400
8880.000000;0.247139
8879.000000;0.247229
8878.000000;0.247431
8877.000000;0.247427
8876.000000;0.247141
8875.000000;0.246807
8874.000000;0.246668
8873.000000;0.246694
8872.000000;0.246682
8871.000000;0.246582
8870.000000;0.246571
8869.000000;0.246811
8868.000000;0.247230
8867.000000;0.247587
8866.000000;0.247708
8865.000000;0.247620
8864.000000;0.247475
8863.000000;0.247385
8862.000000;0.247343
8861.000000;0.247283
8860.000000;0.247170
8859.000000;0.247018
8858.000000;0.246863
8857.000000;0.246751
8856.000000;0.246729
8855.000000;0.246785
8854.000000;0.246813
8853.000000;0.246707
8852.000000;0.246493
8851.000000;0.246303
8850.000000;0.246213
8849.000000;0.246197
8848.000000;0.246241
8847.000000;0.246418
8846.000000;0.246760
8845.000000;0.247135
8844.000000;0.247340
8843.000000;0.247296
8842.000000;0.247097
8841.000000;0.246871
8840.000000;0.246652
8839.000000;0.246408
8838.000000;0.246149
8837.000000;0.245951
8836.000000;0.245860
8835.000000;0.245823
8834.000000;0.245741
8833.000000;0.245618
8832.000000;0.245577
8831.000000;0.245681
8830.000000;0.245766
8829.000000;0.245564
8828.000000;0.244994
8827.000000;0.244300
8826.000000;0.243852
8825.000000;0.243834
8824.000000;0.244126
8823.000000;0.244462
8822.000000;0.244667
8821.000000;0.244764
8820.000000;0.244880
8819.000000;0.245063
8818.000000;0.245244
8817.000000;0.245370
8816.000000;0.245498
8815.000000;0.245696
8814.000000;0.245888
8813.000000;0.245876
8812.000000;0.245533
8811.000000;0.244915
8810.000000;0.244210
8809.000000;0.243617
8808.000000;0.243253
8807.000000;0.243100
8806.000000;0.243070
8805.000000;0.243143
8804.000000;0.243415
8803.000000;0.243901
8802.000000;0.244362
8801.000000;0.244452
8800.000000;0.244071
8799.000000;0.243468
8798.000000;0.242935
8797.000000;0.242524
8796.000000;0.242115
8795.000000;0.241672
8794.000000;0.241335
8793.000000;0.241272
8792.000000;0.241488
8791.000000;0.241792
8790.000000;0.241920
8789.000000;0.241730
8788.000000;0.241287
8787.000000;0.240796
8786.000000;0.240433
8785.000000;0.240244
8784.000000;0.240149
8783.000000;0.240018
8782.000000;0.239807
8781.000000;0.239656
8780.000000;0.239761
8779.000000;0.240082
8778.000000;0.240268
8777.000000;0.240019
8776.000000;0.239480
8775.000000;0.239095
8774.000000;0.239091
8773.000000;0.239273
8772.000000;0.239345
8771.000000;0.239256
8770.000000;0.239126
8769.000000;0.239013
8768.000000;0.238899
8767.000000;0.238798
8766.000000;0.238739
8765.000000;0.238673
8764.000000;0.238551
8763.000000;0.238448
8762.000000;0.238476
8761.000000;0.238580
8760.000000;0.238510
8759.000000;0.238084
8758.000000;0.237409
8757.000000;0.236806
8756.000000;0.236525
8755.000000;0.236552
8754.000000;0.236666
8753.000000;0.236634
8752.000000;0.236355
8751.000000;0.235870
8750.000000;0.235322
8749.000000;0.234910
8748.000000;0.234799
8747.000000;0.234973
8746.000000;0.235206
8745.000000;0.235275
8744.000000;0.235168
8743.000000;0.235012
8742.000000;0.234834
8741.000000;0.234533
8740.000000;0.234110
8739.000000;0.233763
8738.000000;0.233682
8737.000000;0.233807
8736.000000;0.233890
8735.000000;0.233756
8734.000000;0.233441
8733.000000;0.233110
8732.000000;0.232894
8731.000000;0.232782
8730.000000;0.232638
8729.000000;0.232335
8728.000000;0.231905
8727.000000;0.231512
8726.000000;0.231277
8725.000000;0.231163
8724.000000;0.231050
8723.000000;0.230869
8722.000000;0.230625
8721.000000;0.230341
8720.000000;0.230047
8719.000000;0.229792
8718.000000;0.229609
8717.000000;0.229479
8716.000000;0.229358
8715.000000;0.229218
8714.000000;0.229047
8713.000000;0.228853
8712.000000;0.228693
8711.000000;0.228640
8710.000000;0.228674
8709.000000;0.228658
8708.000000;0.228500
8707.000000;0.228302
8706.000000;0.228257
8705.000000;0.228390
8704.000000;0.228476
8703.000000;0.228241
8702.000000;0.227630
8701.000000;0.226842
8700.000000;0.226155
8699.000000;0.225744
8698.000000;0.225612
8697.000000;0.225618
8696.000000;0.225566
8695.000000;0.225322
8694.000000;0.224909
8693.000000;0.224484
8692.000000;0.224176
8691.000000;0.223955
8690.000000;0.223690
8689.000000;0.223339
8688.000000;0.222996
8687.000000;0.222744
8686.000000;0.222544
8685.000000;0.222307
8684.000000;0.222053
8683.000000;0.221891
8682.000000;0.221855
8681.000000;0.221815
8680.000000;0.221579
8679.000000;0.221086
8678.000000;0.220502
8677.000000;0.220108
8676.000000;0.220047
8675.000000;0.220173
8674.000000;0.220179
8673.000000;0.219919
8672.000000;0.219536
8671.000000;0.219253
8670.000000;0.219097
8669.000000;0.218903
8668.000000;0.218541
8667.000000;0.218055
8666.000000;0.217593
8665.000000;0.217271
8664.000000;0.217095
8663.000000;0.216970
8662.000000;0.216785
8661.000000;0.216537
8660.000000;0.216307
8659.000000;0.216109
8658.000000;0.215823
8657.000000;0.215373
8656.000000;0.214889
8655.000000;0.214591
8654.000000;0.214528
8653.000000;0.214544
8652.000000;0.214465
8651.000000;0.214233
8650.000000;0.213872
8649.000000;0.213448
8648.000000;0.213053
8647.000000;0.212741
8646.000000;0.212476
8645.000000;0.212207
8644.000000;0.211977
8643.000000;0.211861
8642.000000;0.211809
8641.000000;0.211687
8640.000000;0.211466
8639.000000;0.211236
8638.000000;0.211034
8637.000000;0.210768
8636.000000;0.210390
8635.000000;0.210001
8634.000000;0.209723
8633.000000;0.209545
8632.000000;0.209362
8631.000000;0.209111
8630.000000;0.208814
8629.000000;0.208516
8628.000000;0.208233
8627.000000;0.207935
8626.000000;0.207570
8625.000000;0.207156
8624.000000;0.206814
8623.000000;0.206642
8622.000000;0.206565
8621.000000;0.206393
8620.000000;0.206048
8619.000000;0.205628
8618.000000;0.205238
8617.000000;0.204869
8616.000000;0.204471
8615.000000;0.204042
8614.000000;0.203587
8613.000000;0.203114
8612.000000;0.202704
8611.000000;0.202489
8610.000000;0.202478
8609.000000;0.202493
8608.000000;0.202368
8607.000000;0.202145
8606.000000;0.201993
8605.000000;0.201955
8604.000000;0.201884
8603.000000;0.201595
8602.000000;0.201062
8601.000000;0.200476
8600.000000;0.200114
8599.000000;0.200091
8598.000000;0.200210
8597.000000;0.200126
8596.000000;0.199704
8595.000000;0.199133
8594.000000;0.198658
8593.000000;0.198292
8592.000000;0.197881
8591.000000;0.197369
8590.000000;0.196871
8589.000000;0.196509
8588.000000;0.196278
8587.000000;0.196091
8586.000000;0.195871
8585.000000;0.195603
8584.000000;0.195333
8583.000000;0.195142
8582.000000;0.195064
8581.000000;0.195034
8580.000000;0.194928
8579.000000;0.194679
8578.000000;0.194324
8577.000000;0.193940
8576.000000;0.193551
8575.000000;0.193115
8574.000000;0.192592
8573.000000;0.192021
8572.000000;0.191503
8571.000000;0.191112
8570.000000;0.190848
8569.000000;0.190671
8568.000000;0.190533
8567.000000;0.190367
8566.000000;0.190111
8565.000000;0.189814
8564.000000;0.189634
8563.000000;0.189632
8562.000000;0.189630
8561.000000;0.189419
8560.000000;0.189062
8559.000000;0.188823
8558.000000;0.188778
8557.000000;0.188664
8556.000000;0.188195
8555.000000;0.187397
8554.000000;0.186537
8553.000000;0.185825
8552.000000;0.185318
8551.000000;0.185023
8550.000000;0.184932
8549.000000;0.184954
8548.000000;0.184925
8547.000000;0.184727
8546.000000;0.184356
8545.000000;0.183890
8544.000000;0.183435
8543.000000;0.183085
8542.000000;0.182858
8541.000000;0.182675
8540.000000;0.182414
8539.000000;0.182005
8538.000000;0.181472
8537.000000;0.180928
8536.000000;0.180529
8535.000000;0.180372
8534.000000;0.180362
8533.000000;0.180248
8532.000000;0.179856
8531.000000;0.179281
8530.000000;0.178801
8529.000000;0.178599
8528.000000;0.178610
8527.000000;0.178628
8526.000000;0.178479
8525.000000;0.178118
8524.000000;0.177622
8523.000000;0.177134
8522.000000;0.176765
8521.000000;0.176491
8520.000000;0.176174
8519.000000;0.175708
8518.000000;0.175141
8517.000000;0.174637
8516.000000;0.174314
8515.000000;0.174164
8514.000000;0.174115
8513.000000;0.174119
8512.000000;0.174130
8511.000000;0.174054
8510.000000;0.173798
8509.000000;0.173373
8508.000000;0.172884
8507.000000;0.172407
8506.000000;0.171940
8505.000000;0.171503
8504.000000;0.171180
8503.000000;0.171012
8502.000000;0.170902
8501.000000;0.170675
8500.000000;0.170230
8499.000000;0.169599
8498.000000;0.168932
8497.000000;0.168444
8496.000000;0.168281
8495.000000;0.168347
8494.000000;0.168337
8493.000000;0.168039
8492.000000;0.167545
8491.000000;0.167091
8490.000000;0.166767
8489.000000;0.166502
8488.000000;0.166241
8487.000000;0.165984
8486.000000;0.165706
8485.000000;0.165378
8484.000000;0.165066
8483.000000;0.164840
8482.000000;0.164599
8481.000000;0.164177
8480.000000;0.163600
8479.000000;0.163069
8478.000000;0.162663
8477.000000;0.162262
8476.000000;0.161826
8475.000000;0.161524
8474.000000;0.161472
8473.000000;0.161502
8472.000000;0.161385
8471.000000;0.161133
8470.000000;0.160919
8469.000000;0.160769
8468.000000;0.160522
8467.000000;0.160066
8466.000000;0.159487
8465.000000;0.158964
8464.000000;0.158652
8463.000000;0.158623
8462.000000;0.158816
8461.000000;0.159021
8460.000000;0.158996
8459.000000;0.158644
8458.000000;0.158042
8457.000000;0.157359
8456.000000;0.156776
8455.000000;0.156435
8454.000000;0.156339
8453.000000;0.156312
8452.000000;0.156136
8451.000000;0.155754
8450.000000;0.155297
8449.000000;0.154920
8448.000000;0.154661
8447.000000;0.154463
8446.000000;0.154236
8445.000000;0.153905
8444.000000;0.153456
8443.000000;0.152979
8442.000000;0.152580
8441.000000;0.152245
8440.000000;0.151839
8439.000000;0.151288
8438.000000;0.150702
8437.000000;0.150285
8436.000000;0.150122
8435.000000;0.150116
8434.000000;0.150098
8433.000000;0.149963
8432.000000;0.149712
8431.000000;0.149417
8430.000000;0.149176
8429.000000;0.149022
8428.000000;0.148862
8427.000000;0.148517
8426.000000;0.147918
8425.000000;0.147230
8424.000000;0.146715
8423.000000;0.146456
8422.000000;0.146305
8421.000000;0.146112
8420.000000;0.145927
8419.000000;0.145881
8418.000000;0.145963
8417.000000;0.146005
8416.000000;0.145870
8415.000000;0.145551
8414.000000;0.145114
8413.000000;0.144624
8412.000000;0.144161
8411.000000;0.143793
8410.000000;0.143505
8409.000000;0.143205
8408.000000;0.142836
8407.000000;0.142435
8406.000000;0.142056
8405.000000;0.141709
8404.000000;0.141390
8403.000000;0.141127
8402.000000;0.140945
8401.000000;0.140825
8400.000000;0.140709
8399.000000;0.140546
8398.000000;0.140313
8397.000000;0.140033
8396.000000;0.139751
8395.000000;0.139491
8394.000000;0.139226
8393.000000;0.138934
8392.000000;0.138647
8391.000000;0.138405
8390.000000;0.138197
8389.000000;0.137984
8388.000000;0.137763
8387.000000;0.137530
8386.000000;0.137208
8385.000000;0.136700
8384.000000;0.136044
8383.000000;0.135430
8382.000000;0.135037
8381.000000;0.134895
8380.000000;0.134906
8379.000000;0.134956
8378.000000;0.134965
8377.000000;0.134890
8376.000000;0.134717
8375.000000;0.134455
8374.000000;0.134123
8373.000000;0.133776
8372.000000;0.133483
8371.000000;0.133241
8370.000000;0.132951
8369.000000;0.132553
8368.000000;0.132149
8367.000000;0.131897
8366.000000;0.131805
8365.000000;0.131711
8364.000000;0.131491
8363.000000;0.131177
8362.000000;0.130858
8361.000000;0.130586
8360.000000;0.130382
8359.000000;0.130236
8358.000000;0.130055
8357.000000;0.129711
8356.000000;0.129210
8355.000000;0.128741
8354.000000;0.128492
8353.000000;0.128471
8352.000000;0.128516
8351.000000;0.128436
8350.000000;0.128104
8349.000000;0.127522
8348.000000;0.126848
8347.000000;0.126329
8346.000000;0.126125
8345.000000;0.126187
8344.000000;0.126319
8343.000000;0.126325
8342.000000;0.126120
8341.000000;0.125768
8340.000000;0.125415
8339.000000;0.125142
8338.000000;0.124886
8337.000000;0.124564
8336.000000;0.124226
8335.000000;0.123988
8334.000000;0.123808
8333.000000;0.123495
8332.000000;0.122976
8331.000000;0.122429
8330.000000;0.122080
8329.000000;0.121983
8328.000000;0.122049
8327.000000;0.122174
8326.000000;0.122250
8325.000000;0.122153
8324.000000;0.121862
8323.000000;0.121508
8322.000000;0.121228
8321.000000;0.121008
8320.000000;0.120760
8319.000000;0.120485
8318.000000;0.120258
8317.000000;0.120098
8316.000000;0.119956
8315.000000;0.119790
8314.000000;0.119558
8313.000000;0.119196
8312.000000;0.118703
8311.000000;0.118227
8310.000000;0.117948
8309.000000;0.117868
8308.000000;0.117822
8307.000000;0.117684
8306.000000;0.117490
8305.000000;0.117336
8304.000000;0.117248
8303.000000;0.117171
8302.000000;0.117032
8301.000000;0.116788
8300.000000;0.116446
8299.000000;0.116078
8298.000000;0.115775
8297.000000;0.115566
8296.000000;0.115416
8295.000000;0.115289
8294.000000;0.115198
8293.000000;0.115161
8292.000000;0.115134
8291.000000;0.114996
8290.000000;0.114642
8289.000000;0.114089
8288.000000;0.113496
8287.000000;0.113040
8286.000000;0.112798
8285.000000;0.112740
8284.000000;0.112805
8283.000000;0.112922
8282.000000;0.112981
8281.000000;0.112883
8280.000000;0.112650
8279.000000;0.112399
8278.000000;0.112193
8277.000000;0.111969
8276.000000;0.111657
8275.000000;0.111297
8274.000000;0.110995
8273.000000;0.110813
8272.000000;0.110746
8271.000000;0.110753
8270.000000;0.110750
8269.000000;0.110627
8268.000000;0.110326
8267.000000;0.109904
8266.000000;0.109481
8265.000000;0.109157
8264.000000;0.108980
8263.000000;0.108937
8262.000000;0.108946
8261.000000;0.108900
8260.000000;0.108787
8259.000000;0.108686
8258.000000;0.108622
8257.000000;0.108495
8256.000000;0.108218
8255.000000;0.107869
8254.000000;0.107607
8253.000000;0.107454
8252.000000;0.107261
8251.000000;0.106896
8250.000000;0.106406
8249.000000;0.105990
8248.000000;0.105833
8247.000000;0.105934
8246.000000;0.106096
8245.000000;0.106087
8244.000000;0.105871
8243.000000;0.105616
8242.000000;0.105461
8241.000000;0.105335
8240.000000;0.105077
8239.000000;0.104671
8238.000000;0.104264
8237.000000;0.103981
8236.000000;0.103812
8235.000000;0.103691
8234.000000;0.103590
8233.000000;0.103535
8232.000000;0.103548
8231.000000;0.103608
8230.000000;0.103625
8229.000000;0.103488
8228.000000;0.103180
8227.000000;0.102832
8226.000000;0.102608
8225.000000;0.102536
8224.000000;0.102519
8223.000000;0.102468
8222.000000;0.102374
8221.000000;0.102253
8220.000000;0.102109
8219.000000;0.101958
8218.000000;0.101841
8217.000000;0.101761
8216.000000;0.101654
8215.000000;0.101455
8214.000000;0.101165
8213.000000;0.100842
8212.000000;0.100564
8211.000000;0.100392
8210.000000;0.100328
8209.000000;0.100298
8208.000000;0.100201
8207.000000;0.100020
8206.000000;0.099855
8205.000000;0.099813
8204.000000;0.099887
8203.000000;0.099944
8202.000000;0.099839
8201.000000;0.099537
8200.000000;0.099143
8199.000000;0.098828
8198.000000;0.098720
8197.000000;0.098816
8196.000000;0.098989
8195.000000;0.099063
8194.000000;0.098946
8193.000000;0.098710
8192.000000;0.098551
8191.000000;0.098610
8190.000000;0.098832
8189.000000;0.099005
8188.000000;0.098955
8187.000000;0.098686
8186.000000;0.098327
8185.000000;0.098000
8184.000000;0.097744
8183.000000;0.097540
8182.000000;0.097360
8181.000000;0.097191
8180.000000;0.097035
8179.000000;0.096896
8178.000000;0.096781
8177.000000;0.096732
8176.000000;0.096815
8175.000000;0.097037
8174.000000;0.097247
8173.000000;0.097217
8172.000000;0.096863
8171.000000;0.096350
8170.000000;0.095941
8169.000000;0.095755
8168.000000;0.095723
8167.000000;0.095731
8166.000000;0.095745
8165.000000;0.095797
8164.000000;0.095887
8163.000000;0.095930
8162.000000;0.095793
8161.000000;0.095429
8160.000000;0.094972
8159.000000;0.094637
8158.000000;0.094500
8157.000000;0.094419
8156.000000;0.094248
8155.000000;0.094053
8154.000000;0.094002
8153.000000;0.094085
8152.000000;0.094066
8151.000000;0.093780
8150.000000;0.093360
8149.000000;0.093082
8148.000000;0.093065
8147.000000;0.093195
8146.000000;0.093301
8145.000000;0.093294
8144.000000;0.093144
8143.000000;0.092861
8142.000000;0.092552
8141.000000;0.092407
8140.000000;0.092514
8139.000000;0.092740
8138.000000;0.092854
8137.000000;0.092777
8136.000000;0.092609
8135.000000;0.092446
8134.000000;0.092270
8133.000000;0.092069
8132.000000;0.091938
8131.000000;0.091972
8130.000000;0.092108
8129.000000;0.092196
8128.000000;0.092175
8127.000000;0.092111
8126.000000;0.092041
8125.000000;0.091896
8124.000000;0.091624
8123.000000;0.091316
8122.000000;0.091144
8121.000000;0.091201
8120.000000;0.091409
8119.000000;0.091578
8118.000000;0.091536
8117.000000;0.091245
8116.000000;0.090828
8115.000000;0.090467
8114.000000;0.090263
8113.000000;0.090190
8112.000000;0.090177
8111.000000;0.090187
8110.000000;0.090204
8109.000000;0.090211
8108.000000;0.090193
8107.000000;0.090151
8106.000000;0.090085
8105.000000;0.089996
8104.000000;0.089902
8103.000000;0.089841
8102.000000;0.089844
8101.000000;0.089908
8100.000000;0.090010
8099.000000;0.090124
8098.000000;0.090204
8097.000000;0.090212
8096.000000;0.090140
8095.000000;0.090010
8094.000000;0.089828
8093.000000;0.089588
8092.000000;0.089308
8091.000000;0.089052
8090.000000;0.088875
8089.000000;0.088794
8088.000000;0.088799
8087.000000;0.088866
8086.000000;0.088938
8085.000000;0.088933
8084.000000;0.088803
8083.000000;0.088593
8082.000000;0.088419
8081.000000;0.088384
8080.000000;0.088494
8079.000000;0.088629
8078.000000;0.088631
8077.000000;0.088460
8076.000000;0.088234
8075.000000;0.088096
8074.000000;0.088047
8073.000000;0.087977
8072.000000;0.087825
8071.000000;0.087652
8070.000000;0.087548
8069.000000;0.087552
8068.000000;0.087654
8067.000000;0.087796
8066.000000;0.087885
8065.000000;0.087850
8064.000000;0.087741
8063.000000;0.087689
8062.000000;0.087737
8061.000000;0.087800
8060.000000;0.087783
8059.000000;0.087690
8058.000000;0.087560
8057.000000;0.087397
8056.000000;0.087208
8055.000000;0.087068
8054.000000;0.087047
8053.000000;0.087124
8052.000000;0.087208
8051.000000;0.087235
8050.000000;0.087170
8049.000000;0.086994
8048.000000;0.086726
8047.000000;0.086466
8046.000000;0.086328
8045.000000;0.086336
8044.000000;0.086433
8043.000000;0.086545
8042.000000;0.086607
8041.000000;0.086570
8040.000000;0.086457
8039.000000;0.086385
8038.000000;0.086457
8037.000000;0.086620
8036.000000;0.086689
8035.000000;0.086539
8034.000000;0.086219
8033.000000;0.085889
8032.000000;0.085676
8031.000000;0.085621
8030.000000;0.085709
8029.000000;0.085898
8028.000000;0.086124
8027.000000;0.086300
8026.000000;0.086339
8025.000000;0.086219
8024.000000;0.086026
8023.000000;0.085900
8022.000000;0.085915
8021.000000;0.086004
8020.000000;0.086027
8019.000000;0.085905
8018.000000;0.085677
8017.000000;0.085456
8016.000000;0.085341
8015.000000;0.085368
8014.000000;0.085490
8013.000000;0.085599
8012.000000;0.085595
8011.000000;0.085437
8010.000000;0.085164
8009.000000;0.084854
8008.000000;0.084607
8007.000000;0.084504
8006.000000;0.084557
8005.000000;0.084676
8004.000000;0.084732
8003.000000;0.084682
8002.000000;0.084619
8001.000000;0.084663
8000.000000;0.084801
7999.000000;0.084876
7998.000000;0.084775
7997.000000;0.084580
7996.000000;0.084481
7995.000000;0.084544
7994.000000;0.084623
7993.000000;0.084552
7992.000000;0.084356
7991.000000;0.084207
7990.000000;0.084201
7989.000000;0.084267
7988.000000;0.084289
7987.000000;0.084257
7986.000000;0.084256
7985.000000;0.084338
7984.000000;0.084443
7983.000000;0.084437
7982.000000;0.084248
7981.000000;0.083960
7980.000000;0.083766
7979.000000;0.083779
7978.000000;0.083917
7977.000000;0.084005
7976.000000;0.083987
7975.000000;0.083975
7974.000000;0.084074
7973.000000;0.084210
7972.000000;0.084183
7971.000000;0.083887
7970.000000;0.083453
7969.000000;0.083158
7968.000000;0.083176
7967.000000;0.083414
7966.000000;0.083617
7965.000000;0.083632
7964.000000;0.083532
7963.000000;0.083482
7962.000000;0.083543
7961.000000;0.083666
7960.000000;0.083793
7959.000000;0.083885
7958.000000;0.083891
7957.000000;0.083785
7956.000000;0.083624
7955.000000;0.083492
7954.000000;0.083396
7953.000000;0.083288
7952.000000;0.083173
7951.000000;0.083105
7950.000000;0.083085
7949.000000;0.083072
7948.000000;0.083084
7947.000000;0.083182
7946.000000;0.083326
7945.000000;0.083358
7944.000000;0.083197
7943.000000;0.082954
7942.000000;0.082792
7941.000000;0.082737
7940.000000;0.082697
7939.000000;0.082593
7938.000000;0.082436
7937.000000;0.082296
7936.000000;0.082253
7935.000000;0.082322
7934.000000;0.082419
7933.000000;0.082435
7932.000000;0.082368
7931.000000;0.082310
7930.000000;0.082304
7929.000000;0.082288
7928.000000;0.082223
7927.000000;0.082175
7926.000000;0.082211
7925.000000;0.082286
7924.000000;0.082313
7923.000000;0.082285
7922.000000;0.082267
7921.000000;0.082306
7920.000000;0.082398
7919.000000;0.082499
7918.000000;0.082532
7917.000000;0.082437
7916.000000;0.082258
7915.000000;0.082125
7914.000000;0.082108
7913.000000;0.082142
7912.000000;0.082142
7911.000000;0.082119
7910.000000;0.082121
7909.000000;0.082134
7908.000000;0.082118
7907.000000;0.082102
7906.000000;0.082141
7905.000000;0.082212
7904.000000;0.082223
7903.000000;0.082118
7902.000000;0.081914
7901.000000;0.081688
7900.000000;0.081540
7899.000000;0.081551
7898.000000;0.081701
7897.000000;0.081875
7896.000000;0.081980
7895.000000;0.082013
7894.000000;0.081980
7893.000000;0.081836
7892.000000;0.081585
7891.000000;0.081350
7890.000000;0.081256
7889.000000;0.081285
7888.000000;0.081344
7887.000000;0.081416
7886.000000;0.081532
7885.000000;0.081642
7884.000000;0.081650
7883.000000;0.081572
7882.000000;0.081522
7881.000000;0.081527
7880.000000;0.081471
7879.000000;0.081270
7878.000000;0.081012
7877.000000;0.080871
7876.000000;0.080921
7875.000000;0.081079
7874.000000;0.081194
7873.000000;0.081179
7872.000000;0.081077
7871.000000;0.080993
7870.000000;0.080968
7869.000000;0.080952
7868.000000;0.080916
7867.000000;0.080914
7866.000000;0.080996
7865.000000;0.081100
7864.000000;0.081125
7863.000000;0.081070
7862.000000;0.081009
7861.000000;0.080972
7860.000000;0.080936
7859.000000;0.080920
7858.000000;0.080975
7857.000000;0.081067
7856.000000;0.081091
7855.000000;0.081014
7854.000000;0.080914
7853.000000;0.080858
7852.000000;0.080818
7851.000000;0.080750
7850.000000;0.080655
7849.000000;0.080560
7848.000000;0.080482
7847.000000;0.080472
7846.000000;0.080591
7845.000000;0.080805
7844.000000;0.080960
7843.000000;0.080928
7842.000000;0.080750
7841.000000;0.080573
7840.000000;0.080497
7839.000000;0.080505
7838.000000;0.080525
7837.000000;0.080501
7836.000000;0.080429
7835.000000;0.080361
7834.000000;0.080362
7833.000000;0.080437
7832.000000;0.080529
7831.000000;0.080588
7830.000000;0.080607
7829.000000;0.080583
7828.000000;0.080486
7827.000000;0.080322
7826.000000;0.080177
7825.000000;0.080148
7824.000000;0.080242
7823.000000;0.080380
7822.000000;0.080486
7821.000000;0.080528
7820.000000;0.080505
7819.000000;0.080419
7818.000000;0.080288
7817.000000;0.080125
7816.000000;0.079926
7815.000000;0.079689
7814.000000;0.079462
7813.000000;0.079328
7812.000000;0.079331
7811.000000;0.079422
7810.000000;0.079507
7809.000000;0.079518
7808.000000;0.079450
7807.000000;0.079341
7806.000000;0.079237
7805.000000;0.079180
7804.000000;0.079183
7803.000000;0.079225
7802.000000;0.079255
7801.000000;0.079228
7800.000000;0.079129
7799.000000;0.078989
7798.000000;0.078884
7797.000000;0.078899
7796.000000;0.079055
7795.000000;0.079275
7794.000000;0.079433
7793.000000;0.079462
7792.000000;0.079383
7791.000000;0.079251
7790.000000;0.079106
7789.000000;0.078997
7788.000000;0.078990
7787.000000;0.079098
7786.000000;0.079243
7785.000000;0.079326
7784.000000;0.079347
7783.000000;0.079371
7782.000000;0.079425
7781.000000;0.079464
7780.000000;0.079454
7779.000000;0.079403
7778.000000;0.079324
7777.000000;0.079223
7776.000000;0.079135
7775.000000;0.079117
7774.000000;0.079163
7773.000000;0.079206
7772.000000;0.079204
7771.000000;0.079186
7770.000000;0.079178
7769.000000;0.079168
7768.000000;0.079149
7767.000000;0.079150
7766.000000;0.079160
7765.000000;0.079117
7764.000000;0.079004
7763.000000;0.078915
7762.000000;0.078939
7761.000000;0.079033
7760.000000;0.079079
7759.000000;0.079022
7758.000000;0.078897
7757.000000;0.078756
7756.000000;0.078633
7755.000000;0.078566
7754.000000;0.078567
7753.000000;0.078591
7752.000000;0.078577
7751.000000;0.078510
7750.000000;0.078427
7749.000000;0.078368
7748.000000;0.078380
7747.000000;0.078492
7746.000000;0.078645
7745.000000;0.078698
7744.000000;0.078569
7743.000000;0.078355
7742.000000;0.078228
7741.000000;0.078240
7740.000000;0.078309
7739.000000;0.078351
7738.000000;0.078354
7737.000000;0.078326
7736.000000;0.078271
7735.000000;0.078223
7734.000000;0.078227
7733.000000;0.078274
7732.000000;0.078314
7731.000000;0.078330
7730.000000;0.078341
7729.000000;0.078338
7728.000000;0.078286
7727.000000;0.078208
7726.000000;0.078179
7725.000000;0.078226
7724.000000;0.078286
7723.000000;0.078296
7722.000000;0.078256
7721.000000;0.078191
7720.000000;0.078107
7719.000000;0.078002
7718.000000;0.077902
7717.000000;0.077827
7716.000000;0.077774
7715.000000;0.077736
7714.000000;0.077703
7713.000000;0.077668
7712.000000;0.077640
7711.000000;0.077662
7710.000000;0.077765
7709.000000;0.077889
7708.000000;0.077936
7707.000000;0.077878
7706.000000;0.077795
7705.000000;0.077768
7704.000000;0.077794
7703.000000;0.077812
7702.000000;0.077759
7701.000000;0.077608
7700.000000;0.077394
7699.000000;0.077218
7698.000000;0.077184
7697.000000;0.077280
7696.000000;0.077378
7695.000000;0.077355
7694.000000;0.077205
7693.000000;0.077024
7692.000000;0.076919
7691.000000;0.076940
7690.000000;0.077043
7689.000000;0.077116
7688.000000;0.077086
7687.000000;0.077003
7686.000000;0.076971
7685.000000;0.076998
7684.000000;0.076998
7683.000000;0.076931
7682.000000;0.076874
7681.000000;0.076908
7680.000000;0.076997
7679.000000;0.077059
7678.000000;0.077081
7677.000000;0.077119
7676.000000;0.077197
7675.000000;0.077275
7674.000000;0.077302
7673.000000;0.077253
7672.000000;0.077139
7671.000000;0.077015
7670.000000;0.076965
7669.000000;0.077032
7668.000000;0.077160
7667.000000;0.077239
7666.000000;0.077214
7665.000000;0.077124
7664.000000;0.077023
7663.000000;0.076912
7662.000000;0.076767
7661.000000;0.076607
7660.000000;0.076512
7659.000000;0.076547
7658.000000;0.076680
7657.000000;0.076791
7656.000000;0.076779
7655.000000;0.076645
7654.000000;0.076474
7653.000000;0.076347
7652.000000;0.076294
7651.000000;0.076307
7650.000000;0.076363
7649.000000;0.076424
7648.000000;0.076456
7647.000000;0.076466
7646.000000;0.076498
7645.000000;0.076581
7644.000000;0.076690
7643.000000;0.076769
7642.000000;0.076775
7641.000000;0.076711
7640.000000;0.076627
7639.000000;0.076586
7638.000000;0.076597
7637.000000;0.076599
7636.000000;0.076522
7635.000000;0.076374
7634.000000;0.076230
7633.000000;0.076157
7632.000000;0.076164
7631.000000;0.076227
7630.000000;0.076307
7629.000000;0.076356
7628.000000;0.076340
7627.000000;0.076272
7626.000000;0.076186
7625.000000;0.076096
7624.000000;0.075994
7623.000000;0.075896
7622.000000;0.075841
7621.000000;0.075835
7620.000000;0.075838
7619.000000;0.075816
7618.000000;0.075775
7617.000000;0.075733
7616.000000;0.075705
7615.000000;0.075710
7614.000000;0.075761
7613.000000;0.075830
7612.000000;0.075855
7611.000000;0.075814
7610.000000;0.075750
7609.000000;0.075726
7608.000000;0.075762
7607.000000;0.075838
7606.000000;0.075910
7605.000000;0.075929
7604.000000;0.075868
7603.000000;0.075769
7602.000000;0.075722
7601.000000;0.075770
7600.000000;0.075862
7599.000000;0.075901
7598.000000;0.075835
7597.000000;0.075685
7596.000000;0.075515
7595.000000;0.075378
7594.000000;0.075283
7593.000000;0.075203
7592.000000;0.075122
7591.000000;0.075065
7590.000000;0.075075
7589.000000;0.075159
7588.000000;0.075287
7587.000000;0.075420
7586.000000;0.075519
7585.000000;0.075541
7584.000000;0.075480
7583.000000;0.075394
7582.000000;0.075349
7581.000000;0.075340
7580.000000;0.075309
7579.000000;0.075238
7578.000000;0.075166
7577.000000;0.075124
7576.000000;0.075100
7575.000000;0.075083
7574.000000;0.075092
7573.000000;0.075132
7572.000000;0.075168
7571.000000;0.075175
7570.000000;0.075164
7569.000000;0.075148
7568.000000;0.075116
7567.000000;0.075059
7566.000000;0.074991
7565.000000;0.074916
7564.000000;0.074834
7563.000000;0.074767
7562.000000;0.074752
7561.000000;0.074766
7560.000000;0.074736
7559.000000;0.074622
7558.000000;0.074483
7557.000000;0.074410
7556.000000;0.074434
7555.000000;0.074531
7554.000000;0.074659
7553.000000;0.074763
7552.000000;0.074787
7551.000000;0.074723
7550.000000;0.074624
7549.000000;0.074549
7548.000000;0.074497
7547.000000;0.074440
7546.000000;0.074370
7545.000000;0.074299
7544.000000;0.074229
7543.000000;0.074167
7542.000000;0.074144
7541.000000;0.074187
7540.000000;0.074280
7539.000000;0.074380
7538.000000;0.074445
7537.000000;0.074450
7536.000000;0.074383
7535.000000;0.074264
7534.000000;0.074143
7533.000000;0.074064
7532.000000;0.074042
7531.000000;0.074076
7530.000000;0.074161
7529.000000;0.074277
7528.000000;0.074378
7527.000000;0.074432
7526.000000;0.074442
7525.000000;0.074420
7524.000000;0.074366
7523.000000;0.074284
7522.000000;0.074210
7521.000000;0.074182
7520.000000;0.074200
7519.000000;0.074216
7518.000000;0.074164
7517.000000;0.074008
7516.000000;0.073794
7515.000000;0.073632
7514.000000;0.073592
7513.000000;0.073632
7512.000000;0.073648
7511.000000;0.073603
7510.000000;0.073556
7509.000000;0.073558
7508.000000;0.073587
7507.000000;0.073596
7506.000000;0.073576
7505.000000;0.073536
7504.000000;0.073488
7503.000000;0.073463
7502.000000;0.073501
7501.000000;0.073592
7500.000000;0.073656
7499.000000;0.073633
7498.000000;0.073551
7497.000000;0.073427
7496.000000;0.073380
7495.000000;0.073344
7494.000000;0.073294
7493.000000;0.073225
7492.000000;0.073162
7491.000000;0.073153
7490.000000;0.073228
7489.000000;0.073339
7488.000000;0.073375
7487.000000;0.073272
7486.000000;0.073071
7485.000000;0.072865
7484.000000;0.072720
7483.000000;0.072663
7482.000000;0.072687
7481.000000;0.072743
7480.000000;0.072765
7479.000000;0.072738
7478.000000;0.072723
7477.000000;0.072769
7476.000000;0.072848
7475.000000;0.072906
7474.000000;0.072929
7473.000000;0.072935
7472.000000;0.072927
7471.000000;0.072904
7470.000000;0.072873
7469.000000;0.072823
7468.000000;0.072711
7467.000000;0.072529
7466.000000;0.072345
7465.000000;0.072257
7464.000000;0.072298
7463.000000;0.072414
7462.000000;0.072520
7461.000000;0.072565
7460.000000;0.072547
7459.000000;0.072497
7458.000000;0.072433
7457.000000;0.072348
7456.000000;0.072231
7455.000000;0.072119
7454.000000;0.072062
7453.000000;0.072057
7452.000000;0.072051
7451.000000;0.072019
7450.000000;0.071992
7449.000000;0.071997
7448.000000;0.072017
7447.000000;0.072025
7446.000000;0.072022
7445.000000;0.072019
7444.000000;0.072019
7443.000000;0.072033
7442.000000;0.072058
7441.000000;0.072044
7440.000000;0.071940
7439.000000;0.071778
7438.000000;0.071662
7437.000000;0.071640
7436.000000;0.071641
7435.000000;0.071587
7434.000000;0.071493
7433.000000;0.071438
7432.000000;0.071461
7431.000000;0.071533
7430.000000;0.071597
7429.000000;0.071623
7428.000000;0.071617
7427.000000;0.071607
7426.000000;0.071600
7425.000000;0.071558
7424.000000;0.071459
7423.000000;0.071376
7422.000000;0.071420
7421.000000;0.071584
7420.000000;0.071733
7419.000000;0.071765
7418.000000;0.071712
7417.000000;0.071651
7416.000000;0.071600
7415.000000;0.071549
7414.000000;0.071496
7413.000000;0.071442
7412.000000;0.071375
7411.000000;0.071288
7410.000000;0.071163
7409.000000;0.070968
7408.000000;0.070725
7407.000000;0.070555
7406.000000;0.070541
7405.000000;0.070592
7404.000000;0.070557
7403.000000;0.070461
7402.000000;0.070470
7401.000000;0.070658
7400.000000;0.070917
7399.000000;0.071081
7398.000000;0.071065
7397.000000;0.070929
7396.000000;0.070848
7395.000000;0.070936
7394.000000;0.071034
7393.000000;0.070831
7392.000000;0.070259
7391.000000;0.069646
7390.000000;0.069356
7389.000000;0.069406
7388.000000;0.069601
7387.000000;0.069864
7386.000000;0.070192
7385.000000;0.070405
7384.000000;0.070342
7383.000000;0.070241
7382.000000;0.070501
7381.000000;0.070980
7380.000000;0.071014
7379.000000;0.070404
7378.000000;0.069880
7377.000000;0.070176
7376.000000;0.071047
7375.000000;0.071617
7374.000000;0.071455
7373.000000;0.070886
7372.000000;0.070416
7371.000000;0.070273
7370.000000;0.070406
7369.000000;0.070570
7368.000000;0.070469
7367.000000;0.070073
7366.000000;0.069712
7365.000000;0.069638
7364.000000;0.069711
7363.000000;0.069746
7362.000000;0.069865
7361.000000;0.070131
7360.000000;0.070167
7359.000000;0.069709
7358.000000;0.069228
7357.000000;0.069350
7356.000000;0.069896
7355.000000;0.070146
7354.000000;0.069893
7353.000000;0.069555
7352.000000;0.069410
7351.000000;0.069396
7350.000000;0.069542
7349.000000;0.069848
7348.000000;0.069907
7347.000000;0.069398
7346.000000;0.068796
7345.000000;0.068795
7344.000000;0.069218
7343.000000;0.069428
7342.000000;0.069613
7341.000000;0.070516
7340.000000;0.071842
7339.000000;0.072203
7338.000000;0.071127
7337.000000;0.069824
7336.000000;0.069460
7335.000000;0.069811
7334.000000;0.070095
7333.000000;0.070062
7332.000000;0.069753
7331.000000;0.069184
7330.000000;0.068798
7329.000000;0.069220
7328.000000;0.070090
7327.000000;0.070155
7326.000000;0.069094
7325.000000;0.068169
7324.000000;0.068357
7323.000000;0.068984
7322.000000;0.068927
7321.000000;0.068321
7320.000000;0.068138
7319.000000;0.068636
7318.000000;0.069254
7317.000000;0.069592
7316.000000;0.069593
7315.000000;0.069186
7314.000000;0.068606
7313.000000;0.068640
7312.000000;0.069584
7311.000000;0.070428
7310.000000;0.070126
7309.000000;0.069197
7308.000000;0.068926
7307.000000;0.069411
7306.000000;0.069562
7305.000000;0.068926
7304.000000;0.068252
7303.000000;0.068099
7302.000000;0.068167
7301.000000;0.068182
7300.000000;0.068343
7299.000000;0.068539
7298.000000;0.068183
7297.000000;0.067387
7296.000000;0.067216
7295.000000;0.068151
7294.000000;0.069186
7293.000000;0.069163
7292.000000;0.068407
7291.000000;0.068133
7290.000000;0.068785
7289.000000;0.069743
7288.000000;0.070276
7287.000000;0.070190
7286.000000;0.069663
7285.000000;0.068991
7284.000000;0.068535
7283.000000;0.068497
7282.000000;0.068703
7281.000000;0.068808
7280.000000;0.068719
7279.000000;0.068598
7278.000000;0.068545
7277.000000;0.068545
7276.000000;0.068625
7275.000000;0.068845
7274.000000;0.069142
7273.000000;0.069345
7272.000000;0.069351
7271.000000;0.069229
7270.000000;0.069158
7269.000000;0.069268
7268.000000;0.069500
7267.000000;0.069607
7266.000000;0.069438
7265.000000;0.069230
7264.000000;0.069410
7263.000000;0.070023
7262.000000;0.070582
7261.000000;0.070638
7260.000000;0.070314
7259.000000;0.070052
7258.000000;0.070004
7257.000000;0.069993
7256.000000;0.069994
7255.000000;0.070242
7254.000000;0.070797
7253.000000;0.071323
7252.000000;0.071411
7251.000000;0.071043
7250.000000;0.070656
7249.000000;0.070686
7248.000000;0.071047
7247.000000;0.071197
7246.000000;0.070926
7245.000000;0.070813
7244.000000;0.071515
7243.000000;0.072720
7242.000000;0.073335
7241.000000;0.072851
7240.000000;0.072015
7239.000000;0.071799
7238.000000;0.072169
7237.000000;0.072291
7236.000000;0.071781
7235.000000;0.071273
7234.000000;0.071619
7233.000000;0.072782
7232.000000;0.073696
7231.000000;0.073348
7230.000000;0.071968
7229.000000;0.070843
7228.000000;0.070897
7227.000000;0.071769
7226.000000;0.072405
7225.000000;0.072210
7224.000000;0.071428
7223.000000;0.070692
7222.000000;0.070439
7221.000000;0.070677
7220.000000;0.071031
7219.000000;0.071063
7218.000000;0.070700
7217.000000;0.070282
7216.000000;0.070133
7215.000000;0.070168
7214.000000;0.070059
7213.000000;0.069746
7212.000000;0.069543
7211.000000;0.069664
7210.000000;0.069924
7209.000000;0.070045
7208.000000;0.070062
7207.000000;0.070230
7206.000000;0.070656
7205.000000;0.071145
7204.000000;0.071356
7203.000000;0.071116
7202.000000;0.070601
7201.000000;0.070187
7200.000000;0.070059
7199.000000;0.070024
7198.000000;0.069806
7197.000000;0.069459
7196.000000;0.069293
7195.000000;0.069372
7194.000000;0.069382
7193.000000;0.069145
7192.000000;0.068935
7191.000000;0.069039
7190.000000;0.069275
7189.000000;0.069299
7188.000000;0.069169
7187.000000;0.069125
7186.000000;0.069027
7185.000000;0.068552
7184.000000;0.067900
7183.000000;0.067699
7182.000000;0.068086
7181.000000;0.068459
7180.000000;0.068354
7179.000000;0.068097
7178.000000;0.068219
7177.000000;0.068662
7176.000000;0.068967
7175.000000;0.068912
7174.000000;0.068611
7173.000000;0.068222
7172.000000;0.067919
7171.000000;0.067991
7170.000000;0.068508
7169.000000;0.069086
7168.000000;0.069324
7167.000000;0.069232
7166.000000;0.068951
7165.000000;0.068378
7164.000000;0.067541
7163.000000;0.066939
7162.000000;0.066989
7161.000000;0.067356
7160.000000;0.067363
7159.000000;0.067004
7158.000000;0.066924
7157.000000;0.067356
7156.000000;0.067753
7155.000000;0.067619
7154.000000;0.067166
7153.000000;0.066896
7152.000000;0.066946
7151.000000;0.067090
7150.000000;0.067104
7149.000000;0.066957
7148.000000;0.066756
7147.000000;0.066665
7146.000000;0.066802
7145.000000;0.067076
7144.000000;0.067181
7143.000000;0.066950
7142.000000;0.066674
7141.000000;0.066770
7140.000000;0.067144
7139.000000;0.067212
7138.000000;0.066722
7137.000000;0.066198
7136.000000;0.066247
7135.000000;0.066730
7134.000000;0.066985
7133.000000;0.066732
7132.000000;0.066338
7131.000000;0.066171
7130.000000;0.066137
7129.000000;0.066024
7128.000000;0.065915
7127.000000;0.065951
7126.000000;0.066003
7125.000000;0.065926
7124.000000;0.065870
7123.000000;0.065957
7122.000000;0.065901
7121.000000;0.065388
7120.000000;0.064726
7119.000000;0.064561
7118.000000;0.064949
7117.000000;0.065206
7116.000000;0.064914
7115.000000;0.064546
7114.000000;0.064727
7113.000000;0.065320
7112.000000;0.065694
7111.000000;0.065593
7110.000000;0.065314
7109.000000;0.065147
7108.000000;0.065105
7107.000000;0.065142
7106.000000;0.065245
7105.000000;0.065290
7104.000000;0.065125
7103.000000;0.064841
7102.000000;0.064710
7101.000000;0.064823
7100.000000;0.064941
7099.000000;0.064770
7098.000000;0.064339
7097.000000;0.063954
7096.000000;0.063808
7095.000000;0.063804
7094.000000;0.063776
7093.000000;0.063757
7092.000000;0.063901
7091.000000;0.064206
7090.000000;0.064447
7089.000000;0.064415
7088.000000;0.064150
7087.000000;0.063882
7086.000000;0.063766
7085.000000;0.063744
7084.000000;0.063676
7083.000000;0.063517
7082.000000;0.063326
7081.000000;0.063161
7080.000000;0.063019
7079.000000;0.062923
7078.000000;0.062973
7077.000000;0.063209
7076.000000;0.063442
7075.000000;0.063413
7074.000000;0.063118
7073.000000;0.062820
7072.000000;0.062712
7071.000000;0.062716
7070.000000;0.062680
7069.000000;0.062624
7068.000000;0.062670
7067.000000;0.062827
7066.000000;0.062970
7065.000000;0.063005
7064.000000;0.062934
7063.000000;0.062768
7062.000000;0.062509
7061.000000;0.062245
7060.000000;0.062094
7059.000000;0.062047
7058.000000;0.061977
7057.000000;0.061834
7056.000000;0.061715
7055.000000;0.061716
7054.000000;0.061805
7053.000000;0.061863
7052.000000;0.061811
7051.000000;0.061678
7050.000000;0.061563
7049.000000;0.061538
7048.000000;0.061581
7047.000000;0.061584
7046.000000;0.061487
7045.000000;0.061365
7044.000000;0.061335
7043.000000;0.061381
7042.000000;0.061373
7041.000000;0.061253
7040.000000;0.061093
7039.000000;0.060960
7038.000000;0.060824
7037.000000;0.060671
7036.000000;0.060565
7035.000000;0.060553
7034.000000;0.060582
7033.000000;0.060577
7032.000000;0.060536
7031.000000;0.060495
7030.000000;0.060454
7029.000000;0.060392
7028.000000;0.060303
7027.000000;0.060181
7026.000000;0.060026
7025.000000;0.059898
7024.000000;0.059878
7023.000000;0.059942
7022.000000;0.059951
7021.000000;0.059828
7020.000000;0.059658
7019.000000;0.059557
7018.000000;0.059509
7017.000000;0.059436
7016.000000;0.059345
7015.000000;0.059304
7014.000000;0.059299
7013.000000;0.059255
7012.000000;0.059160
7011.000000;0.059068
7010.000000;0.059006
7009.000000;0.058953
7008.000000;0.058912
7007.000000;0.058887
7006.000000;0.058838
7005.000000;0.058728
7004.000000;0.058609
7003.000000;0.058562
7002.000000;0.058572
7001.000000;0.058543
7000.000000;0.058434
6999.000000;0.058298
6998.000000;0.058186
6997.000000;0.058090
6996.000000;0.058004
6995.000000;0.057954
6994.000000;0.057930
6993.000000;0.057875
6992.000000;0.057766
6991.000000;0.057658
6990.000000;0.057608
6989.000000;0.057597
6988.000000;0.057576
6987.000000;0.057528
6986.000000;0.057457
6985.000000;0.057362
6984.000000;0.057262
6983.000000;0.057206
6982.000000;0.057208
6981.000000;0.057213
6980.000000;0.057160
6979.000000;0.057064
6978.000000;0.056995
6977.000000;0.056975
6976.000000;0.056937
6975.000000;0.056816
6974.000000;0.056655
6973.000000;0.056559
6972.000000;0.056552
6971.000000;0.056530
6970.000000;0.056394
6969.000000;0.056181
6968.000000;0.056015
6967.000000;0.055954
6966.000000;0.055945
6965.000000;0.055905
6964.000000;0.055813
6963.000000;0.055690
6962.000000;0.055565
6961.000000;0.055476
6960.000000;0.055447
6959.000000;0.055455
6958.000000;0.055457
6957.000000;0.055463
6956.000000;0.055495
6955.000000;0.055511
6954.000000;0.055435
6953.000000;0.055274
6952.000000;0.055116
6951.000000;0.054996
6950.000000;0.054872
6949.000000;0.054745
6948.000000;0.054697
6947.000000;0.054756
6946.000000;0.054808
6945.000000;0.054750
6944.000000;0.054628
6943.000000;0.054538
6942.000000;0.054457
6941.000000;0.054313
6940.000000;0.054155
6939.000000;0.054106
6938.000000;0.054172
6937.000000;0.054216
6936.000000;0.054139
6935.000000;0.053964
6934.000000;0.053765
6933.000000;0.053602
6932.000000;0.053529
6931.000000;0.053558
6930.000000;0.053602
6929.000000;0.053541
6928.000000;0.053362
6927.000000;0.053168
6926.000000;0.053032
6925.000000;0.052941
6924.000000;0.052892
6923.000000;0.052929
6922.000000;0.053032
6921.000000;0.053088
6920.000000;0.053059
6919.000000;0.053041
6918.000000;0.053109
6917.000000;0.053182
6916.000000;0.053138
6915.000000;0.052990
6914.000000;0.052858
6913.000000;0.052790
6912.000000;0.052726
6911.000000;0.052605
6910.000000;0.052444
6909.000000;0.052292
6908.000000;0.052172
6907.000000;0.052084
6906.000000;0.052015
6905.000000;0.051935
6904.000000;0.051830
6903.000000;0.051728
6902.000000;0.051664
6901.000000;0.051637
6900.000000;0.051619
6899.000000;0.051593
6898.000000;0.051559
6897.000000;0.051517
6896.000000;0.051476
6895.000000;0.051448
6894.000000;0.051422
6893.000000;0.051361
6892.000000;0.051241
6891.000000;0.051084
6890.000000;0.050942
6889.000000;0.050866
6888.000000;0.050872
6887.000000;0.050924
6886.000000;0.050954
6885.000000;0.050908
6884.000000;0.050801
6883.000000;0.050689
6882.000000;0.050597
6881.000000;0.050506
6880.000000;0.050404
6879.000000;0.050308
6878.000000;0.050232
6877.000000;0.050152
6876.000000;0.050038
6875.000000;0.049902
6874.000000;0.049792
6873.000000;0.049743
6872.000000;0.049742
6871.000000;0.049746
6870.000000;0.049726
6869.000000;0.049687
6868.000000;0.049641
6867.000000;0.049576
6866.000000;0.049473
6865.000000;0.049344
6864.000000;0.049231
6863.000000;0.049152
6862.000000;0.049089
6861.000000;0.049028
6860.000000;0.048983
6859.000000;0.048958
6858.000000;0.048927
6857.000000;0.048858
6856.000000;0.048760
6855.000000;0.048666
6854.000000;0.048589
6853.000000;0.048514
6852.000000;0.048437
6851.000000;0.048385
6850.000000;0.048383
6849.000000;0.048410
6848.000000;0.048412
6847.000000;0.048351
6846.000000;0.048249
6845.000000;0.048170
6844.000000;0.048148
6843.000000;0.048144
6842.000000;0.048081
6841.000000;0.047947
6840.000000;0.047814
6839.000000;0.047746
6838.000000;0.047730
6837.000000;0.047722
6836.000000;0.047722
6835.000000;0.047758
6834.000000;0.047809
6833.000000;0.047817
6832.000000;0.047757
6831.000000;0.047672
6830.000000;0.047598
6829.000000;0.047522
6828.000000;0.047428
6827.000000;0.047340
6826.000000;0.047277
6825.000000;0.047208
6824.000000;0.047080
6823.000000;0.046895
6822.000000;0.046706
6821.000000;0.046570
6820.000000;0.046513
6819.000000;0.046524
6818.000000;0.046558
6817.000000;0.046556
6816.000000;0.046491
6815.000000;0.046394
6814.000000;0.046311
6813.000000;0.046251
6812.000000;0.046191
6811.000000;0.046132
6810.000000;0.046100
6809.000000;0.046092
6808.000000;0.046069
6807.000000;0.046015
6806.000000;0.045961
6805.000000;0.045938
6804.000000;0.045923
6803.000000;0.045874
6802.000000;0.045793
6801.000000;0.045727
6800.000000;0.045693
6799.000000;0.045659
6798.000000;0.045594
6797.000000;0.045507
6796.000000;0.045422
6795.000000;0.045345
6794.000000;0.045279
6793.000000;0.045237
6792.000000;0.045221
6791.000000;0.045202
6790.000000;0.045159
6789.000000;0.045108
6788.000000;0.045081
6787.000000;0.045061
6786.000000;0.044992
6785.000000;0.044852
6784.000000;0.044691
6783.000000;0.044573
6782.000000;0.044512
6781.000000;0.044470
6780.000000;0.044410
6779.000000;0.044331
6778.000000;0.044258
6777.000000;0.044203
6776.000000;0.044143
6775.000000;0.044050
6774.000000;0.043933
6773.000000;0.043853
6772.000000;0.043847
6771.000000;0.043874
6770.000000;0.043853
6769.000000;0.043761
6768.000000;0.043653
6767.000000;0.043580
6766.000000;0.043538
6765.000000;0.043497
6764.000000;0.043454
6763.000000;0.043415
6762.000000;0.043389
6761.000000;0.043385
6760.000000;0.043411
6759.000000;0.043441
6758.000000;0.043433
6757.000000;0.043381
6756.000000;0.043329
6755.000000;0.043287
6754.000000;0.043212
6753.000000;0.043073
6752.000000;0.042924
6751.000000;0.042831
6750.000000;0.042785
6749.000000;0.042724
6748.000000;0.042619
6747.000000;0.042499
6746.000000;0.042407
6745.000000;0.042363
6744.000000;0.042365
6743.000000;0.042389
6742.000000;0.042389
6741.000000;0.042343
6740.000000;0.042272
6739.000000;0.042215
6738.000000;0.042180
6737.000000;0.042143
6736.000000;0.042082
6735.000000;0.041990
6734.000000;0.041876
6733.000000;0.041767
6732.000000;0.041704
6731.000000;0.041698
6730.000000;0.041712
6729.000000;0.041710
6728.000000;0.041691
6727.000000;0.041663
6726.000000;0.041608
6725.000000;0.041508
6724.000000;0.041389
6723.000000;0.041291
6722.000000;0.041209
6721.000000;0.041120
6720.000000;0.041044
6719.000000;0.041023
6718.000000;0.041057
6717.000000;0.041085
6716.000000;0.041060
6715.000000;0.040994
6714.000000;0.040919
6713.000000;0.040863
6712.000000;0.040826
6711.000000;0.040816
6710.000000;0.040821
6709.000000;0.040797
6708.000000;0.040736
6707.000000;0.040694
6706.000000;0.040702
6705.000000;0.040727
6704.000000;0.040721
6703.000000;0.040747
6702.000000;0.040591
6701.000000;0.040398
6700.000000;0.040233
6699.000000;0.040137
6698.000000;0.040103
6697.000000;0.040097
6696.000000;0.040091
6695.000000;0.040073
6694.000000;0.040029
6693.000000;0.039951
6692.000000;0.039863
6691.000000;0.039796
6690.000000;0.039756
6689.000000;0.039719
6688.000000;0.039667
6687.000000;0.039601
6686.000000;0.039523
6685.000000;0.039440
6684.000000;0.039367
6683.000000;0.039328
6682.000000;0.039322
6681.000000;0.039328
6680.000000;0.039341
6679.000000;0.039382
6678.000000;0.039465
6677.000000;0.039558
6676.000000;0.039596
6675.000000;0.039535
6674.000000;0.039391
6673.000000;0.039229
6672.000000;0.039118
6671.000000;0.039067
6670.000000;0.039028
6669.000000;0.038952
6668.000000;0.038843
6667.000000;0.038744
6666.000000;0.038677
6665.000000;0.038630
6664.000000;0.038582
6663.000000;0.038532
6662.000000;0.038490
6661.000000;0.038461
6660.000000;0.038437
6659.000000;0.038404
6658.000000;0.038344
6657.000000;0.038255
6656.000000;0.038153
6655.000000;0.038059
6654.000000;0.037994
6653.000000;0.037970
6652.000000;0.037978
6651.000000;0.037978
6650.000000;0.037935
6649.000000;0.037873
6648.000000;0.037853
6647.000000;0.037894
6646.000000;0.037927
6645.000000;0.037878
6644.000000;0.037755
6643.000000;0.037628
6642.000000;0.037552
6641.000000;0.037529
6640.000000;0.037538
6639.000000;0.037564
6638.000000;0.037591
6637.000000;0.037601
6636.000000;0.037581
6635.000000;0.037522
6634.000000;0.037424
6633.000000;0.037314
6632.000000;0.037244
6631.000000;0.037229
6630.000000;0.037226
6629.000000;0.037184
6628.000000;0.037101
6627.000000;0.037019
6626.000000;0.036971
6625.000000;0.036967
6624.000000;0.037013
6623.000000;0.037097
6622.000000;0.037168
6621.000000;0.037167
6620.000000;0.037091
6619.000000;0.036983
6618.000000;0.036875
6617.000000;0.036766
6616.000000;0.036655
6615.000000;0.036567
6614.000000;0.036522
6613.000000;0.036513
6612.000000;0.036515
6611.000000;0.036503
6610.000000;0.036456
6609.000000;0.036370
6608.000000;0.036271
6607.000000;0.036190
6606.000000;0.036130
6605.000000;0.036068
6604.000000;0.035985
6603.000000;0.035892
6602.000000;0.035816
6601.000000;0.035784
6600.000000;0.035795
6599.000000;0.035822
6598.000000;0.035824
6597.000000;0.035798
6596.000000;0.035781
6595.000000;0.035808
6594.000000;0.035863
6593.000000;0.035901
6592.000000;0.035895
6591.000000;0.035853
6590.000000;0.035794
6589.000000;0.035738
6588.000000;0.035709
6587.000000;0.035711
6586.000000;0.035705
6585.000000;0.035658
6584.000000;0.035575
6583.000000;0.035497
6582.000000;0.035436
6581.000000;0.035371
6580.000000;0.035288
6579.000000;0.035197
6578.000000;0.035108
6577.000000;0.035024
6576.000000;0.034947
6575.000000;0.034878
6574.000000;0.034811
6573.000000;0.034751
6572.000000;0.034726
6571.000000;0.034757
6570.000000;0.034814
6569.000000;0.034841
6568.000000;0.034819
6567.000000;0.034778
6566.000000;0.034749
6565.000000;0.034733
6564.000000;0.034718
6563.000000;0.034694
6562.000000;0.034655
6561.000000;0.034595
6560.000000;0.034522
6559.000000;0.034459
6558.000000;0.034425
6557.000000;0.034419
6556.000000;0.034427
6555.000000;0.034420
6554.000000;0.034372
6553.000000;0.034289
6552.000000;0.034220
6551.000000;0.034211
6550.000000;0.034243
6549.000000;0.034255
6548.000000;0.034211
6547.000000;0.034136
6546.000000;0.034075
6545.000000;0.034047
6544.000000;0.034045
6543.000000;0.034050
6542.000000;0.034037
6541.000000;0.033990
6540.000000;0.033922
6539.000000;0.033862
6538.000000;0.033827
6537.000000;0.033811
6536.000000;0.033799
6535.000000;0.033779
6534.000000;0.033744
6533.000000;0.033694
6532.000000;0.033645
6531.000000;0.033615
6530.000000;0.033597
6529.000000;0.033558
6528.000000;0.033476
6527.000000;0.033370
6526.000000;0.033279
6525.000000;0.033232
6524.000000;0.033218
6523.000000;0.033205
6522.000000;0.033173
6521.000000;0.033131
6520.000000;0.033102
6519.000000;0.033090
6518.000000;0.033073
6517.000000;0.033039
6516.000000;0.032990
6515.000000;0.032928
6514.000000;0.032845
6513.000000;0.032757
6512.000000;0.032714
6511.000000;0.032739
6510.000000;0.032796
6509.000000;0.032825
6508.000000;0.032814
6507.000000;0.032791
6506.000000;0.032773
6505.000000;0.032752
6504.000000;0.032719
6503.000000;0.032676
6502.000000;0.032619
6501.000000;0.032552
6500.000000;0.032500
6499.000000;0.032492
6498.000000;0.032515
6497.000000;0.032524
6496.000000;0.032493
6495.000000;0.032443
6494.000000;0.032403
6493.000000;0.032383
6492.000000;0.032374
6491.000000;0.032362
6490.000000;0.032323
6489.000000;0.032241
6488.000000;0.032134
6487.000000;0.032046
6486.000000;0.032006
6485.000000;0.032001
6484.000000;0.031991
6483.000000;0.031959
6482.000000;0.031916
6481.000000;0.031894
6480.000000;0.031909
6479.000000;0.031948
6478.000000;0.031978
6477.000000;0.031974
6476.000000;0.031940
6475.000000;0.031892
6474.000000;0.031836
6473.000000;0.031774
6472.000000;0.031710
6471.000000;0.031648
6470.000000;0.031589
6469.000000;0.031537
6468.000000;0.031520
6467.000000;0.031555
6466.000000;0.031629
6465.000000;0.031700
6464.000000;0.031741
6463.000000;0.031741
6462.000000;0.031699
6461.000000;0.031623
6460.000000;0.031542
6459.000000;0.031484
6458.000000;0.031450
6457.000000;0.031424
6456.000000;0.031398
6455.000000;0.031378
6454.000000;0.031368
6453.000000;0.031358
6452.000000;0.031343
6451.000000;0.031329
6450.000000;0.031327
6449.000000;0.031328
6448.000000;0.031308
6447.000000;0.031250
6446.000000;0.031162
6445.000000;0.031082
6444.000000;0.031039
6443.000000;0.031018
6442.000000;0.030983
6441.000000;0.030927
6440.000000;0.030878
6439.000000;0.030860
6438.000000;0.030861
6437.000000;0.030858
6436.000000;0.030848
6435.000000;0.030840
6434.000000;0.030831
6433.000000;0.030818
6432.000000;0.030807
6431.000000;0.030801
6430.000000;0.030792
6429.000000;0.030773
6428.000000;0.030756
6427.000000;0.030757
6426.000000;0.030767
6425.000000;0.030769
6424.000000;0.030751
6423.000000;0.030714
6422.000000;0.030664
6421.000000;0.030625
6420.000000;0.030621
6419.000000;0.030644
6418.000000;0.030656
6417.000000;0.030637
6416.000000;0.030606
6415.000000;0.030583
6414.000000;0.030562
6413.000000;0.030526
6412.000000;0.030485
6411.000000;0.030447
6410.000000;0.030403
6409.000000;0.030345
6408.000000;0.030299
6407.000000;0.030291
6406.000000;0.030309
6405.000000;0.030323
6404.000000;0.030330
6403.000000;0.030343
6402.000000;0.030353
6401.000000;0.030337
6400.000000;0.030295
6399.000000;0.030244
6398.000000;0.030188
6397.000000;0.030125
6396.000000;0.030066
6395.000000;0.030032
6394.000000;0.030027
6393.000000;0.030044
6392.000000;0.030082
6391.000000;0.030139
6390.000000;0.030187
6389.000000;0.030194
6388.000000;0.030161
6387.000000;0.030120
6386.000000;0.030090
6385.000000;0.030066
6384.000000;0.030037
6383.000000;0.030003
6382.000000;0.029958
6381.000000;0.029899
6380.000000;0.029836
6379.000000;0.029790
6378.000000;0.029776
6377.000000;0.029797
6376.000000;0.029839
6375.000000;0.029868
6374.000000;0.029846
6373.000000;0.029786
6372.000000;0.029747
6371.000000;0.029762
6370.000000;0.029785
6369.000000;0.029753
6368.000000;0.029668
6367.000000;0.029590
6366.000000;0.029556
6365.000000;0.029550
6364.000000;0.029548
6363.000000;0.029539
6362.000000;0.029515
6361.000000;0.029468
6360.000000;0.029404
6359.000000;0.029340
6358.000000;0.029285
6357.000000;0.029238
6356.000000;0.029208
6355.000000;0.029206
6354.000000;0.029222
6353.000000;0.029237
6352.000000;0.029253
6351.000000;0.029289
6350.000000;0.029337
6349.000000;0.029367
6348.000000;0.029366
6347.000000;0.029343
6346.000000;0.029311
6345.000000;0.029270
6344.000000;0.029231
6343.000000;0.029213
6342.000000;0.029220
6341.000000;0.029239
6340.000000;0.029256
6339.000000;0.029276
6338.000000;0.029291
6337.000000;0.029288
6336.000000;0.029258
6335.000000;0.029211
6334.000000;0.029164
6333.000000;0.029123
6332.000000;0.029082
6331.000000;0.029027
6330.000000;0.028947
6329.000000;0.028855
6328.000000;0.028791
6327.000000;0.028788
6326.000000;0.028836
6325.000000;0.028901
6324.000000;0.028957
6323.000000;0.028994
6322.000000;0.028997
6321.000000;0.028955
6320.000000;0.028875
6319.000000;0.028778
6318.000000;0.028689
6317.000000;0.028627
6316.000000;0.028605
6315.000000;0.028614
6314.000000;0.028623
6313.000000;0.028620
6312.000000;0.028628
6311.000000;0.028653
6310.000000;0.028659
6309.000000;0.028608
6308.000000;0.028520
6307.000000;0.028452
6306.000000;0.028426
6305.000000;0.028419
6304.000000;0.028411
6303.000000;0.028406
6302.000000;0.028418
6301.000000;0.028446
6300.000000;0.028486
6299.000000;0.028527
6298.000000;0.028532
6297.000000;0.028474
6296.000000;0.028371
6295.000000;0.028284
6294.000000;0.028261
6293.000000;0.028296
6292.000000;0.028348
6291.000000;0.028376
6290.000000;0.028366
6289.000000;0.028323
6288.000000;0.028262
6287.000000;0.028193
6286.000000;0.028125
6285.000000;0.028074
6284.000000;0.028064
6283.000000;0.028093
6282.000000;0.028127
6281.000000;0.028140
6280.000000;0.028139
6279.000000;0.028141
6278.000000;0.028143
6277.000000;0.028137
6276.000000;0.028124
6275.000000;0.028111
6274.000000;0.028087
6273.000000;0.028044
6272.000000;0.027999
6271.000000;0.027973
6270.000000;0.027963
6269.000000;0.027957
6268.000000;0.027948
6267.000000;0.027930
6266.000000;0.027883
6265.000000;0.027808
6264.000000;0.027754
6263.000000;0.027767
6262.000000;0.027836
6261.000000;0.027904
6260.000000;0.027928
6259.000000;0.027907
6258.000000;0.027858
6257.000000;0.027803
6256.000000;0.027760
6255.000000;0.027731
6254.000000;0.027700
6253.000000;0.027664
6252.000000;0.027654
6251.000000;0.027686
6250.000000;0.027727
6249.000000;0.027740
6248.000000;0.027734
6247.000000;0.027743
6246.000000;0.027766
6245.000000;0.027776
6244.000000;0.027766
6243.000000;0.027750
6242.000000;0.027728
6241.000000;0.027690
6240.000000;0.027653
6239.000000;0.027641
6238.000000;0.027643
6237.000000;0.027623
6236.000000;0.027582
6235.000000;0.027554
6234.000000;0.027552
6233.000000;0.027542
6232.000000;0.027492
6231.000000;0.027416
6230.000000;0.027348
6229.000000;0.027313
6228.000000;0.027323
6227.000000;0.027376
6226.000000;0.027447
6225.000000;0.027495
6224.000000;0.027499
6223.000000;0.027459
6222.000000;0.027391
6221.000000;0.027316
6220.000000;0.027261
6219.000000;0.027232
6218.000000;0.027197
6217.000000;0.027128
6216.000000;0.027050
6215.000000;0.027017
6214.000000;0.027044
6213.000000;0.027098
6212.000000;0.027137
6211.000000;0.027144
6210.000000;0.027123
6209.000000;0.027093
6208.000000;0.027088
6207.000000;0.027118
6206.000000;0.027146
6205.000000;0.027131
6204.000000;0.027083
6203.000000;0.027043
6202.000000;0.027019
6201.000000;0.026979
6200.000000;0.026912
6199.000000;0.026843
6198.000000;0.026794
6197.000000;0.026763
6196.000000;0.026744
6195.000000;0.026747
6194.000000;0.026764
6193.000000;0.026772
6192.000000;0.026763
6191.000000;0.026757
6190.000000;0.026765
6189.000000;0.026769
6188.000000;0.026748
6187.000000;0.026701
6186.000000;0.026643
6185.000000;0.026596
6184.000000;0.026583
6183.000000;0.026613
6182.000000;0.026654
6181.000000;0.026657
6180.000000;0.026604
6179.000000;0.026525
6178.000000;0.026462
6177.000000;0.026431
6176.000000;0.026429
6175.000000;0.026435
6174.000000;0.026418
6173.000000;0.026357
6172.000000;0.026269
6171.000000;0.026201
6170.000000;0.026194
6169.000000;0.026246
6168.000000;0.026328
6167.000000;0.026395
6166.000000;0.026406
6165.000000;0.026353
6164.000000;0.026276
6163.000000;0.026237
6162.000000;0.026257
6161.000000;0.026310
6160.000000;0.026351
6159.000000;0.026359
6158.000000;0.026335
6157.000000;0.026297
6156.000000;0.026268
6155.000000;0.026254
6154.000000;0.026229
6153.000000;0.026173
6152.000000;0.026094
6151.000000;0.026025
6150.000000;0.025978
6149.000000;0.025944
6148.000000;0.025916
6147.000000;0.025894
6146.000000;0.025873
6145.000000;0.025856
6144.000000;0.025857
6143.000000;0.025885
6142.000000;0.025923
6141.000000;0.025945
6140.000000;0.025945
6139.000000;0.025930
6138.000000;0.025894
6137.000000;0.025825
6136.000000;0.025739
6135.000000;0.025676
6134.000000;0.025656
6133.000000;0.025670
6132.000000;0.025699
6131.000000;0.025723
6130.000000;0.025714
6129.000000;0.025651
6128.000000;0.025559
6127.000000;0.025480
6126.000000;0.025430
6125.000000;0.025387
6124.000000;0.025334
6123.000000;0.025277
6122.000000;0.025225
6121.000000;0.025173
6120.000000;0.025134
6119.000000;0.025135
6118.000000;0.025181
6117.000000;0.025240
6116.000000;0.025271
6115.000000;0.025257
6114.000000;0.025211
6113.000000;0.025152
6112.000000;0.025099
6111.000000;0.025056
6110.000000;0.025018
6109.000000;0.024986
6108.000000;0.024977
6107.000000;0.024996
6106.000000;0.025023
6105.000000;0.025025
6104.000000;0.024998
6103.000000;0.024964
6102.000000;0.024941
6101.000000;0.024937
6100.000000;0.024962
6099.000000;0.025023
6098.000000;0.025096
6097.000000;0.025130
6096.000000;0.025089
6095.000000;0.024986
6094.000000;0.024862
6093.000000;0.024758
6092.000000;0.024695
6091.000000;0.024661
6090.000000;0.024628
6089.000000;0.024582
6088.000000;0.024544
6087.000000;0.024527
6086.000000;0.024516
6085.000000;0.024480
6084.000000;0.024420
6083.000000;0.024361
6082.000000;0.024324
6081.000000;0.024316
6080.000000;0.024332
6079.000000;0.024357
6078.000000;0.024361
6077.000000;0.024322
6076.000000;0.024255
6075.000000;0.024188
6074.000000;0.024134
6073.000000;0.024099
6072.000000;0.024093
6071.000000;0.024114
6070.000000;0.024122
6069.000000;0.024077
6068.000000;0.023994
6067.000000;0.023936
6066.000000;0.023942
6065.000000;0.023987
6064.000000;0.024021
6063.000000;0.024016
6062.000000;0.023982
6061.000000;0.023959
6060.000000;0.023975
6059.000000;0.024011
6058.000000;0.024012
6057.000000;0.023946
6056.000000;0.023851
6055.000000;0.023782
6054.000000;0.023745
6053.000000;0.023698
6052.000000;0.023615
6051.000000;0.023516
6050.000000;0.023435
6049.000000;0.023387
6048.000000;0.023369
6047.000000;0.023367
6046.000000;0.023358
6045.000000;0.023330
6044.000000;0.023296
6043.000000;0.023277
6042.000000;0.023272
6041.000000;0.023268
6040.000000;0.023263
6039.000000;0.023261
6038.000000;0.023241
6037.000000;0.023175
6036.000000;0.023064
6035.000000;0.022946
6034.000000;0.022864
6033.000000;0.022840
6032.000000;0.022870
6031.000000;0.022920
6030.000000;0.022946
6029.000000;0.022934
6028.000000;0.022915
6027.000000;0.022907
6026.000000;0.022881
6025.000000;0.022808
6024.000000;0.022712
6023.000000;0.022649
6022.000000;0.022630
6021.000000;0.022619
6020.000000;0.022599
6019.000000;0.022584
6018.000000;0.022581
6017.000000;0.022575
6016.000000;0.022558
6015.000000;0.022534
6014.000000;0.022500
6013.000000;0.022444
6012.000000;0.022377
6011.000000;0.022322
6010.000000;0.022280
6009.000000;0.022234
6008.000000;0.022183
6007.000000;0.022144
6006.000000;0.022123
6005.000000;0.022112
6004.000000;0.022116
6003.000000;0.022140
6002.000000;0.022159
6001.000000;0.022131
6000.000000;0.022047
5999.000000;0.021942
5998.000000;0.021841
5997.000000;0.021744
5996.000000;0.021653
5995.000000;0.021592
5994.000000;0.021568
5993.000000;0.021559
5992.000000;0.021546
5991.000000;0.021525
5990.000000;0.021496
5989.000000;0.021456
5988.000000;0.021411
5987.000000;0.021386
5986.000000;0.021388
5985.000000;0.021403
5984.000000;0.021411
5983.000000;0.021407
5982.000000;0.021387
5981.000000;0.021346
5980.000000;0.021293
5979.000000;0.021244
5978.000000;0.021200
5977.000000;0.021146
5976.000000;0.021082
5975.000000;0.021032
5974.000000;0.021006
5973.000000;0.020982
5972.000000;0.020933
5971.000000;0.020850
5970.000000;0.020743
5969.000000;0.020631
5968.000000;0.020537
5967.000000;0.020478
5966.000000;0.020448
5965.000000;0.020421
5964.000000;0.020383
5963.000000;0.020337
5962.000000;0.020291
5961.000000;0.020241
5960.000000;0.020191
5959.000000;0.020151
5958.000000;0.020131
5957.000000;0.020135
5956.000000;0.020163
5955.000000;0.020198
5954.000000;0.020214
5953.000000;0.020188
5952.000000;0.020129
5951.000000;0.020056
5950.000000;0.019983
5949.000000;0.019913
5948.000000;0.019847
5947.000000;0.019781
5946.000000;0.019703
5945.000000;0.019619
5944.000000;0.019565
5943.000000;0.019561
5942.000000;0.019584
5941.000000;0.019595
5940.000000;0.019583
5939.000000;0.019555
5938.000000;0.019510
5937.000000;0.019440
5936.000000;0.019360
5935.000000;0.019291
5934.000000;0.019230
5933.000000;0.019166
5932.000000;0.019106
5931.000000;0.019064
5930.000000;0.019032
5929.000000;0.018986
5928.000000;0.018931
5927.000000;0.018894
5926.000000;0.018876
5925.000000;0.018846
5924.000000;0.018785
5923.000000;0.018709
5922.000000;0.018648
5921.000000;0.018616
5920.000000;0.018611
5919.000000;0.018616
5918.000000;0.018601
5917.000000;0.018547
5916.000000;0.018467
5915.000000;0.018388
5914.000000;0.018317
5913.000000;0.018249
5912.000000;0.018193
5911.000000;0.018166
5910.000000;0.018150
5909.000000;0.018107
5908.000000;0.018020
5907.000000;0.017920
5906.000000;0.017844
5905.000000;0.017806
5904.000000;0.017786
5903.000000;0.017750
5902.000000;0.017670
5901.000000;0.017556
5900.000000;0.017451
5899.000000;0.017385
5898.000000;0.017333
5897.000000;0.017249
5896.000000;0.017126
5895.000000;0.016995
5894.000000;0.016895
5893.000000;0.016846
5892.000000;0.016852
5891.000000;0.016890
5890.000000;0.016916
5889.000000;0.016896
5888.000000;0.016841
5887.000000;0.016783
5886.000000;0.016740
5885.000000;0.016703
5884.000000;0.016670
5883.000000;0.016635
5882.000000;0.016583
5881.000000;0.016505
5880.000000;0.016425
5879.000000;0.016375
5878.000000;0.016351
5877.000000;0.016323
5876.000000;0.016275
5875.000000;0.016217
5874.000000;0.016149
5873.000000;0.016072
5872.000000;0.015995
5871.000000;0.015932
5870.000000;0.015869
5869.000000;0.015783
5868.000000;0.015679
5867.000000;0.015593
5866.000000;0.015538
5865.000000;0.015491
5864.000000;0.015428
5863.000000;0.015346
5862.000000;0.015268
5861.000000;0.015226
5860.000000;0.015240
5859.000000;0.015284
5858.000000;0.015306
5857.000000;0.015275
5856.000000;0.015207
5855.000000;0.015121
5854.000000;0.015009
5853.000000;0.014872
5852.000000;0.014750
5851.000000;0.014690
5850.000000;0.014681
5849.000000;0.014674
5848.000000;0.014645
5847.000000;0.014604
5846.000000;0.014562
5845.000000;0.014517
5844.000000;0.014469
5843.000000;0.014411
5842.000000;0.014315
5841.000000;0.014162
5840.000000;0.013986
5839.000000;0.013844
5838.000000;0.013753
5837.000000;0.013684
5836.000000;0.013612
5835.000000;0.013534
5834.000000;0.013443
5833.000000;0.013335
5832.000000;0.013239
5831.000000;0.013185
5830.000000;0.013167
5829.000000;0.013144
5828.000000;0.013090
5827.000000;0.013007
5826.000000;0.012900
5825.000000;0.012781
5824.000000;0.012681
5823.000000;0.012630
5822.000000;0.012616
5821.000000;0.012595
5820.000000;0.012541
5819.000000;0.012455
5818.000000;0.012346
5817.000000;0.012230
5816.000000;0.012148
5815.000000;0.012135
5814.000000;0.012175
5813.000000;0.012209
5812.000000;0.012199
5811.000000;0.012146
5810.000000;0.012067
5809.000000;0.011978
5808.000000;0.011899
5807.000000;0.011844
5806.000000;0.011791
5805.000000;0.011702
5804.000000;0.011571
5803.000000;0.011425
5802.000000;0.011290
5801.000000;0.011178
5800.000000;0.011096
5799.000000;0.011039
5798.000000;0.010984
5797.000000;0.010918
5796.000000;0.010854
5795.000000;0.010805
5794.000000;0.010750
5793.000000;0.010660
5792.000000;0.010547
5791.000000;0.010444
5790.000000;0.010361
5789.000000;0.010284
5788.000000;0.010214
5787.000000;0.010152
5786.000000;0.010076
5785.000000;0.009961
5784.000000;0.009833
5783.000000;0.009744
5782.000000;0.009698
5781.000000;0.009649
5780.000000;0.009563
5779.000000;0.009453
5778.000000;0.009344
5777.000000;0.009245
5776.000000;0.009157
5775.000000;0.009073
5774.000000;0.008978
5773.000000;0.008865
5772.000000;0.008757
5771.000000;0.008684
5770.000000;0.008629
5769.000000;0.008557
5768.000000;0.008465
5767.000000;0.008377
5766.000000;0.008295
5765.000000;0.008188
5764.000000;0.008042
5763.000000;0.007880
5762.000000;0.007730
5761.000000;0.007603
5760.000000;0.007503
5759.000000;0.007423
5758.000000;0.007344
5757.000000;0.007259
5756.000000;0.007189
5755.000000;0.007147
5754.000000;0.007100
5753.000000;0.007002
5752.000000;0.006859
5751.000000;0.006721
5750.000000;0.006617
5749.000000;0.006533
5748.000000;0.006463
5747.000000;0.006414
5746.000000;0.006380
5745.000000;0.006337
5744.000000;0.006275
5743.000000;0.006204
5742.000000;0.006127
5741.000000;0.006031
5740.000000;0.005907
5739.000000;0.005761
5738.000000;0.005597
5737.000000;0.005431
5736.000000;0.005296
5735.000000;0.005207
5734.000000;0.005135
5733.000000;0.005041
5732.000000;0.004935
5731.000000;0.004843
5730.000000;0.004753
5729.000000;0.004636
5728.000000;0.004504
5727.000000;0.004392
5726.000000;0.004298
5725.000000;0.004181
5724.000000;0.004034
5723.000000;0.003892
5722.000000;0.003778
5721.000000;0.003677
5720.000000;0.003580
5719.000000;0.003502
5718.000000;0.003456
5717.000000;0.003430
5716.000000;0.003403
5715.000000;0.003354
5714.000000;0.003258
5713.000000;0.003109
5712.000000;0.002935
5711.000000;0.002782
5710.000000;0.002665
5709.000000;0.002571
5708.000000;0.002494
5707.000000;0.002431
5706.000000;0.002360
5705.000000;0.002251
5704.000000;0.002105
5703.000000;0.001950
5702.000000;0.001803
5701.000000;0.001675
5700.000000;0.001581
5699.000000;0.001521
5698.000000;0.001421
5697.000000;0.001303
5696.000000;0.001160
5695.000000;0.001027
5694.000000;0.000898
5693.000000;0.000746
5692.000000;0.000585
5691.000000;0.000454
5690.000000;0.000356
5689.000000;0.000262
5688.000000;0.000164
5687.000000;0.000081
5686.000000;0.000017
5685.000000;-0.000057
5684.000000;-0.000153
5683.000000;-0.000265
5682.000000;-0.000396
5681.000000;-0.000551
5680.000000;-0.000714
5679.000000;-0.000866
5678.000000;-0.001019
5677.000000;-0.001191
5676.000000;-0.001357
5675.000000;-0.001469
5674.000000;-0.001524
5673.000000;-0.001563
5672.000000;-0.001619
5671.000000;-0.001696
5670.000000;-0.001799
5669.000000;-0.001936
5668.000000;-0.002090
5667.000000;-0.002234
5666.000000;-0.002370
5665.000000;-0.002513
5664.000000;-0.002656
5663.000000;-0.002779
5662.000000;-0.002898
5661.000000;-0.003037
5660.000000;-0.003184
5659.000000;-0.003307
5658.000000;-0.003409
5657.000000;-0.003516
5656.000000;-0.003627
5655.000000;-0.003715
5654.000000;-0.003785
5653.000000;-0.003873
5652.000000;-0.003986
5651.000000;-0.004100
5650.000000;-0.004203
5649.000000;-0.004303
5648.000000;-0.004398
5647.000000;-0.004474
5646.000000;-0.004553
5645.000000;-0.004669
5644.000000;-0.004820
5643.000000;-0.004961
5642.000000;-0.005070
5641.000000;-0.005157
5640.000000;-0.005235
5639.000000;-0.005316
5638.000000;-0.005428
5637.000000;-0.005587
5636.000000;-0.005763
5635.000000;-0.005910
5634.000000;-0.006033
5633.000000;-0.006175
5632.000000;-0.006350
5631.000000;-0.006529
5630.000000;-0.006698
5629.000000;-0.006861
5628.000000;-0.007006
5627.000000;-0.007106
5626.000000;-0.007168
5625.000000;-0.007232
5624.000000;-0.007319
5623.000000;-0.007418
5622.000000;-0.007526
5621.000000;-0.007652
5620.000000;-0.007786
5619.000000;-0.007912
5618.000000;-0.008039
5617.000000;-0.008190
5616.000000;-0.008363
5615.000000;-0.008534
5614.000000;-0.008705
5613.000000;-0.008876
5612.000000;-0.009011
5611.000000;-0.009070
5610.000000;-0.009083
5609.000000;-0.009133
5608.000000;-0.009267
5607.000000;-0.009460
5606.000000;-0.009655
5605.000000;-0.009806
5604.000000;-0.009887
5603.000000;-0.009918
5602.000000;-0.009968
5601.000000;-0.010097
5600.000000;-0.010284
5599.000000;-0.010474
5598.000000;-0.010644
5597.000000;-0.010800
5596.000000;-0.010932
5595.000000;-0.011023
5594.000000;-0.011089
5593.000000;-0.011162
5592.000000;-0.011236
5591.000000;-0.011299
5590.000000;-0.011391
5589.000000;-0.011561
5588.000000;-0.011786
5587.000000;-0.011997
5586.000000;-0.012162
5585.000000;-0.012289
5584.000000;-0.012374
5583.000000;-0.012418
5582.000000;-0.012470
5581.000000;-0.012583
5580.000000;-0.012735
5579.000000;-0.012870
5578.000000;-0.012991
5577.000000;-0.013142
5576.000000;-0.013315
5575.000000;-0.013464
5574.000000;-0.013591
5573.000000;-0.013748
5572.000000;-0.013939
5571.000000;-0.014111
5570.000000;-0.014255
5569.000000;-0.014406
5568.000000;-0.014559
5567.000000;-0.014667
5566.000000;-0.014738
5565.000000;-0.014840
5564.000000;-0.014993
5563.000000;-0.015148
5562.000000;-0.015278
5561.000000;-0.015414
5560.000000;-0.015575
5559.000000;-0.015732
5558.000000;-0.015875
5557.000000;-0.016038
5556.000000;-0.016230
5555.000000;-0.016411
5554.000000;-0.016555
5553.000000;-0.016684
5552.000000;-0.016819
5551.000000;-0.016948
5550.000000;-0.017065
5549.000000;-0.017192
5548.000000;-0.017332
5547.000000;-0.017470
5546.000000;-0.017614
5545.000000;-0.017782
5544.000000;-0.017944
5543.000000;-0.018038
5542.000000;-0.018068
5541.000000;-0.018108
5540.000000;-0.018195
5539.000000;-0.018297
5538.000000;-0.018402
5537.000000;-0.018569
5536.000000;-0.018823
5535.000000;-0.019089
5534.000000;-0.019278
5533.000000;-0.019394
5532.000000;-0.019505
5531.000000;-0.019643
5530.000000;-0.019788
5529.000000;-0.019909
5528.000000;-0.019994
5527.000000;-0.020075
5526.000000;-0.020222
5525.000000;-0.020461
5524.000000;-0.020727
5523.000000;-0.020924
5522.000000;-0.021041
5521.000000;-0.021156
5520.000000;-0.021303
5519.000000;-0.021441
5518.000000;-0.021554
5517.000000;-0.021701
5516.000000;-0.021917
5515.000000;-0.022143
5514.000000;-0.022294
5513.000000;-0.022380
5512.000000;-0.022495
5511.000000;-0.022686
5510.000000;-0.022902
5509.000000;-0.023078
5508.000000;-0.023219
5507.000000;-0.023386
5506.000000;-0.023590
5505.000000;-0.023741
5504.000000;-0.023798
5503.000000;-0.023880
5502.000000;-0.024122
5501.000000;-0.024482
5500.000000;-0.024735
5499.000000;-0.024761
5498.000000;-0.024750
5497.000000;-0.024920
5496.000000;-0.025168
5495.000000;-0.025233
5494.000000;-0.025113
5493.000000;-0.025116
5492.000000;-0.025409
5491.000000;-0.025750
5490.000000;-0.025843
5489.000000;-0.025768
5488.000000;-0.025833
5487.000000;-0.026143
5486.000000;-0.026519
5485.000000;-0.026767
5484.000000;-0.026909
5483.000000;-0.027060
5482.000000;-0.027179
5481.000000;-0.027212
5480.000000;-0.027292
5479.000000;-0.027563
5478.000000;-0.027912
5477.000000;-0.028055
5476.000000;-0.027930
5475.000000;-0.027877
5474.000000;-0.028168
5473.000000;-0.028579
5472.000000;-0.028741
5471.000000;-0.028688
5470.000000;-0.028755
5469.000000;-0.029085
5468.000000;-0.029443
5467.000000;-0.029599
5466.000000;-0.029675
5465.000000;-0.029866
5464.000000;-0.030102
5463.000000;-0.030224
5462.000000;-0.030236
5461.000000;-0.030281
5460.000000;-0.030466
5459.000000;-0.030761
5458.000000;-0.031055
5457.000000;-0.031253
5456.000000;-0.031329
5455.000000;-0.031405
5454.000000;-0.031670
5453.000000;-0.032043
5452.000000;-0.032199
5451.000000;-0.032050
5450.000000;-0.031932
5449.000000;-0.032141
5448.000000;-0.032449
5447.000000;-0.032430
5446.000000;-0.032228
5445.000000;-0.032386
5444.000000;-0.032969
5443.000000;-0.033455
5442.000000;-0.033477
5441.000000;-0.033271
5440.000000;-0.033349
5439.000000;-0.033813
5438.000000;-0.034260
5437.000000;-0.034356
5436.000000;-0.034152
5435.000000;-0.033975
5434.000000;-0.034158
5433.000000;-0.034680
5432.000000;-0.035157
5431.000000;-0.035302
5430.000000;-0.035230
5429.000000;-0.035301
5428.000000;-0.035686
5427.000000;-0.036194
5426.000000;-0.036563
5425.000000;-0.036752
5424.000000;-0.036894
5423.000000;-0.037142
5422.000000;-0.037526
5421.000000;-0.037825
5420.000000;-0.037816
5419.000000;-0.037659
5418.000000;-0.037698
5417.000000;-0.037925
5416.000000;-0.037948
5415.000000;-0.037613
5414.000000;-0.037360
5413.000000;-0.037614
5412.000000;-0.038124
5411.000000;-0.038384
5410.000000;-0.038435
5409.000000;-0.038716
5408.000000;-0.039306
5407.000000;-0.039836
5406.000000;-0.040095
5405.000000;-0.040304
5404.000000;-0.040654
5403.000000;-0.040950
5402.000000;-0.041070
5401.000000;-0.041174
5400.000000;-0.041271
5399.000000;-0.041245
5398.000000;-0.041169
5397.000000;-0.041265
5396.000000;-0.041514
5395.000000;-0.041619
5394.000000;-0.041558
5393.000000;-0.041682
5392.000000;-0.042085
5391.000000;-0.042434
5390.000000;-0.042556
5389.000000;-0.042689
5388.000000;-0.043024
5387.000000;-0.043346
5386.000000;-0.043444
5385.000000;-0.043558
5384.000000;-0.043883
5383.000000;-0.044082
5382.000000;-0.043952
5381.000000;-0.043886
5380.000000;-0.044191
5379.000000;-0.044552
5378.000000;-0.044544
5377.000000;-0.044387
5376.000000;-0.044600
5375.000000;-0.045093
5374.000000;-0.045375
5373.000000;-0.045416
5372.000000;-0.045620
5371.000000;-0.046085
5370.000000;-0.046475
5369.000000;-0.046640
5368.000000;-0.046843
5367.000000;-0.047203
5366.000000;-0.047469
5365.000000;-0.047545
5364.000000;-0.047664
5363.000000;-0.047926
5362.000000;-0.048163
5361.000000;-0.048246
5360.000000;-0.048240
5359.000000;-0.048256
5358.000000;-0.048342
5357.000000;-0.048545
5356.000000;-0.048841
5355.000000;-0.048998
5354.000000;-0.048868
5353.000000;-0.048759
5352.000000;-0.049018
5351.000000;-0.049331
5350.000000;-0.049221
5349.000000;-0.048951
5348.000000;-0.049143
5347.000000;-0.049723
5346.000000;-0.049917
5345.000000;-0.049448
5344.000000;-0.049062
5343.000000;-0.049372
5342.000000;-0.049887
5341.000000;-0.049916
5340.000000;-0.049633
5339.000000;-0.049651
5338.000000;-0.050107
5337.000000;-0.050629
5336.000000;-0.051016
5335.000000;-0.051342
5334.000000;-0.051534
5333.000000;-0.051539
5332.000000;-0.051656
5331.000000;-0.052105
5330.000000;-0.052585
5329.000000;-0.052685
5328.000000;-0.052493
5327.000000;-0.052505
5326.000000;-0.052880
5325.000000;-0.053260
5324.000000;-0.053407
5323.000000;-0.053508
5322.000000;-0.053750
5321.000000;-0.054078
5320.000000;-0.054380
5319.000000;-0.054631
5318.000000;-0.054823
5317.000000;-0.054913
5316.000000;-0.054938
5315.000000;-0.055010
5314.000000;-0.055104
5313.000000;-0.055132
5312.000000;-0.055181
5311.000000;-0.055392
5310.000000;-0.055670
5309.000000;-0.055778
5308.000000;-0.055714
5307.000000;-0.055735
5306.000000;-0.055957
5305.000000;-0.056197
5304.000000;-0.056312
5303.000000;-0.056423
5302.000000;-0.056670
5301.000000;-0.056965
5300.000000;-0.057137
5299.000000;-0.057193
5298.000000;-0.057270
5297.000000;-0.057350
5296.000000;-0.057340
5295.000000;-0.057348
5294.000000;-0.057543
5293.000000;-0.057851
5292.000000;-0.057992
5291.000000;-0.057858
5290.000000;-0.057714
5289.000000;-0.057837
5288.000000;-0.058126
5287.000000;-0.058275
5286.000000;-0.058227
5285.000000;-0.058248
5284.000000;-0.058511
5283.000000;-0.058848
5282.000000;-0.059031
5281.000000;-0.059104
5280.000000;-0.059259
5279.000000;-0.059507
5278.000000;-0.059718
5277.000000;-0.059851
5276.000000;-0.059964
5275.000000;-0.060087
5274.000000;-0.060182
5273.000000;-0.060246
5272.000000;-0.060324
5271.000000;-0.060351
5270.000000;-0.060208
5269.000000;-0.060016
5268.000000;-0.060019
5267.000000;-0.060174
5266.000000;-0.060201
5265.000000;-0.060027
5264.000000;-0.059937
5263.000000;-0.060168
5262.000000;-0.060540
5261.000000;-0.060722
5260.000000;-0.060751
5259.000000;-0.060909
5258.000000;-0.061227
5257.000000;-0.061453
5256.000000;-0.061448
5255.000000;-0.061368
5254.000000;-0.061421
5253.000000;-0.061608
5252.000000;-0.061816
5251.000000;-0.061916
5250.000000;-0.061818
5249.000000;-0.061647
5248.000000;-0.061679
5247.000000;-0.061996
5246.000000;-0.062318
5245.000000;-0.062353
5244.000000;-0.062247
5243.000000;-0.062437
5242.000000;-0.063003
5241.000000;-0.063500
5240.000000;-0.063603
5239.000000;-0.063555
5238.000000;-0.063679
5237.000000;-0.063881
5236.000000;-0.063937
5235.000000;-0.063931
5234.000000;-0.064074
5233.000000;-0.064290
5232.000000;-0.064307
5231.000000;-0.064149
5230.000000;-0.064139
5229.000000;-0.064353
5228.000000;-0.064471
5227.000000;-0.064310
5226.000000;-0.064123
5225.000000;-0.064204
5224.000000;-0.064485
5223.000000;-0.064728
5222.000000;-0.064899
5221.000000;-0.065102
5220.000000;-0.065344
5219.000000;-0.065570
5218.000000;-0.065774
5217.000000;-0.065982
5216.000000;-0.066147
5215.000000;-0.066196
5214.000000;-0.066193
5213.000000;-0.066236
5212.000000;-0.066276
5211.000000;-0.066242
5210.000000;-0.066192
5209.000000;-0.066189
5208.000000;-0.066162
5207.000000;-0.066058
5206.000000;-0.066030
5205.000000;-0.066262
5204.000000;-0.066641
5203.000000;-0.066875
5202.000000;-0.066939
5201.000000;-0.067074
5200.000000;-0.067367
5199.000000;-0.067588
5198.000000;-0.067571
5197.000000;-0.067516
5196.000000;-0.067669
5195.000000;-0.067915
5194.000000;-0.068020
5193.000000;-0.068003
5192.000000;-0.068031
5191.000000;-0.068132
5190.000000;-0.068220
5189.000000;-0.068319
5188.000000;-0.068506
5187.000000;-0.068669
5186.000000;-0.068632
5185.000000;-0.068497
5184.000000;-0.068556
5183.000000;-0.068841
5182.000000;-0.069077
5181.000000;-0.069114
5180.000000;-0.069115
5179.000000;-0.069234
5178.000000;-0.069372
5177.000000;-0.069406
5176.000000;-0.069426
5175.000000;-0.069568
5174.000000;-0.069771
5173.000000;-0.069895
5172.000000;-0.069949
5171.000000;-0.070028
5170.000000;-0.070148
5169.000000;-0.070273
5168.000000;-0.070425
5167.000000;-0.070614
5166.000000;-0.070749
5165.000000;-0.070765
5164.000000;-0.070742
5163.000000;-0.070778
5162.000000;-0.070830
5161.000000;-0.070808
5160.000000;-0.070762
5159.000000;-0.070810
5158.000000;-0.070947
5157.000000;-0.071058
5156.000000;-0.071106
5155.000000;-0.071162
5154.000000;-0.071252
5153.000000;-0.071321
5152.000000;-0.071365
5151.000000;-0.071446
5150.000000;-0.071576
5149.000000;-0.071686
5148.000000;-0.071730
5147.000000;-0.071754
5146.000000;-0.071823
5145.000000;-0.071943
5144.000000;-0.072071
5143.000000;-0.072168
5142.000000;-0.072225
5141.000000;-0.072263
5140.000000;-0.072323
5139.000000;-0.072427
5138.000000;-0.072567
5137.000000;-0.072738
5136.000000;-0.072942
5135.000000;-0.073155
5134.000000;-0.073313
5133.000000;-0.073378
5132.000000;-0.073386
5131.000000;-0.073383
5130.000000;-0.073371
5129.000000;-0.073356
5128.000000;-0.073379
5127.000000;-0.073463
5126.000000;-0.073549
5125.000000;-0.073573
5124.000000;-0.073565
5123.000000;-0.073609
5122.000000;-0.073728
5121.000000;-0.073876
5120.000000;-0.074016
5119.000000;-0.074140
5118.000000;-0.074235
5117.000000;-0.074294
5116.000000;-0.074342
5115.000000;-0.074421
5114.000000;-0.074530
5113.000000;-0.074644
5112.000000;-0.074761
5111.000000;-0.074891
5110.000000;-0.075015
5109.000000;-0.075104
5108.000000;-0.075172
5107.000000;-0.075258
5106.000000;-0.075366
5105.000000;-0.075475
5104.000000;-0.075581
5103.000000;-0.075682
5102.000000;-0.075753
5101.000000;-0.075782
5100.000000;-0.075802
5099.000000;-0.075862
5098.000000;-0.075959
5097.000000;-0.076052
5096.000000;-0.076124
5095.000000;-0.076182
5094.000000;-0.076220
5093.000000;-0.076234
5092.000000;-0.076247
5091.000000;-0.076286
5090.000000;-0.076338
5089.000000;-0.076366
5088.000000;-0.076374
5087.000000;-0.076387
5086.000000;-0.076413
5085.000000;-0.076444
5084.000000;-0.076498
5083.000000;-0.076598
5082.000000;-0.076739
5081.000000;-0.076890
5080.000000;-0.077028
5079.000000;-0.077145
5078.000000;-0.077228
5077.000000;-0.077279
5076.000000;-0.077339
5075.000000;-0.077442
5074.000000;-0.077570
5073.000000;-0.077679
5072.000000;-0.077763
5071.000000;-0.077847
5070.000000;-0.077934
5069.000000;-0.078007
5068.000000;-0.078070
5067.000000;-0.078140
5066.000000;-0.078216
5065.000000;-0.078282
5064.000000;-0.078333
5063.000000;-0.078365
5062.000000;-0.078370
5061.000000;-0.078356
5060.000000;-0.078368
5059.000000;-0.078435
5058.000000;-0.078527
5057.000000;-0.078590
5056.000000;-0.078618
5055.000000;-0.078637
5054.000000;-0.078659
5053.000000;-0.078684
5052.000000;-0.078737
5051.000000;-0.078843
5050.000000;-0.078980
5049.000000;-0.079103
5048.000000;-0.079202
5047.000000;-0.079302
5046.000000;-0.079414
5045.000000;-0.079531
5044.000000;-0.079653
5043.000000;-0.079776
5042.000000;-0.079875
5041.000000;-0.079928
5040.000000;-0.079954
5039.000000;-0.079995
5038.000000;-0.080061
5037.000000;-0.080129
5036.000000;-0.080193
5035.000000;-0.080266
5034.000000;-0.080343
5033.000000;-0.080405
5032.000000;-0.080461
5031.000000;-0.080535
5030.000000;-0.080629
5029.000000;-0.080719
5028.000000;-0.080796
5027.000000;-0.080873
5026.000000;-0.080955
5025.000000;-0.081023
5024.000000;-0.081063
5023.000000;-0.081085
5022.000000;-0.081120
5021.000000;-0.081197
5020.000000;-0.081324
5019.000000;-0.081466
5018.000000;-0.081562
5017.000000;-0.081585
5016.000000;-0.081578
5015.000000;-0.081608
5014.000000;-0.081699
5013.000000;-0.081832
5012.000000;-0.081975
5011.000000;-0.082098
5010.000000;-0.082172
5009.000000;-0.082189
5008.000000;-0.082184
5007.000000;-0.082198
5006.000000;-0.082243
5005.000000;-0.082311
5004.000000;-0.082402
5003.000000;-0.082506
5002.000000;-0.082573
5001.000000;-0.082632
5000.000000;-0.082675
4999.000000;-0.082731
4998.000000;-0.082804
4997.000000;-0.082876
4996.000000;-0.082943
4995.000000;-0.083000
4994.000000;-0.083027
4993.000000;-0.083020
4992.000000;-0.083028
4991.000000;-0.083104
4990.000000;-0.083243
4989.000000;-0.083386
4988.000000;-0.083496
4987.000000;-0.083576
4986.000000;-0.083649
4985.000000;-0.083736
4984.000000;-0.083862
4983.000000;-0.084023
4982.000000;-0.084175
4981.000000;-0.084269
4980.000000;-0.084314
4979.000000;-0.084361
4978.000000;-0.084443
4977.000000;-0.084549
4976.000000;-0.084657
4975.000000;-0.084753
4974.000000;-0.084833
4973.000000;-0.084898
4972.000000;-0.084958
4971.000000;-0.085025
4970.000000;-0.085091
4969.000000;-0.085148
4968.000000;-0.085207
4967.000000;-0.085285
4966.000000;-0.085365
4965.000000;-0.085422
4964.000000;-0.085451
4963.000000;-0.085475
4962.000000;-0.085518
4961.000000;-0.085596
4960.000000;-0.085712
4959.000000;-0.085851
4958.000000;-0.085975
4957.000000;-0.086061
4956.000000;-0.086124
4955.000000;-0.086192
4954.000000;-0.086270
4953.000000;-0.086356
4952.000000;-0.086456
4951.000000;-0.086570
4950.000000;-0.086665
4949.000000;-0.086712
4948.000000;-0.086720
4947.000000;-0.086729
4946.000000;-0.086765
4945.000000;-0.086838
4944.000000;-0.086954
4943.000000;-0.087111
4942.000000;-0.087280
4941.000000;-0.087431
4940.000000;-0.087560
4939.000000;-0.087679
4938.000000;-0.087789
4937.000000;-0.087878
4936.000000;-0.087949
4935.000000;-0.088007
4934.000000;-0.088049
4933.000000;-0.088082
4932.000000;-0.088132
4931.000000;-0.088213
4930.000000;-0.088316
4929.000000;-0.088432
4928.000000;-0.088575
4927.000000;-0.088737
4926.000000;-0.088877
4925.000000;-0.088970
4924.000000;-0.089058
4923.000000;-0.089199
4922.000000;-0.089382
4921.000000;-0.089548
4920.000000;-0.089662
4919.000000;-0.089737
4918.000000;-0.089791
4917.000000;-0.089836
4916.000000;-0.089891
4915.000000;-0.089984
4914.000000;-0.090111
4913.000000;-0.090243
4912.000000;-0.090351
4911.000000;-0.090425
4910.000000;-0.090458
4909.000000;-0.090466
4908.000000;-0.090495
4907.000000;-0.090586
4906.000000;-0.090734
4905.000000;-0.090898
4904.000000;-0.091050
4903.000000;-0.091196
4902.000000;-0.091345
4901.000000;-0.091501
4900.000000;-0.091667
4899.000000;-0.091834
4898.000000;-0.091979
4897.000000;-0.092086
4896.000000;-0.092176
4895.000000;-0.092271
4894.000000;-0.092361
4893.000000;-0.092428
4892.000000;-0.092487
4891.000000;-0.092581
4890.000000;-0.092723
4889.000000;-0.092889
4888.000000;-0.093056
4887.000000;-0.093211
4886.000000;-0.093338
4885.000000;-0.093419
4884.000000;-0.093470
4883.000000;-0.093525
4882.000000;-0.093601
4881.000000;-0.093696
4880.000000;-0.093809
4879.000000;-0.093930
4878.000000;-0.094035
4877.000000;-0.094100
4876.000000;-0.094148
4875.000000;-0.094219
4874.000000;-0.094325
4873.000000;-0.094432
4872.000000;-0.094518
4871.000000;-0.094593
4870.000000;-0.094682
4869.000000;-0.094793
4868.000000;-0.094927
4867.000000;-0.095074
4866.000000;-0.095213
4865.000000;-0.095325
4864.000000;-0.095421
4863.000000;-0.095528
4862.000000;-0.095659
4861.000000;-0.095796
4860.000000;-0.095915
4859.000000;-0.096003
4858.000000;-0.096062
4857.000000;-0.096109
4856.000000;-0.096173
4855.000000;-0.096276
4854.000000;-0.096416
4853.000000;-0.096583
4852.000000;-0.096765
4851.000000;-0.096932
4850.000000;-0.097036
4849.000000;-0.097053
4848.000000;-0.097026
4847.000000;-0.097025
4846.000000;-0.097082
4845.000000;-0.097180
4844.000000;-0.097291
4843.000000;-0.097398
4842.000000;-0.097487
4841.000000;-0.097555
4840.000000;-0.097624
4839.000000;-0.097726
4838.000000;-0.097870
4837.000000;-0.098037
4836.000000;-0.098202
4835.000000;-0.098348
4834.000000;-0.098461
4833.000000;-0.098540
4832.000000;-0.098613
4831.000000;-0.098704
4830.000000;-0.098814
4829.000000;-0.098924
4828.000000;-0.099030
4827.000000;-0.099138
4826.000000;-0.099247
4825.000000;-0.099353
4824.000000;-0.099466
4823.000000;-0.099602
4822.000000;-0.099755
4821.000000;-0.099901
4820.000000;-0.100024
4819.000000;-0.100114
4818.000000;-0.100164
4817.000000;-0.100181
4816.000000;-0.100206
4815.000000;-0.100282
4814.000000;-0.100409
4813.000000;-0.100548
4812.000000;-0.100660
4811.000000;-0.100731
4810.000000;-0.100769
4809.000000;-0.100803
4808.000000;-0.100879
4807.000000;-0.101024
4806.000000;-0.101207
4805.000000;-0.101359
4804.000000;-0.101438
4803.000000;-0.101455
4802.000000;-0.101453
4801.000000;-0.101480
4800.000000;-0.101573
4799.000000;-0.101741
4798.000000;-0.101945
4797.000000;-0.102123
4796.000000;-0.102232
4795.000000;-0.102275
4794.000000;-0.102289
4793.000000;-0.102326
4792.000000;-0.102432
4791.000000;-0.102603
4790.000000;-0.102775
4789.000000;-0.102883
4788.000000;-0.102930
4787.000000;-0.102979
4786.000000;-0.103093
4785.000000;-0.103277
4784.000000;-0.103485
4783.000000;-0.103652
4782.000000;-0.103729
4781.000000;-0.103716
4780.000000;-0.103660
4779.000000;-0.103622
4778.000000;-0.103630
4777.000000;-0.103689
4776.000000;-0.103798
4775.000000;-0.103933
4774.000000;-0.104039
4773.000000;-0.104075
4772.000000;-0.104064
4771.000000;-0.104074
4770.000000;-0.104151
4769.000000;-0.104292
4768.000000;-0.104464
4767.000000;-0.104626
4766.000000;-0.104733
4765.000000;-0.104764
4764.000000;-0.104749
4763.000000;-0.104746
4762.000000;-0.104788
4761.000000;-0.104872
4760.000000;-0.104983
4759.000000;-0.105113
4758.000000;-0.105245
4757.000000;-0.105349
4756.000000;-0.105413
4755.000000;-0.105457
4754.000000;-0.105510
4753.000000;-0.105591
4752.000000;-0.105703
4751.000000;-0.105830
4750.000000;-0.105943
4749.000000;-0.106014
4748.000000;-0.106052
4747.000000;-0.106095
4746.000000;-0.106183
4745.000000;-0.106337
4744.000000;-0.106541
4743.000000;-0.106743
4742.000000;-0.106872
4741.000000;-0.106889
4740.000000;-0.106838
4739.000000;-0.106805
4738.000000;-0.106856
4737.000000;-0.106986
4736.000000;-0.107146
4735.000000;-0.107281
4734.000000;-0.107364
4733.000000;-0.107412
4732.000000;-0.107458
4731.000000;-0.107520
4730.000000;-0.107590
4729.000000;-0.107663
4728.000000;-0.107756
4727.000000;-0.107873
4726.000000;-0.107991
4725.000000;-0.108090
4724.000000;-0.108190
4723.000000;-0.108321
4722.000000;-0.108475
4721.000000;-0.108611
4720.000000;-0.108702
4719.000000;-0.108753
4718.000000;-0.108776
4717.000000;-0.108787
4716.000000;-0.108810
4715.000000;-0.108861
4714.000000;-0.108930
4713.000000;-0.108995
4712.000000;-0.109042
4711.000000;-0.109070
4710.000000;-0.109078
4709.000000;-0.109080
4708.000000;-0.109110
4707.000000;-0.109186
4706.000000;-0.109280
4705.000000;-0.109346
4704.000000;-0.109378
4703.000000;-0.109394
4702.000000;-0.109404
4701.000000;-0.109421
4700.000000;-0.109488
4699.000000;-0.109645
4698.000000;-0.109858
4697.000000;-0.110030
4696.000000;-0.110102
4695.000000;-0.110101
4694.000000;-0.110098
4693.000000;-0.110134
4692.000000;-0.110208
4691.000000;-0.110309
4690.000000;-0.110425
4689.000000;-0.110543
4688.000000;-0.110645
4687.000000;-0.110705
4686.000000;-0.110712
4685.000000;-0.110689
4684.000000;-0.110686
4683.000000;-0.110729
4682.000000;-0.110778
4681.000000;-0.110768
4680.000000;-0.110686
4679.000000;-0.110591
4678.000000;-0.110547
4677.000000;-0.110580
4676.000000;-0.110674
4675.000000;-0.110793
4674.000000;-0.110900
4673.000000;-0.110978
4672.000000;-0.111032
4671.000000;-0.111066
4670.000000;-0.111067
4669.000000;-0.111041
4668.000000;-0.111048
4667.000000;-0.111139
4666.000000;-0.111284
4665.000000;-0.111388
4664.000000;-0.111395
4663.000000;-0.111335
4662.000000;-0.111269
4661.000000;-0.111232
4660.000000;-0.111225
4659.000000;-0.111239
4658.000000;-0.111258
4657.000000;-0.111262
4656.000000;-0.111256
4655.000000;-0.111265
4654.000000;-0.111306
4653.000000;-0.111368
4652.000000;-0.111438
4651.000000;-0.111514
4650.000000;-0.111576
4649.000000;-0.111589
4648.000000;-0.111534
4647.000000;-0.111445
4646.000000;-0.111373
4645.000000;-0.111348
4644.000000;-0.111366
4643.000000;-0.111405
4642.000000;-0.111424
4641.000000;-0.111374
4640.000000;-0.111239
4639.000000;-0.111069
4638.000000;-0.110942
4637.000000;-0.110903
4636.000000;-0.110944
4635.000000;-0.111022
4634.000000;-0.111101
4633.000000;-0.111160
4632.000000;-0.111190
4631.000000;-0.111192
4630.000000;-0.111177
4629.000000;-0.111164
4628.000000;-0.111170
4627.000000;-0.111191
4626.000000;-0.111210
4625.000000;-0.111206
4624.000000;-0.111174
4623.000000;-0.111111
4622.000000;-0.111023
4621.000000;-0.110926
4620.000000;-0.110849
4619.000000;-0.110807
4618.000000;-0.110788
4617.000000;-0.110762
4616.000000;-0.110714
4615.000000;-0.110640
4614.000000;-0.110552
4613.000000;-0.110471
4612.000000;-0.110423
4611.000000;-0.110396
4610.000000;-0.110342
4609.000000;-0.110220
4608.000000;-0.110051
4607.000000;-0.109885
4606.000000;-0.109748
4605.000000;-0.109624
4604.000000;-0.109509
4603.000000;-0.109415
4602.000000;-0.109345
4601.000000;-0.109277
4600.000000;-0.109197
4599.000000;-0.109108
4598.000000;-0.109004
4597.000000;-0.108859
4596.000000;-0.108665
4595.000000;-0.108458
4594.000000;-0.108285
4593.000000;-0.108165
4592.000000;-0.108082
4591.000000;-0.108013
4590.000000;-0.107947
4589.000000;-0.107872
4588.000000;-0.107778
4587.000000;-0.107663
4586.000000;-0.107534
4585.000000;-0.107403
4584.000000;-0.107276
4583.000000;-0.107139
4582.000000;-0.106960
4581.000000;-0.106710
4580.000000;-0.106389
4579.000000;-0.106032
4578.000000;-0.105680
4577.000000;-0.105359
4576.000000;-0.105080
4575.000000;-0.104846
4574.000000;-0.104644
4573.000000;-0.104435
4572.000000;-0.104170
4571.000000;-0.103828
4570.000000;-0.103444
4569.000000;-0.103072
4568.000000;-0.102727
4567.000000;-0.102373
4566.000000;-0.101979
4565.000000;-0.101576
4564.000000;-0.101228
4563.000000;-0.100947
4562.000000;-0.100671
4561.000000;-0.100339
4560.000000;-0.099948
4559.000000;-0.099519
4558.000000;-0.099050
4557.000000;-0.098534
4556.000000;-0.098011
4555.000000;-0.097556
4554.000000;-0.097202
4553.000000;-0.096902
4552.000000;-0.096573
4551.000000;-0.096146
4550.000000;-0.095588
4549.000000;-0.094917
4548.000000;-0.094200
4547.000000;-0.093529
4546.000000;-0.092963
4545.000000;-0.092488
4544.000000;-0.092035
4543.000000;-0.091532
4542.000000;-0.090945
4541.000000;-0.090294
4540.000000;-0.089639
4539.000000;-0.089048
4538.000000;-0.088555
4537.000000;-0.088149
4536.000000;-0.087789
4535.000000;-0.087419
4534.000000;-0.086995
4533.000000;-0.086520
4532.000000;-0.086047
4531.000000;-0.085630
4530.000000;-0.085281
4529.000000;-0.084962
4528.000000;-0.084632
4527.000000;-0.084280
4526.000000;-0.083917
4525.000000;-0.083566
4524.000000;-0.083244
4523.000000;-0.082957
4522.000000;-0.082706
4521.000000;-0.082488
4520.000000;-0.082294
4519.000000;-0.082097
4518.000000;-0.081867
4517.000000;-0.081607
4516.000000;-0.081361
4515.000000;-0.081171
4514.000000;-0.081042
4513.000000;-0.080931
4512.000000;-0.080769
4511.000000;-0.080493
4510.000000;-0.080098
4509.000000;-0.079669
4508.000000;-0.079325
4507.000000;-0.079115
4506.000000;-0.078983
4505.000000;-0.078850
4504.000000;-0.078696
4503.000000;-0.078542
4502.000000;-0.078393
4501.000000;-0.078229
4500.000000;-0.078046
4499.000000;-0.077853
4498.000000;-0.077644
4497.000000;-0.077405
4496.000000;-0.077143
4495.000000;-0.076867
4494.000000;-0.076568
4493.000000;-0.076242
4492.000000;-0.075937
4491.000000;-0.075709
4490.000000;-0.075541
4489.000000;-0.075344
4488.000000;-0.075053
4487.000000;-0.074685
4486.000000;-0.074300
4485.000000;-0.073932
4484.000000;-0.073590
4483.000000;-0.073284
4482.000000;-0.073013
4481.000000;-0.072752
4480.000000;-0.072464
4479.000000;-0.072136
4478.000000;-0.071787
4477.000000;-0.071444
4476.000000;-0.071115
4475.000000;-0.070789
4474.000000;-0.070441
4473.000000;-0.070058
4472.000000;-0.069653
4471.000000;-0.069245
4470.000000;-0.068843
4469.000000;-0.068452
4468.000000;-0.068084
4467.000000;-0.067736
4466.000000;-0.067373
4465.000000;-0.066955
4464.000000;-0.066483
4463.000000;-0.065999
4462.000000;-0.065527
4461.000000;-0.065060
4460.000000;-0.064585
4459.000000;-0.064114
4458.000000;-0.063656
4457.000000;-0.063190
4456.000000;-0.062685
4455.000000;-0.062148
4454.000000;-0.061633
4453.000000;-0.061194
4452.000000;-0.060837
4451.000000;-0.060510
4450.000000;-0.060140
4449.000000;-0.059679
4448.000000;-0.059132
4447.000000;-0.058541
4446.000000;-0.057966
4445.000000;-0.057468
4444.000000;-0.057066
4443.000000;-0.056715
4442.000000;-0.056322
4441.000000;-0.055827
4440.000000;-0.055250
4439.000000;-0.054663
4438.000000;-0.054120
4437.000000;-0.053621
4436.000000;-0.053131
4435.000000;-0.052611
4434.000000;-0.052048
4433.000000;-0.051462
4432.000000;-0.050889
4431.000000;-0.050349
4430.000000;-0.049828
4429.000000;-0.049308
4428.000000;-0.048784
4427.000000;-0.048249
4426.000000;-0.047679
4425.000000;-0.047065
4424.000000;-0.046443
4423.000000;-0.045850
4422.000000;-0.045278
4421.000000;-0.044682
4420.000000;-0.044048
4419.000000;-0.043403
4418.000000;-0.042774
4417.000000;-0.042158
4416.000000;-0.041539
4415.000000;-0.040909
4414.000000;-0.040270
4413.000000;-0.039622
4412.000000;-0.038971
4411.000000;-0.038322
4410.000000;-0.037668
4409.000000;-0.036997
4408.000000;-0.036306
4407.000000;-0.035605
4406.000000;-0.034913
4405.000000;-0.034246
4404.000000;-0.033606
4403.000000;-0.032977
4402.000000;-0.032325
4401.000000;-0.031631
4400.000000;-0.030896
4399.000000;-0.030134
4398.000000;-0.029362
4397.000000;-0.028608
4396.000000;-0.027898
4395.000000;-0.027213
4394.000000;-0.026485
4393.000000;-0.025663
4392.000000;-0.024768
4391.000000;-0.023875
4390.000000;-0.023034
4389.000000;-0.022247
4388.000000;-0.021492
4387.000000;-0.020729
4386.000000;-0.019904
4385.000000;-0.018969
4384.000000;-0.017935
4383.000000;-0.016885
4382.000000;-0.015916
4381.000000;-0.015057
4380.000000;-0.014258
4379.000000;-0.013430
4378.000000;-0.012511
4377.000000;-0.011499
4376.000000;-0.010428
4375.000000;-0.009349
4374.000000;-0.008318
4373.000000;-0.007382
4372.000000;-0.006533
4371.000000;-0.005678
4370.000000;-0.004701
4369.000000;-0.003577
4368.000000;-0.002399
4367.000000;-0.001280
4366.000000;-0.000266
4365.000000;0.000676
4364.000000;0.001605
4363.000000;0.002587
4362.000000;0.003668
4361.000000;0.004844
4360.000000;0.006059
4359.000000;0.007272
4358.000000;0.008477
4357.000000;0.009676
4356.000000;0.010847
4355.000000;0.011997
4354.000000;0.013181
4353.000000;0.014433
4352.000000;0.015710
4351.000000;0.016943
4350.000000;0.018130
4349.000000;0.019329
4348.000000;0.020586
4347.000000;0.021909
4346.000000;0.023279
4345.000000;0.024654
4344.000000;0.025959
4343.000000;0.027154
4342.000000;0.028286
4341.000000;0.029453
4340.000000;0.030711
4339.000000;0.032055
4338.000000;0.033461
4337.000000;0.034915
4336.000000;0.036387
4335.000000;0.037842
4334.000000;0.039265
4333.000000;0.040664
4332.000000;0.042060
4331.000000;0.043486
4330.000000;0.044981
4329.000000;0.046535
4328.000000;0.048068
4327.000000;0.049503
4326.000000;0.050844
4325.000000;0.052152
4324.000000;0.053463
4323.000000;0.054790
4322.000000;0.056161
4321.000000;0.057614
4320.000000;0.059143
4319.000000;0.060701
4318.000000;0.062265
4317.000000;0.063832
4316.000000;0.065379
4315.000000;0.066865
4314.000000;0.068298
4313.000000;0.069730
4312.000000;0.071188
4311.000000;0.072642
4310.000000;0.074074
4309.000000;0.075533
4308.000000;0.077105
4307.000000;0.078847
4306.000000;0.080732
4305.000000;0.082645
4304.000000;0.084431
4303.000000;0.085997
4302.000000;0.087381
4301.000000;0.088723
4300.000000;0.090169
4299.000000;0.091808
4298.000000;0.093651
4297.000000;0.095606
4296.000000;0.097516
4295.000000;0.099271
4294.000000;0.100911
4293.000000;0.102573
4292.000000;0.104350
4291.000000;0.106226
4290.000000;0.108117
4289.000000;0.109932
4288.000000;0.111621
4287.000000;0.113227
4286.000000;0.114884
4285.000000;0.116704
4284.000000;0.118673
4283.000000;0.120670
4282.000000;0.122588
4281.000000;0.124379
4280.000000;0.126054
4279.000000;0.127697
4278.000000;0.129459
4277.000000;0.131431
4276.000000;0.133536
4275.000000;0.135609
4274.000000;0.137570
4273.000000;0.139447
4272.000000;0.141253
4271.000000;0.142960
4270.000000;0.144628
4269.000000;0.146429
4268.000000;0.148477
4267.000000;0.150699
4266.000000;0.152921
4265.000000;0.155027
4264.000000;0.157007
4263.000000;0.158914
4262.000000;0.160842
4261.000000;0.162880
4260.000000;0.165023
4259.000000;0.167172
4258.000000;0.169252
4257.000000;0.171303
4256.000000;0.173405
4255.000000;0.175568
4254.000000;0.177750
4253.000000;0.179936
4252.000000;0.182138
4251.000000;0.184358
4250.000000;0.186583
4249.000000;0.188791
4248.000000;0.190931
4247.000000;0.192942
4246.000000;0.194867
4245.000000;0.196890
4244.000000;0.199187
4243.000000;0.201717
4242.000000;0.204233
4241.000000;0.206506
4240.000000;0.208511
4239.000000;0.210392
4238.000000;0.212317
4237.000000;0.214387
4236.000000;0.216617
4235.000000;0.218956
4234.000000;0.221334
4233.000000;0.223735
4232.000000;0.226202
4231.000000;0.228762
4230.000000;0.231345
4229.000000;0.233854
4228.000000;0.236285
4227.000000;0.238750
4226.000000;0.241316
4225.000000;0.243913
4224.000000;0.246434
4223.000000;0.248915
4222.000000;0.251488
4221.000000;0.254195
4220.000000;0.256922
4219.000000;0.259573
4218.000000;0.262198
4217.000000;0.264881
4216.000000;0.267590
4215.000000;0.270236
4214.000000;0.272835
4213.000000;0.275494
4212.000000;0.278231
4211.000000;0.280928
4210.000000;0.283505
4209.000000;0.286037
4208.000000;0.288672
4207.000000;0.291470
4206.000000;0.294377
4205.000000;0.297342
4204.000000;0.300382
4203.000000;0.303513
4202.000000;0.306647
4201.000000;0.309601
4200.000000;0.312275
4199.000000;0.314812
4198.000000;0.317528
4197.000000;0.320639
4196.000000;0.324056
4195.000000;0.327466
4194.000000;0.330580
4193.000000;0.333323
4192.000000;0.335858
4191.000000;0.338497
4190.000000;0.341530
4189.000000;0.345017
4188.000000;0.348726
4187.000000;0.352305
4186.000000;0.355562
4185.000000;0.358582
4184.000000;0.361614
4183.000000;0.364853
4182.000000;0.368308
4181.000000;0.371814
4180.000000;0.375191
4179.000000;0.378421
4178.000000;0.381639
4177.000000;0.384940
4176.000000;0.388260
4175.000000;0.391507
4174.000000;0.394719
4173.000000;0.398016
4172.000000;0.401426
4171.000000;0.404863
4170.000000;0.408285
4169.000000;0.411767
4168.000000;0.415399
4167.000000;0.419149
4166.000000;0.422883
4165.000000;0.426507
4164.000000;0.430087
4163.000000;0.433782
4162.000000;0.437631
4161.000000;0.441427
4160.000000;0.444916
4159.000000;0.448114
4158.000000;0.451328
4157.000000;0.454805
4156.000000;0.458481
4155.000000;0.462168
4154.000000;0.465845
4153.000000;0.469615
4152.000000;0.473469
4151.000000;0.477265
4150.000000;0.480916
4149.000000;0.484463
4148.000000;0.487970
4147.000000;0.491493
4146.000000;0.495138
4145.000000;0.498994
4144.000000;0.502996
4143.000000;0.506943
4142.000000;0.510709
4141.000000;0.514348
4140.000000;0.517987
4139.000000;0.521693
4138.000000;0.525479
4137.000000;0.529371
4136.000000;0.533398
4135.000000;0.537515
4134.000000;0.541563
4133.000000;0.545355
4132.000000;0.548873
4131.000000;0.552339
4130.000000;0.555996
4129.000000;0.559822
4128.000000;0.563588
4127.000000;0.567222
4126.000000;0.570910
4125.000000;0.574778
4124.000000;0.578649
4123.000000;0.582309
4122.000000;0.585837
4121.000000;0.589490
4120.000000;0.593359
4119.000000;0.597311
4118.000000;0.601200
4117.000000;0.604942
4116.000000;0.608494
4115.000000;0.611953
4114.000000;0.615596
4113.000000;0.619589
4112.000000;0.623671
4111.000000;0.627382
4110.000000;0.630629
4109.000000;0.633835
4108.000000;0.637478
4107.000000;0.641641
4106.000000;0.645999
4105.000000;0.650125
4104.000000;0.653830
4103.000000;0.657314
4102.000000;0.660951
4101.000000;0.664839
4100.000000;0.668632
4099.000000;0.671954
4098.000000;0.674910
4097.000000;0.677965
4096.000000;0.681410
4095.000000;0.685132
4094.000000;0.688869
4093.000000;0.692471
4092.000000;0.695929
4091.000000;0.699390
4090.000000;0.703157
4089.000000;0.707461
4088.000000;0.712199
4087.000000;0.716997
4086.000000;0.721492
4085.000000;0.725411
4084.000000;0.728543
4083.000000;0.730929
4082.000000;0.733087
4081.000000;0.735705
4080.000000;0.739025
4079.000000;0.742707
4078.000000;0.746327
4077.000000;0.749839
4076.000000;0.753475
4075.000000;0.757433
4074.000000;0.761700
4073.000000;0.766025
4072.000000;0.769999
4071.000000;0.773353
4070.000000;0.776231
4069.000000;0.779036
4068.000000;0.781976
4067.000000;0.784934
4066.000000;0.787768
4065.000000;0.790525
4064.000000;0.793370
4063.000000;0.796554
4062.000000;0.800443
4061.000000;0.805241
4060.000000;0.810561
4059.000000;0.815538
4058.000000;0.819594
4057.000000;0.822916
4056.000000;0.826014
4055.000000;0.829064
4054.000000;0.831913
4053.000000;0.834509
4052.000000;0.837003
4051.000000;0.839533
4050.000000;0.842230
4049.000000;0.845366
4048.000000;0.849098
4047.000000;0.853002
4046.000000;0.856243
4045.000000;0.858473
4044.000000;0.860352
4043.000000;0.862840
4042.000000;0.866093
4041.000000;0.869414
4040.000000;0.872280
4039.000000;0.874954
4038.000000;0.877924
4037.000000;0.881119
4036.000000;0.884029
4035.000000;0.886360
4034.000000;0.888196
4033.000000;0.889645
4032.000000;0.890752
4031.000000;0.891711
4030.000000;0.892793
4029.000000;0.894030
4028.000000;0.895317
4027.000000;0.896829
4026.000000;0.899013
4025.000000;0.902064
4024.000000;0.905654
4023.000000;0.909217
4022.000000;0.912301
4021.000000;0.914630
4020.000000;0.916186
4019.000000;0.917318
4018.000000;0.918472
4017.000000;0.919707
4016.000000;0.920759
4015.000000;0.921544
4014.000000;0.922221
4013.000000;0.922737
4012.000000;0.922871
4011.000000;0.922806
4010.000000;0.923061
4009.000000;0.923566
4008.000000;0.923443
4007.000000;0.922229
4006.000000;0.920796
4005.000000;0.920381
4004.000000;0.921022
4003.000000;0.921633
4002.000000;0.921507
4001.000000;0.921097
4000.000000;0.921195
3999.000000;0.921921
3998.000000;0.922750
3997.000000;0.923059
3996.000000;0.922312
3995.000000;0.920104
3994.000000;0.916502
3993.000000;0.912347
3992.000000;0.908922
3991.000000;0.907141
3990.000000;0.906974
3989.000000;0.907532
3988.000000;0.907690
3987.000000;0.906823
3986.000000;0.905112
3985.000000;0.903164
3984.000000;0.901236
3983.000000;0.898827
3982.000000;0.895228
3981.000000;0.890634
3980.000000;0.886520
3979.000000;0.884513
3978.000000;0.884784
3977.000000;0.885709
3976.000000;0.885241
3975.000000;0.882611
3974.000000;0.878594
3973.000000;0.874334
3972.000000;0.870374
3971.000000;0.866785
3970.000000;0.863690
3969.000000;0.861282
3968.000000;0.859427
3967.000000;0.857546
3966.000000;0.855039
3965.000000;0.851865
3964.000000;0.848620
3963.000000;0.845935
3962.000000;0.843701
3961.000000;0.841028
3960.000000;0.837155
3959.000000;0.832343
3958.000000;0.827615
3957.000000;0.823632
3956.000000;0.820162
3955.000000;0.816729
3954.000000;0.813339
3953.000000;0.810232
3952.000000;0.807200
3951.000000;0.803606
3950.000000;0.799133
3949.000000;0.794241
3948.000000;0.789718
3947.000000;0.785863
3946.000000;0.782178
3945.000000;0.777877
3944.000000;0.772761
3943.000000;0.767572
3942.000000;0.763314
3941.000000;0.760174
3940.000000;0.757399
3939.000000;0.754314
3938.000000;0.751032
3937.000000;0.747894
3936.000000;0.744496
3935.000000;0.739854
3934.000000;0.733691
3933.000000;0.727014
3932.000000;0.721167
3931.000000;0.716661
3930.000000;0.713221
3929.000000;0.710500
3928.000000;0.708236
3927.000000;0.705934
3926.000000;0.703018
3925.000000;0.699372
3924.000000;0.695317
3923.000000;0.690987
3922.000000;0.686068
3921.000000;0.680242
3920.000000;0.673594
3919.000000;0.666606
3918.000000;0.660015
3917.000000;0.654632
3916.000000;0.650916
3915.000000;0.648559
3914.000000;0.646646
3913.000000;0.644316
3912.000000;0.641133
3911.000000;0.637036
3910.000000;0.632246
3909.000000;0.627229
3908.000000;0.622405
3907.000000;0.617795
3906.000000;0.613140
3905.000000;0.608391
3904.000000;0.603819
3903.000000;0.599563
3902.000000;0.595441
3901.000000;0.591452
3900.000000;0.588084
3899.000000;0.585740
3898.000000;0.584076
3897.000000;0.582218
3896.000000;0.579495
3895.000000;0.575712
3894.000000;0.570955
3893.000000;0.565623
3892.000000;0.560625
3891.000000;0.557064
3890.000000;0.555273
3889.000000;0.554285
3888.000000;0.552609
3887.000000;0.549525
3886.000000;0.545649
3885.000000;0.542204
3884.000000;0.539618
3883.000000;0.537188
3882.000000;0.534189
3881.000000;0.530826
3880.000000;0.527880
3879.000000;0.525619
3878.000000;0.523428
3877.000000;0.520629
3876.000000;0.517206
3875.000000;0.513642
3874.000000;0.510402
3873.000000;0.507540
3872.000000;0.504696
3871.000000;0.501635
3870.000000;0.498760
3869.000000;0.496748
3868.000000;0.495490
3867.000000;0.494009
3866.000000;0.491619
3865.000000;0.488645
3864.000000;0.485803
3863.000000;0.483249
3862.000000;0.480627
3861.000000;0.477911
3860.000000;0.475553
3859.000000;0.473759
3858.000000;0.472095
3857.000000;0.470003
3856.000000;0.467352
3855.000000;0.464313
3854.000000;0.461132
3853.000000;0.458356
3852.000000;0.456208
3851.000000;0.454025
3850.000000;0.451364
3849.000000;0.448661
3848.000000;0.446472
3847.000000;0.444708
3846.000000;0.442794
3845.000000;0.440509
3844.000000;0.438300
3843.000000;0.436669
3842.000000;0.435460
3841.000000;0.433992
3840.000000;0.431788
3839.000000;0.428947
3838.000000;0.425916
3837.000000;0.423154
3836.000000;0.420849
3835.000000;0.418753
3834.000000;0.416397
3833.000000;0.413667
3832.000000;0.411045
3831.000000;0.409001
3830.000000;0.407326
3829.000000;0.405403
3828.000000;0.402972
3827.000000;0.400351
3826.000000;0.397956
3825.000000;0.395837
3824.000000;0.393690
3823.000000;0.391177
3822.000000;0.388220
3821.000000;0.385265
3820.000000;0.382881
3819.000000;0.380883
3818.000000;0.378659
3817.000000;0.376086
3816.000000;0.373643
3815.000000;0.371669
3814.000000;0.369735
3813.000000;0.367340
3812.000000;0.364830
3811.000000;0.362884
3810.000000;0.361447
3809.000000;0.359723
3808.000000;0.357190
3807.000000;0.354277
3806.000000;0.351721
3805.000000;0.349516
3804.000000;0.347001
3803.000000;0.343769
3802.000000;0.340171
3801.000000;0.337094
3800.000000;0.334951
3799.000000;0.333180
3798.000000;0.331149
3797.000000;0.328951
3796.000000;0.327192
3795.000000;0.326130
3794.000000;0.325134
3793.000000;0.323251
3792.000000;0.320209
3791.000000;0.316627
3790.000000;0.313368
3789.000000;0.310842
3788.000000;0.308850
3787.000000;0.306877
3786.000000;0.304498
3785.000000;0.301698
3784.000000;0.298887
3783.000000;0.296518
3782.000000;0.294636
3781.000000;0.292861
3780.000000;0.290815
3779.000000;0.288489
3778.000000;0.286098
3777.000000;0.283705
3776.000000;0.281210
3775.000000;0.278637
3774.000000;0.276181
3773.000000;0.273906
3772.000000;0.271543
3771.000000;0.268801
3770.000000;0.265808
3769.000000;0.262996
3768.000000;0.260515
3767.000000;0.258045
3766.000000;0.255242
3765.000000;0.252156
3764.000000;0.249115
3763.000000;0.246359
3762.000000;0.243952
3761.000000;0.241861
3760.000000;0.239884
3759.000000;0.237649
3758.000000;0.234945
3757.000000;0.231988
3756.000000;0.229163
3755.000000;0.226580
3754.000000;0.224083
3753.000000;0.221581
3752.000000;0.219140
3751.000000;0.216815
3750.000000;0.214620
3749.000000;0.212532
3748.000000;0.210415
3747.000000;0.208066
3746.000000;0.205450
3745.000000;0.202809
3744.000000;0.200472
3743.000000;0.198159
3742.000000;0.195150
3741.000000;0.191657
3740.000000;0.188602
3739.000000;0.186133
3738.000000;0.183462
3737.000000;0.180078
3736.000000;0.176483
3735.000000;0.173424
3734.000000;0.170862
3733.000000;0.168184
3732.000000;0.165125
3731.000000;0.161917
3730.000000;0.158854
3729.000000;0.156079
3728.000000;0.153537
3727.000000;0.150940
3726.000000;0.147983
3725.000000;0.144652
3724.000000;0.141224
3723.000000;0.138003
3722.000000;0.135137
3721.000000;0.132724
3720.000000;0.130736
3719.000000;0.128742
3718.000000;0.126126
3717.000000;0.122811
3716.000000;0.119448
3715.000000;0.116661
3714.000000;0.114334
3713.000000;0.111783
3712.000000;0.108469
3711.000000;0.104422
3710.000000;0.100110
3709.000000;0.096099
3708.000000;0.092729
3707.000000;0.089839
3706.000000;0.086913
3705.000000;0.083643
3704.000000;0.080175
3703.000000;0.076812
3702.000000;0.073708
3701.000000;0.070923
3700.000000;0.068361
3699.000000;0.065569
3698.000000;0.062035
3697.000000;0.057889
3696.000000;0.053958
3695.000000;0.050916
3694.000000;0.048662
3693.000000;0.046650
3692.000000;0.044434
3691.000000;0.041744
3690.000000;0.038479
3689.000000;0.034948
3688.000000;0.031698
3687.000000;0.028773
3686.000000;0.025568
3685.000000;0.021692
3684.000000;0.017594
3683.000000;0.014031
3682.000000;0.011137
3681.000000;0.008378
3680.000000;0.005327
3679.000000;0.002019
3678.000000;-0.001432
3677.000000;-0.005039
3676.000000;-0.008624
3675.000000;-0.011755
3674.000000;-0.014633
3673.000000;-0.018189
3672.000000;-0.022717
3671.000000;-0.027461
3670.000000;-0.031463
3669.000000;-0.034434
3668.000000;-0.037003
3667.000000;-0.039917
3666.000000;-0.043289
3665.000000;-0.046877
3664.000000;-0.050641
3663.000000;-0.054728
3662.000000;-0.058949
3661.000000;-0.062635
3660.000000;-0.065319
3659.000000;-0.067451
3658.000000;-0.070040
3657.000000;-0.073537
3656.000000;-0.077405
3655.000000;-0.080976
3654.000000;-0.084284
3653.000000;-0.087746
3652.000000;-0.091580
3651.000000;-0.095790
3650.000000;-0.100229
3649.000000;-0.104465
3648.000000;-0.108064
3647.000000;-0.111117
3646.000000;-0.114224
3645.000000;-0.117834
3644.000000;-0.121756
3643.000000;-0.125468
3642.000000;-0.128760
3641.000000;-0.131923
3640.000000;-0.135428
3639.000000;-0.139493
3638.000000;-0.143867
3637.000000;-0.148026
3636.000000;-0.151663
3635.000000;-0.154918
3634.000000;-0.158016
3633.000000;-0.160945
3632.000000;-0.163781
3631.000000;-0.167051
3630.000000;-0.171209
3629.000000;-0.175647
3628.000000;-0.179109
3627.000000;-0.181506
3626.000000;-0.184007
3625.000000;-0.187260
3624.000000;-0.190762
3623.000000;-0.193936
3622.000000;-0.197040
3621.000000;-0.200627
3620.000000;-0.204626
3619.000000;-0.208548
3618.000000;-0.212243
3617.000000;-0.215882
3616.000000;-0.219369
3615.000000;-0.222375
3614.000000;-0.224824
3613.000000;-0.226868
3612.000000;-0.228701
3611.000000;-0.230823
3610.000000;-0.234020
3609.000000;-0.238403
3608.000000;-0.242751
3607.000000;-0.245603
3606.000000;-0.246996
3605.000000;-0.248455
3604.000000;-0.251267
3603.000000;-0.255324
3602.000000;-0.259633
3601.000000;-0.263302
3600.000000;-0.265903
3599.000000;-0.267486
3598.000000;-0.268587
3597.000000;-0.269972
3596.000000;-0.272069
3595.000000;-0.274709
3594.000000;-0.277416
3593.000000;-0.279820
3592.000000;-0.281738
3591.000000;-0.283154
3590.000000;-0.284322
3589.000000;-0.285674
3588.000000;-0.287408
3587.000000;-0.289318
3586.000000;-0.291172
3585.000000;-0.293001
3584.000000;-0.294874
3583.000000;-0.296676
3582.000000;-0.298170
3581.000000;-0.299134
3580.000000;-0.299536
3579.000000;-0.299716
3578.000000;-0.300271
3577.000000;-0.301540
3576.000000;-0.303244
3575.000000;-0.304765
3574.000000;-0.305664
3573.000000;-0.305815
3572.000000;-0.305289
3571.000000;-0.304416
3570.000000;-0.303838
3569.000000;-0.304099
3568.000000;-0.305058
3567.000000;-0.305940
3566.000000;-0.306121
3565.000000;-0.305698
3564.000000;-0.305212
3563.000000;-0.305066
3562.000000;-0.305254
3561.000000;-0.305382
3560.000000;-0.304934
3559.000000;-0.303765
3558.000000;-0.302391
3557.000000;-0.301592
3556.000000;-0.301710
3555.000000;-0.302397
3554.000000;-0.302942
3553.000000;-0.302692
3552.000000;-0.301363
3551.000000;-0.299278
3550.000000;-0.297238
3549.000000;-0.295891
3548.000000;-0.295163
3547.000000;-0.294435
3546.000000;-0.293167
3545.000000;-0.291226
3544.000000;-0.288835
3543.000000;-0.286467
3542.000000;-0.284682
3541.000000;-0.283717
3540.000000;-0.283167
3539.000000;-0.282287
3538.000000;-0.280664
3537.000000;-0.278463
3536.000000;-0.276093
3535.000000;-0.273865
3534.000000;-0.271950
3533.000000;-0.270400
3532.000000;-0.269104
3531.000000;-0.267848
3530.000000;-0.266424
3529.000000;-0.264658
3528.000000;-0.262432
3527.000000;-0.259843
3526.000000;-0.257267
3525.000000;-0.255055
3524.000000;-0.253201
3523.000000;-0.251394
3522.000000;-0.249336
3521.000000;-0.246901
3520.000000;-0.244187
3519.000000;-0.241574
3518.000000;-0.239508
3517.000000;-0.237939
3516.000000;-0.236153
3515.000000;-0.233533
3514.000000;-0.230356
3513.000000;-0.227475
3512.000000;-0.225279
3511.000000;-0.223361
3510.000000;-0.221237
3509.000000;-0.218933
3508.000000;-0.216694
3507.000000;-0.214502
3506.000000;-0.212125
3505.000000;-0.209480
3504.000000;-0.206731
3503.000000;-0.204188
3502.000000;-0.202189
3501.000000;-0.200884
3500.000000;-0.199902
3499.000000;-0.198403
3498.000000;-0.195700
3497.000000;-0.191877
3496.000000;-0.187784
3495.000000;-0.184418
3494.000000;-0.182211
3493.000000;-0.180797
3492.000000;-0.179447
3491.000000;-0.177769
3490.000000;-0.175919
3489.000000;-0.174120
3488.000000;-0.172185
3487.000000;-0.169778
3486.000000;-0.166978
3485.000000;-0.164186
3484.000000;-0.161488
3483.000000;-0.158550
3482.000000;-0.155326
3481.000000;-0.152441
3480.000000;-0.150524
3479.000000;-0.149338
3478.000000;-0.147973
3477.000000;-0.145872
3476.000000;-0.143383
3475.000000;-0.141239
3474.000000;-0.139680
3473.000000;-0.138208
3472.000000;-0.136086
3471.000000;-0.133008
3470.000000;-0.129382
3469.000000;-0.126036
3468.000000;-0.123591
3467.000000;-0.122002
3466.000000;-0.120686
3465.000000;-0.119119
3464.000000;-0.117287
3463.000000;-0.115485
3462.000000;-0.113816
3461.000000;-0.112077
3460.000000;-0.110190
3459.000000;-0.108458
3458.000000;-0.107152
3457.000000;-0.105966
3456.000000;-0.104208
3455.000000;-0.101555
3454.000000;-0.098422
3453.000000;-0.095561
3452.000000;-0.093482
3451.000000;-0.092241
3450.000000;-0.091470
3449.000000;-0.090478
3448.000000;-0.088602
3447.000000;-0.085801
3446.000000;-0.082792
3445.000000;-0.080356
3444.000000;-0.078552
3443.000000;-0.076791
3442.000000;-0.074606
3441.000000;-0.072154
3440.000000;-0.069992
3439.000000;-0.068496
3438.000000;-0.067516
3437.000000;-0.066491
3436.000000;-0.064924
3435.000000;-0.062818
3434.000000;-0.060570
3433.000000;-0.058462
3432.000000;-0.056452
3431.000000;-0.054550
3430.000000;-0.053074
3429.000000;-0.052222
3428.000000;-0.051560
3427.000000;-0.050321
3426.000000;-0.048198
3425.000000;-0.045613
3424.000000;-0.043245
3423.000000;-0.041510
3422.000000;-0.040428
3421.000000;-0.039643
3420.000000;-0.038492
3419.000000;-0.036400
3418.000000;-0.033463
3417.000000;-0.030540
3416.000000;-0.028588
3415.000000;-0.027823
3414.000000;-0.027586
3413.000000;-0.026988
3412.000000;-0.025649
3411.000000;-0.023851
3410.000000;-0.022036
3409.000000;-0.020279
3408.000000;-0.018367
3407.000000;-0.016321
3406.000000;-0.014513
3405.000000;-0.013168
3404.000000;-0.011998
3403.000000;-0.010622
3402.000000;-0.009184
3401.000000;-0.008236
3400.000000;-0.007993
3399.000000;-0.007928
3398.000000;-0.007158
3397.000000;-0.005165
3396.000000;-0.002225
3395.000000;0.000750
3394.000000;0.002890
3393.000000;0.004084
3392.000000;0.004991
3391.000000;0.006253
3390.000000;0.007848
3389.000000;0.009374
3388.000000;0.010738
3387.000000;0.012194
3386.000000;0.013784
3385.000000;0.015195
3384.000000;0.016320
3383.000000;0.017563
3382.000000;0.019323
3381.000000;0.021374
3380.000000;0.023104
3379.000000;0.024255
3378.000000;0.025139
3377.000000;0.026086
3376.000000;0.027024
3375.000000;0.027748
3374.000000;0.028414
3373.000000;0.029469
3372.000000;0.031064
3371.000000;0.032762
3370.000000;0.033980
3369.000000;0.034631
3368.000000;0.035175
3367.000000;0.036101
3366.000000;0.037501
3365.000000;0.039100
3364.000000;0.040543
3363.000000;0.041657
3362.000000;0.042599
3361.000000;0.043804
3360.000000;0.045582
3359.000000;0.047710
3358.000000;0.049590
3357.000000;0.050885
3356.000000;0.051788
3355.000000;0.052616
3354.000000;0.053403
3353.000000;0.054059
3352.000000;0.054718
3351.000000;0.055652
3350.000000;0.056952
3349.000000;0.058447
3348.000000;0.059909
3347.000000;0.061208
3346.000000;0.062334
3345.000000;0.063391
3344.000000;0.064478
3343.000000;0.065496
3342.000000;0.066241
3341.000000;0.066770
3340.000000;0.067478
3339.000000;0.068637
3338.000000;0.070021
3337.000000;0.071174
3336.000000;0.071876
3335.000000;0.072192
3334.000000;0.072270
3333.000000;0.072368
3332.000000;0.072879
3331.000000;0.074018
3330.000000;0.075560
3329.000000;0.077136
3328.000000;0.078677
3327.000000;0.080270
3326.000000;0.081728
3325.000000;0.082722
3324.000000;0.083330
3323.000000;0.084045
3322.000000;0.085150
3321.000000;0.086451
3320.000000;0.087710
3319.000000;0.088974
3318.000000;0.090298
3317.000000;0.091471
3316.000000;0.092272
3315.000000;0.092820
3314.000000;0.093400
3313.000000;0.094089
3312.000000;0.094769
3311.000000;0.095409
3310.000000;0.096080
3309.000000;0.096715
3308.000000;0.097106
3307.000000;0.097220
3306.000000;0.097394
3305.000000;0.098085
3304.000000;0.099424
3303.000000;0.101087
3302.000000;0.102599
3301.000000;0.103733
3300.000000;0.104604
3299.000000;0.105445
3298.000000;0.106387
3297.000000;0.107456
3296.000000;0.108614
3295.000000;0.109760
3294.000000;0.110813
3293.000000;0.111813
3292.000000;0.112792
3291.000000;0.113533
3290.000000;0.113694
3289.000000;0.113318
3288.000000;0.113043
3287.000000;0.113560
3286.000000;0.114920
3285.000000;0.116550
3284.000000;0.117860
3283.000000;0.118601
3282.000000;0.118754
3281.000000;0.118437
3280.000000;0.118034
3279.000000;0.118138
3278.000000;0.119121
3277.000000;0.120760
3276.000000;0.122368
3275.000000;0.123337
3274.000000;0.123607
3273.000000;0.123657
3272.000000;0.124023
3271.000000;0.124777
3270.000000;0.125541
3269.000000;0.126081
3268.000000;0.126705
3267.000000;0.127859
3266.000000;0.129412
3265.000000;0.130660
3264.000000;0.131099
3263.000000;0.131009
3262.000000;0.131118
3261.000000;0.131851
3260.000000;0.133016
3259.000000;0.134142
3258.000000;0.134983
3257.000000;0.135721
3256.000000;0.136740
3255.000000;0.138169
3254.000000;0.139661
3253.000000;0.140712
3252.000000;0.141191
3251.000000;0.141468
3250.000000;0.141937
3249.000000;0.142561
3248.000000;0.142964
3247.000000;0.142893
3246.000000;0.142523
3245.000000;0.142356
3244.000000;0.142889
3243.000000;0.144279
3242.000000;0.146158
3241.000000;0.147739
3240.000000;0.148319
3239.000000;0.147862
3238.000000;0.147077
3237.000000;0.146843
3236.000000;0.147495
3235.000000;0.148651
3234.000000;0.149723
3233.000000;0.150511
3232.000000;0.151282
3231.000000;0.152313
3230.000000;0.153540
3229.000000;0.154673
3228.000000;0.155510
3227.000000;0.156030
3226.000000;0.156255
3225.000000;0.156228
3224.000000;0.156154
3223.000000;0.156403
3222.000000;0.157224
3221.000000;0.158466
3220.000000;0.159669
3219.000000;0.160474
3218.000000;0.160882
3217.000000;0.161084
3216.000000;0.161177
3215.000000;0.161184
3214.000000;0.161226
3213.000000;0.161432
3212.000000;0.161688
3211.000000;0.161754
3210.000000;0.161719
3209.000000;0.162056
3208.000000;0.163021
3207.000000;0.164266
3206.000000;0.165295
3205.000000;0.166094
3204.000000;0.166942
3203.000000;0.167737
3202.000000;0.168026
3201.000000;0.167759
3200.000000;0.167554
3199.000000;0.167997
3198.000000;0.169022
3197.000000;0.170189
3196.000000;0.171257
3195.000000;0.172222
3194.000000;0.173001
3193.000000;0.173424
3192.000000;0.173490
3191.000000;0.173420
3190.000000;0.173484
3189.000000;0.173886
3188.000000;0.174699
3187.000000;0.175729
3186.000000;0.176541
3185.000000;0.176835
3184.000000;0.176774
3183.000000;0.176828
3182.000000;0.177365
3181.000000;0.178462
3180.000000;0.179955
3179.000000;0.181474
3178.000000;0.182583
3177.000000;0.183133
3176.000000;0.183450
3175.000000;0.183978
3174.000000;0.184752
3173.000000;0.185395
3172.000000;0.185566
3171.000000;0.185231
3170.000000;0.184556
3169.000000;0.183802
3168.000000;0.183353
3167.000000;0.183593
3166.000000;0.184559
3165.000000;0.185819
3164.000000;0.186789
3163.000000;0.187164
3162.000000;0.187041
3161.000000;0.186719
3160.000000;0.186495
3159.000000;0.186603
3158.000000;0.187199
3157.000000;0.188313
3156.000000;0.189787
3155.000000;0.191233
3154.000000;0.192162
3153.000000;0.192277
3152.000000;0.191727
3151.000000;0.191076
3150.000000;0.190983
3149.000000;0.191828
3148.000000;0.193487
3147.000000;0.195439
3146.000000;0.197138
3145.000000;0.198334
3144.000000;0.199042
3143.000000;0.199319
3142.000000;0.199187
3141.000000;0.198744
3140.000000;0.198179
3139.000000;0.197647
3138.000000;0.197275
3137.000000;0.197279
3136.000000;0.197849
3135.000000;0.198896
3134.000000;0.200068
3133.000000;0.201048
3132.000000;0.201729
3131.000000;0.202071
3130.000000;0.202057
3129.000000;0.201921
3128.000000;0.202164
3127.000000;0.203078
3126.000000;0.204340
3125.000000;0.205268
3124.000000;0.205486
3123.000000;0.205204
3122.000000;0.204894
3121.000000;0.204845
3120.000000;0.205081
3119.000000;0.205593
3118.000000;0.206490
3117.000000;0.207813
3116.000000;0.209167
3115.000000;0.209788
3114.000000;0.209308
3113.000000;0.208417
3112.000000;0.208380
3111.000000;0.209750
3110.000000;0.211763
3109.000000;0.213146
3108.000000;0.213391
3107.000000;0.213076
3106.000000;0.213099
3105.000000;0.213776
3104.000000;0.214582
3103.000000;0.214692
3102.000000;0.213949
3101.000000;0.213265
3100.000000;0.213765
3099.000000;0.215464
3098.000000;0.217157
3097.000000;0.217831
3096.000000;0.217778
3095.000000;0.217926
3094.000000;0.218482
3093.000000;0.218852
3092.000000;0.218677
3091.000000;0.218319
3090.000000;0.218250
3089.000000;0.218499
3088.000000;0.218849
3087.000000;0.219234
3086.000000;0.219742
3085.000000;0.220428
3084.000000;0.221251
3083.000000;0.222015
3082.000000;0.222413
3081.000000;0.222337
3080.000000;0.222138
3079.000000;0.222329
3078.000000;0.223016
3077.000000;0.223856
3076.000000;0.224536
3075.000000;0.225000
3074.000000;0.225212
3073.000000;0.225112
3072.000000;0.224925
3071.000000;0.225118
3070.000000;0.225823
3069.000000;0.226580
3068.000000;0.226889
3067.000000;0.226828
3066.000000;0.226916
3065.000000;0.227549
3064.000000;0.228738
3063.000000;0.230208
3062.000000;0.231528
3061.000000;0.232318
3060.000000;0.232551
3059.000000;0.232572
3058.000000;0.232644
3057.000000;0.232632
3056.000000;0.232332
3055.000000;0.231935
3054.000000;0.231880
3053.000000;0.232298
3052.000000;0.232904
3051.000000;0.233427
3050.000000;0.233902
3049.000000;0.234489
3048.000000;0.235254
3047.000000;0.236218
3046.000000;0.237412
3045.000000;0.238718
3044.000000;0.239816
3043.000000;0.240490
3042.000000;0.240907
3041.000000;0.241371
3040.000000;0.241852
3039.000000;0.241996
3038.000000;0.241662
3037.000000;0.241243
3036.000000;0.241270
3035.000000;0.241807
3034.000000;0.242429
3033.000000;0.242772
3032.000000;0.242881
3031.000000;0.242940
3030.000000;0.242862
3029.000000;0.242392
3028.000000;0.241586
3027.000000;0.240956
3026.000000;0.241050
3025.000000;0.241990
3024.000000;0.243476
3023.000000;0.245138
3022.000000;0.246739
3021.000000;0.248078
3020.000000;0.248927
3019.000000;0.249204
3018.000000;0.249157
3017.000000;0.249191
3016.000000;0.249493
3015.000000;0.249900
3014.000000;0.250198
3013.000000;0.250437
3012.000000;0.250828
3011.000000;0.251391
3010.000000;0.251852
3009.000000;0.251962
3008.000000;0.251820
3007.000000;0.251835
3006.000000;0.252341
3005.000000;0.253287
3004.000000;0.254311
3003.000000;0.255107
3002.000000;0.255666
3001.000000;0.256136
3000.000000;0.256510
2999.000000;0.256611
2998.000000;0.256432
2997.000000;0.256271
2996.000000;0.256339
2995.000000;0.256431
2994.000000;0.256296
2993.000000;0.256241
2992.000000;0.256933
2991.000000;0.258476
2990.000000;0.260016
2989.000000;0.260559
2988.000000;0.260051
2987.000000;0.259368
2986.000000;0.259376
2985.000000;0.260232
2984.000000;0.261513
2983.000000;0.262739
2982.000000;0.263707
2981.000000;0.264493
2980.000000;0.265252
2979.000000;0.266008
2978.000000;0.266617
2977.000000;0.266952
2976.000000;0.267077
2975.000000;0.267178
2974.000000;0.267356
2973.000000;0.267583
2972.000000;0.267811
2971.000000;0.268046
2970.000000;0.268291
2969.000000;0.268544
2968.000000;0.268845
2967.000000;0.269274
2966.000000;0.269847
2965.000000;0.270476
2964.000000;0.271020
2963.000000;0.271381
2962.000000;0.271566
2961.000000;0.271712
2960.000000;0.272007
2959.000000;0.272548
2958.000000;0.273250
2957.000000;0.273922
2956.000000;0.274385
2955.000000;0.274577
2954.000000;0.274630
2953.000000;0.274865
2952.000000;0.275582
2951.000000;0.276750
2950.000000;0.277953
2949.000000;0.278726
2948.000000;0.278988
2947.000000;0.279100
2946.000000;0.279503
2945.000000;0.280311
2944.000000;0.281203
2943.000000;0.281663
2942.000000;0.281407
2941.000000;0.280657
2940.000000;0.279984
2939.000000;0.279872
2938.000000;0.280426
2937.000000;0.281437
2936.000000;0.282587
2935.000000;0.283582
2934.000000;0.284246
2933.000000;0.284621
2932.000000;0.284885
2931.000000;0.285100
2930.000000;0.285164
2929.000000;0.285119
2928.000000;0.285350
2927.000000;0.286232
2926.000000;0.287585
2925.000000;0.288702
2924.000000;0.288996
2923.000000;0.288496
2922.000000;0.287705
2921.000000;0.287153
2920.000000;0.287156
2919.000000;0.287801
2918.000000;0.288853
2917.000000;0.289751
2916.000000;0.290047
2915.000000;0.289966
2914.000000;0.290316
2913.000000;0.291605
2912.000000;0.293334
2911.000000;0.294411
2910.000000;0.294296
2909.000000;0.293541
2908.000000;0.293111
2907.000000;0.293430
2906.000000;0.294247
2905.000000;0.295144
2904.000000;0.295887
2903.000000;0.296362
2902.000000;0.296519
2901.000000;0.296495
2900.000000;0.296604
2899.000000;0.297067
2898.000000;0.297809
2897.000000;0.298558
2896.000000;0.299096
2895.000000;0.299445
2894.000000;0.299876
2893.000000;0.300739
2892.000000;0.302107
2891.000000;0.303577
2890.000000;0.304560
2889.000000;0.304836
2888.000000;0.304704
2887.000000;0.304581
2886.000000;0.304620
2885.000000;0.304750
2884.000000;0.304900
2883.000000;0.305059
2882.000000;0.305267
2881.000000;0.305673
2880.000000;0.306493
2879.000000;0.307757
2878.000000;0.309120
2877.000000;0.310022
2876.000000;0.310101
2875.000000;0.309500
2874.000000;0.308806
2873.000000;0.308634
2872.000000;0.309165
2871.000000;0.310071
2870.000000;0.310938
2869.000000;0.311699
2868.000000;0.312526
2867.000000;0.313393
2866.000000;0.314068
2865.000000;0.314528
2864.000000;0.315089
2863.000000;0.315962
2862.000000;0.316910
2861.000000;0.317513
2860.000000;0.317646
2859.000000;0.317544
2858.000000;0.317547
2857.000000;0.317907
2856.000000;0.318686
2855.000000;0.319648
2854.000000;0.320345
2853.000000;0.320487
2852.000000;0.320235
2851.000000;0.320058
2850.000000;0.320380
2849.000000;0.321366
2848.000000;0.322836
2847.000000;0.324308
2846.000000;0.325320
2845.000000;0.325877
2844.000000;0.326421
2843.000000;0.327183
2842.000000;0.327780
2841.000000;0.327713
2840.000000;0.327143
2839.000000;0.326846
2838.000000;0.327393
2837.000000;0.328628
2836.000000;0.329923
2835.000000;0.330754
2834.000000;0.331026
2833.000000;0.331027
2832.000000;0.331191
2831.000000;0.331768
2830.000000;0.332594
2829.000000;0.333169
2828.000000;0.333025
2827.000000;0.332138
2826.000000;0.331086
2825.000000;0.330740
2824.000000;0.331584
2823.000000;0.333207
2822.000000;0.334636
2821.000000;0.335327
2820.000000;0.335673
2819.000000;0.336387
2818.000000;0.337582
2817.000000;0.338725
2816.000000;0.339351
2815.000000;0.339475
2814.000000;0.339355
2813.000000;0.339219
2812.000000;0.339353
2811.000000;0.340084
2810.000000;0.341441
2809.000000;0.342987
2808.000000;0.344161
2807.000000;0.344756
2806.000000;0.344941
2805.000000;0.344959
2804.000000;0.344982
2803.000000;0.345183
2802.000000;0.345702
2801.000000;0.346437
2800.000000;0.347018
2799.000000;0.347168
2798.000000;0.347063
2797.000000;0.347199
2796.000000;0.347865
2795.000000;0.348870
2794.000000;0.349837
2793.000000;0.350609
2792.000000;0.351229
2791.000000;0.351626
2790.000000;0.351641
2789.000000;0.351411
2788.000000;0.351409
2787.000000;0.351909
2786.000000;0.352628
2785.000000;0.353140
2784.000000;0.353487
2783.000000;0.354129
2782.000000;0.355296
2781.000000;0.356639
2780.000000;0.357584
2779.000000;0.357910
2778.000000;0.357933
2777.000000;0.358193
2776.000000;0.358979
2775.000000;0.360075
2774.000000;0.360958
2773.000000;0.361307
2772.000000;0.361272
2771.000000;0.361227
2770.000000;0.361377
2769.000000;0.361684
2768.000000;0.362040
2767.000000;0.362357
2766.000000;0.362575
2765.000000;0.362755
2764.000000;0.363062
2763.000000;0.363521
2762.000000;0.363925
2761.000000;0.364213
2760.000000;0.364787
2759.000000;0.366070
2758.000000;0.367784
2757.000000;0.369056
2756.000000;0.369392
2755.000000;0.369248
2754.000000;0.369432
2753.000000;0.370241
2752.000000;0.371406
2751.000000;0.372606
2750.000000;0.373661
2749.000000;0.374336
2748.000000;0.374381
2747.000000;0.373894
2746.000000;0.373385
2745.000000;0.373325
2744.000000;0.373746
2743.000000;0.374359
2742.000000;0.374933
2741.000000;0.375461
2740.000000;0.376023
2739.000000;0.376634
2738.000000;0.377244
2737.000000;0.377794
2736.000000;0.378286
2735.000000;0.378846
2734.000000;0.379675
2733.000000;0.380796
2732.000000;0.381824
2731.000000;0.382159
2730.000000;0.381583
2729.000000;0.380594
2728.000000;0.379996
2727.000000;0.380190
2726.000000;0.380983
2725.000000;0.382012
2724.000000;0.383143
2723.000000;0.384393
2722.000000;0.385709
2721.000000;0.386976
2720.000000;0.388138
2719.000000;0.389132
2718.000000;0.389808
2717.000000;0.390083
2716.000000;0.390118
2715.000000;0.390176
2714.000000;0.390340
2713.000000;0.390491
2712.000000;0.390525
2711.000000;0.390450
2710.000000;0.390380
2709.000000;0.390595
2708.000000;0.391511
2707.000000;0.393308
2706.000000;0.395537
2705.000000;0.397303
2704.000000;0.397965
2703.000000;0.397542
2702.000000;0.396487
2701.000000;0.395334
2700.000000;0.394622
2699.000000;0.394787
2698.000000;0.395829
2697.000000;0.397183
2696.000000;0.398214
2695.000000;0.398845
2694.000000;0.399530
2693.000000;0.400609
2692.000000;0.401899
2691.000000;0.402937
2690.000000;0.403498
2689.000000;0.403777
2688.000000;0.404096
2687.000000;0.404535
2686.000000;0.404886
2685.000000;0.404990
2684.000000;0.405059
2683.000000;0.405534
2682.000000;0.406574
2681.000000;0.407804
2680.000000;0.408627
2679.000000;0.408746
2678.000000;0.408337
2677.000000;0.407867
2676.000000;0.407873
2675.000000;0.408702
2674.000000;0.410174
2673.000000;0.411518
2672.000000;0.411973
2671.000000;0.411602
2670.000000;0.411297
2669.000000;0.411880
2668.000000;0.413359
2667.000000;0.415127
2666.000000;0.416668
2665.000000;0.417861
2664.000000;0.418743
2663.000000;0.419305
2662.000000;0.419584
2661.000000;0.419757
2660.000000;0.420020
2659.000000;0.420416
2658.000000;0.420829
2657.000000;0.421104
2656.000000;0.421206
2655.000000;0.421325
2654.000000;0.421777
2653.000000;0.422702
2652.000000;0.423819
2651.000000;0.424602
2650.000000;0.424736
2649.000000;0.424385
2648.000000;0.424050
2647.000000;0.424251
2646.000000;0.425264
2645.000000;0.426926
2644.000000;0.428609
2643.000000;0.429557
2642.000000;0.429493
2641.000000;0.428875
2640.000000;0.428454
2639.000000;0.428598
2638.000000;0.429134
2637.000000;0.429783
2636.000000;0.430540
2635.000000;0.431528
2634.000000;0.432572
2633.000000;0.433166
2632.000000;0.432997
2631.000000;0.432419
2630.000000;0.432211
2629.000000;0.432810
2628.000000;0.433910
2627.000000;0.434886
2626.000000;0.435511
2625.000000;0.436099
2624.000000;0.436974
2623.000000;0.438027
2622.000000;0.438889
2621.000000;0.439354
2620.000000;0.439508
2619.000000;0.439514
2618.000000;0.439476
2617.000000;0.439497
2616.000000;0.439748
2615.000000;0.440335
2614.000000;0.441144
2613.000000;0.441881
2612.000000;0.442315
2611.000000;0.442474
2610.000000;0.442566
2609.000000;0.442781
2608.000000;0.443237
2607.000000;0.444081
2606.000000;0.445450
2605.000000;0.447184
2604.000000;0.448753
2603.000000;0.449684
2602.000000;0.450067
2601.000000;0.450455
2600.000000;0.451239
2599.000000;0.452288
2598.000000;0.453197
2597.000000;0.453718
2596.000000;0.453874
2595.000000;0.453820
2594.000000;0.453737
2593.000000;0.453771
2592.000000;0.454028
2591.000000;0.454619
2590.000000;0.455650
2589.000000;0.457011
2588.000000;0.458227
2587.000000;0.458763
2586.000000;0.458581
2585.000000;0.458199
2584.000000;0.458118
2583.000000;0.458392
2582.000000;0.458807
2581.000000;0.459229
2580.000000;0.459653
2579.000000;0.460122
2578.000000;0.460764
2577.000000;0.461686
2576.000000;0.462657
2575.000000;0.463161
2574.000000;0.463034
2573.000000;0.462840
2572.000000;0.463271
2571.000000;0.464302
2570.000000;0.465277
2569.000000;0.465766
2568.000000;0.466014
2567.000000;0.466511
2566.000000;0.467438
2565.000000;0.468635
2564.000000;0.469901
2563.000000;0.471180
2562.000000;0.472508
2561.000000;0.473790
2560.000000;0.474663
2559.000000;0.474744
2558.000000;0.474131
2557.000000;0.473494
2556.000000;0.473472
2555.000000;0.474088
2554.000000;0.474911
2553.000000;0.475614
2552.000000;0.476094
2551.000000;0.476280
2550.000000;0.476227
2549.000000;0.476332
2548.000000;0.477026
2547.000000;0.478198
2546.000000;0.479286
2545.000000;0.479960
2544.000000;0.480361
2543.000000;0.480625
2542.000000;0.480625
2541.000000;0.480350
2540.000000;0.480176
2539.000000;0.480544
2538.000000;0.481546
2537.000000;0.482907
2536.000000;0.484159
2535.000000;0.484795
2534.000000;0.484592
2533.000000;0.483925
2532.000000;0.483499
2531.000000;0.483695
2530.000000;0.484409
2529.000000;0.485515
2528.000000;0.487032
2527.000000;0.488697
2526.000000;0.489847
2525.000000;0.490113
2524.000000;0.489920
2523.000000;0.489980
2522.000000;0.490513
2521.000000;0.491248
2520.000000;0.491912
2519.000000;0.492377
2518.000000;0.492553
2517.000000;0.492545
2516.000000;0.492760
2515.000000;0.493466
2514.000000;0.494335
2513.000000;0.494800
2512.000000;0.494817
2511.000000;0.494927
2510.000000;0.495600
2509.000000;0.496824
2508.000000;0.498313
2507.000000;0.499748
2506.000000;0.500783
2505.000000;0.501139
2504.000000;0.500880
2503.000000;0.500426
2502.000000;0.500227
2501.000000;0.500538
2500.000000;0.501457
2499.000000;0.502884
2498.000000;0.504383
2497.000000;0.505341
2496.000000;0.505497
2495.000000;0.505240
2494.000000;0.505269
2493.000000;0.505966
2492.000000;0.507070
2491.000000;0.507890
2490.000000;0.507907
2489.000000;0.507308
2488.000000;0.506884
2487.000000;0.507270
2486.000000;0.508315
2485.000000;0.509320
2484.000000;0.509877
2483.000000;0.510258
2482.000000;0.510974
2481.000000;0.512160
2480.000000;0.513494
2479.000000;0.514581
2478.000000;0.515311
2477.000000;0.515905
2476.000000;0.516602
2475.000000;0.517283
2474.000000;0.517487
2473.000000;0.516934
2472.000000;0.516002
2471.000000;0.515478
2470.000000;0.515846
2469.000000;0.516949
2468.000000;0.518304
2467.000000;0.519518
2466.000000;0.520342
2465.000000;0.520637
2464.000000;0.520510
2463.000000;0.520393
2462.000000;0.520754
2461.000000;0.521691
2460.000000;0.522864
2459.000000;0.523816
2458.000000;0.524310
2457.000000;0.524427
2456.000000;0.524434
2455.000000;0.524618
2454.000000;0.525198
2453.000000;0.526260
2452.000000;0.527644
2451.000000;0.528904
2450.000000;0.529591
2449.000000;0.529706
2448.000000;0.529758
2447.000000;0.530211
2446.000000;0.531006
2445.000000;0.531775
2444.000000;0.532407
2443.000000;0.533082
2442.000000;0.533814
2441.000000;0.534368
2440.000000;0.534747
2439.000000;0.535373
2438.000000;0.536524
2437.000000;0.537835
2436.000000;0.538649
2435.000000;0.538773
2434.000000;0.538581
2433.000000;0.538487
2432.000000;0.538580
2431.000000;0.538808
2430.000000;0.539234
2429.000000;0.539903
2428.000000;0.540601
2427.000000;0.540942
2426.000000;0.540764
2425.000000;0.540369
2424.000000;0.540282
2423.000000;0.540758
2422.000000;0.541589
2421.000000;0.542421
2420.000000;0.543198
2419.000000;0.544149
2418.000000;0.545340
2417.000000;0.546437
2416.000000;0.547026
2415.000000;0.547073
2414.000000;0.546953
2413.000000;0.547088
2412.000000;0.547670
2411.000000;0.548640
2410.000000;0.549767
2409.000000;0.550735
2408.000000;0.551310
2407.000000;0.551517
2406.000000;0.551622
2405.000000;0.551896
2404.000000;0.552410
2403.000000;0.553016
2402.000000;0.553470
2401.000000;0.553594
2400.000000;0.553420
2399.000000;0.553244
2398.000000;0.553485
2397.000000;0.554407
2396.000000;0.555856
2395.000000;0.557254
2394.000000;0.557960
2393.000000;0.557787
2392.000000;0.557214
2391.000000;0.556984
2390.000000;0.557454
2389.000000;0.558376
2388.000000;0.559301
2387.000000;0.560077
2386.000000;0.560840
2385.000000;0.561652
2384.000000;0.562347
2383.000000;0.562745
2382.000000;0.562842
2381.000000;0.562765
2380.000000;0.562674
2379.000000;0.562765
2378.000000;0.563191
2377.000000;0.563852
2376.000000;0.564374
2375.000000;0.564502
2374.000000;0.564461
2373.000000;0.564781
2372.000000;0.565729
2371.000000;0.567010
2370.000000;0.568099
2369.000000;0.568771
2368.000000;0.569210
2367.000000;0.569698
2366.000000;0.570329
2365.000000;0.570974
2364.000000;0.571372
2363.000000;0.571319
2362.000000;0.570924
2361.000000;0.570561
2360.000000;0.570696
2359.000000;0.571585
2358.000000;0.573043
2357.000000;0.574678
2356.000000;0.576049
2355.000000;0.576906
2354.000000;0.577295
2353.000000;0.577416
2352.000000;0.577468
2351.000000;0.577457
2350.000000;0.577544
2349.000000;0.578072
2348.000000;0.579171
2347.000000;0.580494
2346.000000;0.581205
2345.000000;0.580866
2344.000000;0.579878
2343.000000;0.579228
2342.000000;0.579547
2341.000000;0.580504
2340.000000;0.581533
2339.000000;0.582365
2338.000000;0.583198
2337.000000;0.584188
2336.000000;0.585260
2335.000000;0.586212
2334.000000;0.586970
2333.000000;0.587521
2332.000000;0.587935
2331.000000;0.588233
2330.000000;0.588480
2329.000000;0.588605
2328.000000;0.588433
2327.000000;0.588120
2326.000000;0.588015
2325.000000;0.588501
2324.000000;0.589436
2323.000000;0.590465
2322.000000;0.591433
2321.000000;0.592431
2320.000000;0.593595
2319.000000;0.594769
2318.000000;0.595797
2317.000000;0.596611
2316.000000;0.597321
2315.000000;0.597978
2314.000000;0.598544
2313.000000;0.598888
2312.000000;0.598938
2311.000000;0.598844
2310.000000;0.598937
2309.000000;0.599473
2308.000000;0.600325
2307.000000;0.601147
2306.000000;0.601737
2305.000000;0.602237
2304.000000;0.602846
2303.000000;0.603535
2302.000000;0.604088
2301.000000;0.604372
2300.000000;0.604462
2299.000000;0.604566
2298.000000;0.604870
2297.000000;0.605459
2296.000000;0.606260
2295.000000;0.607116
2294.000000;0.607856
2293.000000;0.608399
2292.000000;0.608740
2291.000000;0.609004
2290.000000;0.609442
2289.000000;0.610314
2288.000000;0.611643
2287.000000;0.613185
2286.000000;0.614623
2285.000000;0.615713
2284.000000;0.616261
2283.000000;0.616157
2282.000000;0.615601
2281.000000;0.615099
2280.000000;0.615035
2279.000000;0.615280
2278.000000;0.615453
2277.000000;0.615532
2276.000000;0.615984
2275.000000;0.617169
2274.000000;0.618788
2273.000000;0.620103
2272.000000;0.620658
2271.000000;0.620690
2270.000000;0.620790
2269.000000;0.621280
2268.000000;0.621965
2267.000000;0.622421
2266.000000;0.622434
2265.000000;0.622128
2264.000000;0.621746
2263.000000;0.621460
2262.000000;0.621404
2261.000000;0.621771
2260.000000;0.622734
2259.000000;0.624270
2258.000000;0.626117
2257.000000;0.627904
2256.000000;0.629347
2255.000000;0.630346
2254.000000;0.630953
2253.000000;0.631249
2252.000000;0.631287
2251.000000;0.631211
2250.000000;0.631350
2249.000000;0.632015
2248.000000;0.633108
2247.000000;0.634089
2246.000000;0.634483
2245.000000;0.634343
2244.000000;0.634068
2243.000000;0.633901
2242.000000;0.633812
2241.000000;0.633814
2240.000000;0.634113
2239.000000;0.634823
2238.000000;0.635713
2237.000000;0.636413
2236.000000;0.636856
2235.000000;0.637382
2234.000000;0.638333
2233.000000;0.639610
2232.000000;0.640689
2231.000000;0.641098
2230.000000;0.640850
2229.000000;0.640389
2228.000000;0.640157
2227.000000;0.640293
2226.000000;0.640725
2225.000000;0.641399
2224.000000;0.642311
2223.000000;0.643398
2222.000000;0.644544
2221.000000;0.645674
2220.000000;0.646746
2219.000000;0.647670
2218.000000;0.648370
2217.000000;0.648899
2216.000000;0.649392
2215.000000;0.649898
2214.000000;0.650328
2213.000000;0.650572
2212.000000;0.650573
2211.000000;0.650345
2210.000000;0.650061
2209.000000;0.650083
2208.000000;0.650695
2207.000000;0.651716
2206.000000;0.652557
2205.000000;0.652837
2204.000000;0.652819
2203.000000;0.653092
2202.000000;0.653862
2201.000000;0.654766
2200.000000;0.655367
2199.000000;0.655642
2198.000000;0.655897
2197.000000;0.656377
2196.000000;0.657136
2195.000000;0.658185
2194.000000;0.659493
2193.000000;0.660777
2192.000000;0.661523
2191.000000;0.661466
2190.000000;0.660994
2189.000000;0.660845
2188.000000;0.661408
2187.000000;0.662471
2186.000000;0.663628
2185.000000;0.664667
2184.000000;0.665513
2183.000000;0.666087
2182.000000;0.666457
2181.000000;0.666904
2180.000000;0.667523
2179.000000;0.667902
2178.000000;0.667560
2177.000000;0.666709
2176.000000;0.666211
2175.000000;0.666648
2174.000000;0.667719
2173.000000;0.668709
2172.000000;0.669342
2171.000000;0.669909
2170.000000;0.670675
2169.000000;0.671446
2168.000000;0.671835
2167.000000;0.671794
2166.000000;0.671734
2165.000000;0.672140
2164.000000;0.673126
2163.000000;0.674368
2162.000000;0.675383
2161.000000;0.675843
2160.000000;0.675722
2159.000000;0.675332
2158.000000;0.675272
2157.000000;0.676105
2156.000000;0.677826
2155.000000;0.679659
2154.000000;0.680643
2153.000000;0.680582
2152.000000;0.680283
2151.000000;0.680751
2150.000000;0.682145
2149.000000;0.683591
2148.000000;0.683999
2147.000000;0.683144
2146.000000;0.681910
2145.000000;0.681449
2144.000000;0.682122
2143.000000;0.683333
2142.000000;0.684373
2141.000000;0.685212
2140.000000;0.686240
2139.000000;0.687469
2138.000000;0.688404
2137.000000;0.688748
2136.000000;0.688864
2135.000000;0.689345
2134.000000;0.690336
2133.000000;0.691442
2132.000000;0.692188
2131.000000;0.692397
2130.000000;0.692237
2129.000000;0.692059
2128.000000;0.692150
2127.000000;0.692547
2126.000000;0.693092
2125.000000;0.693695
2124.000000;0.694436
2123.000000;0.695354
2122.000000;0.696264
2121.000000;0.696880
2120.000000;0.697027
2119.000000;0.696736
2118.000000;0.696285
2117.000000;0.696219
2116.000000;0.697039
2115.000000;0.698619
2114.000000;0.700076
2113.000000;0.700591
2112.000000;0.700383
2111.000000;0.700539
2110.000000;0.701760
2109.000000;0.703511
2108.000000;0.704598
2107.000000;0.704491
2106.000000;0.703836
2105.000000;0.703628
2104.000000;0.704156
2103.000000;0.704935
2102.000000;0.705520
2101.000000;0.706073
2100.000000;0.707043
2099.000000;0.708470
2098.000000;0.709859
2097.000000;0.710659
2096.000000;0.710744
2095.000000;0.710437
2094.000000;0.710263
2093.000000;0.710644
2092.000000;0.711611
2091.000000;0.712722
2090.000000;0.713414
2089.000000;0.713532
2088.000000;0.713460
2087.000000;0.713672
2086.000000;0.714293
2085.000000;0.715093
2084.000000;0.715782
2083.000000;0.716235
2082.000000;0.716587
2081.000000;0.717130
2080.000000;0.717946
2079.000000;0.718635
2078.000000;0.718649
2077.000000;0.718030
2076.000000;0.717547
2075.000000;0.717938
2074.000000;0.719205
2073.000000;0.720842
2072.000000;0.722475
2071.000000;0.723952
2070.000000;0.724975
2069.000000;0.725154
2068.000000;0.724542
2067.000000;0.723830
2066.000000;0.723778
2065.000000;0.724556
2064.000000;0.725690
2063.000000;0.726536
2062.000000;0.726780
2061.000000;0.726597
2060.000000;0.726415
2059.000000;0.726507
2058.000000;0.726831
2057.000000;0.727281
2056.000000;0.727952
2055.000000;0.729003
2054.000000;0.730330
2053.000000;0.731583
2052.000000;0.732527
2051.000000;0.733200
2050.000000;0.733702
2049.000000;0.734043
2048.000000;0.734263
2047.000000;0.734520
2046.000000;0.734936
2045.000000;0.735499
2044.000000;0.736216
2043.000000;0.737195
2042.000000;0.738445
2041.000000;0.739678
2040.000000;0.740490
2039.000000;0.740758
2038.000000;0.740729
2037.000000;0.740743
2036.000000;0.740983
2035.000000;0.741469
2034.000000;0.742132
2033.000000;0.742797
2032.000000;0.743205
2031.000000;0.743221
2030.000000;0.743050
2029.000000;0.743124
2028.000000;0.743721
2027.000000;0.744723
2026.000000;0.745832
2025.000000;0.746939
2024.000000;0.748120
2023.000000;0.749264
2022.000000;0.749871
2021.000000;0.749452
2020.000000;0.748139
2019.000000;0.746778
2018.000000;0.746351
2017.000000;0.747242
2016.000000;0.749002
2015.000000;0.750769
2014.000000;0.751977
2013.000000;0.752735
2012.000000;0.753539
2011.000000;0.754684
2010.000000;0.755967
2009.000000;0.756906
2008.000000;0.757097
2007.000000;0.756453
2006.000000;0.755323
2005.000000;0.754490
2004.000000;0.754783
2003.000000;0.756383
2002.000000;0.758497
2001.000000;0.759942
2000.000000;0.760206
1999.000000;0.759829
1998.000000;0.759733
1997.000000;0.760335
1996.000000;0.761336
1995.000000;0.762237
1994.000000;0.762878
1993.000000;0.763435
1992.000000;0.764011
1991.000000;0.764401
1990.000000;0.764374
1989.000000;0.764076
1988.000000;0.763972
1987.000000;0.764370
1986.000000;0.765158
1985.000000;0.766045
1984.000000;0.766849
1983.000000;0.767485
1982.000000;0.767918
1981.000000;0.768333
1980.000000;0.769159
1979.000000;0.770624
1978.000000;0.772338
1977.000000;0.773588
1976.000000;0.774059
1975.000000;0.774065
1974.000000;0.774064
1973.000000;0.774211
1972.000000;0.774452
1971.000000;0.774812
1970.000000;0.775392
1969.000000;0.776172
1968.000000;0.776911
1967.000000;0.777274
1966.000000;0.777068
1965.000000;0.776485
1964.000000;0.776121
1963.000000;0.776562
1962.000000;0.777834
1961.000000;0.779326
1960.000000;0.780318
1959.000000;0.780589
1958.000000;0.780513
1957.000000;0.780679
1956.000000;0.781458
1955.000000;0.782801
1954.000000;0.784293
1953.000000;0.785423
1952.000000;0.785906
1951.000000;0.785895
1950.000000;0.785918
1949.000000;0.786547
1948.000000;0.787943
1947.000000;0.789587
1946.000000;0.790608
1945.000000;0.790550
1944.000000;0.789789
1943.000000;0.789070
1942.000000;0.788790
1941.000000;0.788834
1940.000000;0.788963
1939.000000;0.789076
1938.000000;0.789154
1937.000000;0.789252
1936.000000;0.789581
1935.000000;0.790369
1934.000000;0.791535
1933.000000;0.792718
1932.000000;0.793660
1931.000000;0.794374
1930.000000;0.794897
1929.000000;0.795172
1928.000000;0.795266
1927.000000;0.795479
1926.000000;0.796066
1925.000000;0.796972
1924.000000;0.797964
1923.000000;0.798876
1922.000000;0.799660
1921.000000;0.800332
1920.000000;0.801012
1919.000000;0.801869
1918.000000;0.802886
1917.000000;0.803787
1916.000000;0.804327
1915.000000;0.804592
1914.000000;0.804964
1913.000000;0.805821
1912.000000;0.807216
1911.000000;0.808707
1910.000000;0.809605
1909.000000;0.809647
1908.000000;0.809384
1907.000000;0.809596
1906.000000;0.810353
1905.000000;0.811021
1904.000000;0.811266
1903.000000;0.811582
1902.000000;0.812530
1901.000000;0.813877
1900.000000;0.814843
1899.000000;0.815038
1898.000000;0.814750
1897.000000;0.814457
1896.000000;0.814408
1895.000000;0.814608
1894.000000;0.814883
1893.000000;0.814995
1892.000000;0.814913
1891.000000;0.814935
1890.000000;0.815383
1889.000000;0.816278
1888.000000;0.817428
1887.000000;0.818680
1886.000000;0.819839
1885.000000;0.820516
1884.000000;0.820420
1883.000000;0.819777
1882.000000;0.819183
1881.000000;0.819062
1880.000000;0.819460
1879.000000;0.820161
1878.000000;0.820755
1877.000000;0.820813
1876.000000;0.820508
1875.000000;0.820858
1874.000000;0.822782
1873.000000;0.825877
1872.000000;0.828616
1871.000000;0.829915
1870.000000;0.830085
1869.000000;0.830044
1868.000000;0.830167
1867.000000;0.830273
1866.000000;0.830362
1865.000000;0.830775
1864.000000;0.831681
1863.000000;0.832794
1862.000000;0.833622
1861.000000;0.833790
1860.000000;0.833219
1859.000000;0.832361
1858.000000;0.832150
1857.000000;0.833278
1856.000000;0.835442
1855.000000;0.837597
1854.000000;0.839008
1853.000000;0.839774
1852.000000;0.840262
1851.000000;0.840463
1850.000000;0.840175
1849.000000;0.839500
1848.000000;0.838775
1847.000000;0.838208
1846.000000;0.837949
1845.000000;0.838358
1844.000000;0.839766
1843.000000;0.842011
1842.000000;0.844572
1841.000000;0.847064
1840.000000;0.849172
1839.000000;0.850243
1838.000000;0.849689
1837.000000;0.848106
1836.000000;0.847246
1835.000000;0.848094
1834.000000;0.849270
1833.000000;0.848359
1832.000000;0.845077
1831.000000;0.842033
1830.000000;0.841891
1829.000000;0.844819
1828.000000;0.848969
1827.000000;0.852607
1826.000000;0.855121
1825.000000;0.856391
1824.000000;0.856376
1823.000000;0.855560
1822.000000;0.854962
1821.000000;0.855287
1820.000000;0.856383
1819.000000;0.857642
1818.000000;0.858555
1817.000000;0.858834
1816.000000;0.858492
1815.000000;0.858023
1814.000000;0.858120
1813.000000;0.858979
1812.000000;0.860152
1811.000000;0.861204
1810.000000;0.862164
1809.000000;0.863170
1808.000000;0.864040
1807.000000;0.864499
1806.000000;0.864617
1805.000000;0.864723
1804.000000;0.865009
1803.000000;0.865446
1802.000000;0.865982
1801.000000;0.866579
1800.000000;0.867063
1799.000000;0.867161
1798.000000;0.866768
1797.000000;0.866120
1796.000000;0.865702
1795.000000;0.865980
1794.000000;0.867129
1793.000000;0.868948
1792.000000;0.871030
1791.000000;0.872998
1790.000000;0.874477
1789.000000;0.875034
1788.000000;0.874460
1787.000000;0.873139
1786.000000;0.871879
1785.000000;0.871286
1784.000000;0.871498
1783.000000;0.872483
1782.000000;0.874213
1781.000000;0.876430
1780.000000;0.878534
1779.000000;0.880025
1778.000000;0.880904
1777.000000;0.881429
1776.000000;0.881650
1775.000000;0.881492
1774.000000;0.881140
1773.000000;0.880978
1772.000000;0.881207
1771.000000;0.881765
1770.000000;0.882551
1769.000000;0.883522
1768.000000;0.884548
1767.000000;0.885426
1766.000000;0.886094
1765.000000;0.886658
1764.000000;0.887171
1763.000000;0.887568
1762.000000;0.887777
1761.000000;0.887761
1760.000000;0.887501
1759.000000;0.887144
1758.000000;0.887128
1757.000000;0.887951
1756.000000;0.889659
1755.000000;0.891618
1754.000000;0.892948
1753.000000;0.893218
1752.000000;0.892772
1751.000000;0.892391
1750.000000;0.892646
1749.000000;0.893555
1748.000000;0.894737
1747.000000;0.895807
1746.000000;0.896637
1745.000000;0.897261
1744.000000;0.897655
1743.000000;0.897752
1742.000000;0.897615
1741.000000;0.897493
1740.000000;0.897672
1739.000000;0.898269
1738.000000;0.899181
1737.000000;0.900203
1736.000000;0.901184
1735.000000;0.902056
1734.000000;0.902687
1733.000000;0.903092
1732.000000;0.903736
1731.000000;0.905135
1730.000000;0.907026
1729.000000;0.908383
1728.000000;0.908433
1727.000000;0.907522
1726.000000;0.906708
1725.000000;0.906567
1724.000000;0.906793
1723.000000;0.907015
1722.000000;0.907504
1721.000000;0.908817
1720.000000;0.910970
1719.000000;0.913251
1718.000000;0.914822
1717.000000;0.915424
1716.000000;0.915383
1715.000000;0.915156
1714.000000;0.914947
1713.000000;0.914692
1712.000000;0.914402
1711.000000;0.914331
1710.000000;0.914707
1709.000000;0.915469
1708.000000;0.916434
1707.000000;0.917554
1706.000000;0.918781
1705.000000;0.919780
1704.000000;0.920137
1703.000000;0.919917
1702.000000;0.919730
1701.000000;0.920069
1700.000000;0.920678
1699.000000;0.921189
1698.000000;0.921722
1697.000000;0.922341
1696.000000;0.922986
1695.000000;0.923804
1694.000000;0.924984
1693.000000;0.926399
1692.000000;0.927506
1691.000000;0.928148
1690.000000;0.928818
1689.000000;0.929591
1688.000000;0.929697
1687.000000;0.928749
1686.000000;0.927778
1685.000000;0.928157
1684.000000;0.929919
1683.000000;0.931935
1682.000000;0.933407
1681.000000;0.934630
1680.000000;0.935866
1679.000000;0.936722
1678.000000;0.936883
1677.000000;0.936712
1676.000000;0.936861
1675.000000;0.937599
1674.000000;0.938700
1673.000000;0.939709
1672.000000;0.940183
1671.000000;0.940190
1670.000000;0.940499
1669.000000;0.941697
1668.000000;0.943225
1667.000000;0.943930
1666.000000;0.943494
1665.000000;0.942717
1664.000000;0.942433
1663.000000;0.942634
1662.000000;0.942864
1661.000000;0.942949
1660.000000;0.943039
1659.000000;0.943292
1658.000000;0.943788
1657.000000;0.944519
1656.000000;0.945291
1655.000000;0.945911
1654.000000;0.946486
1653.000000;0.947265
1652.000000;0.948061
1651.000000;0.948603
1650.000000;0.949160
1649.000000;0.949817
1648.000000;0.950496
1647.000000;0.951154
1646.000000;0.951803
1645.000000;0.952494
1644.000000;0.953346
1643.000000;0.954253
1642.000000;0.954876
1641.000000;0.955191
1640.000000;0.955547
1639.000000;0.956236
1638.000000;0.957295
1637.000000;0.958636
1636.000000;0.960122
1635.000000;0.961422
1634.000000;0.962070
1633.000000;0.962041
1632.000000;0.961743
1631.000000;0.961554
1630.000000;0.961655
1629.000000;0.961971
1628.000000;0.962304
1627.000000;0.962623
1626.000000;0.963105
1625.000000;0.963844
1624.000000;0.964611
1623.000000;0.965119
1622.000000;0.965461
1621.000000;0.966002
1620.000000;0.966871
1619.000000;0.967769
1618.000000;0.968400
1617.000000;0.968875
1616.000000;0.969533
1615.000000;0.970572
1614.000000;0.971921
1613.000000;0.973192
1612.000000;0.973817
1611.000000;0.973590
1610.000000;0.973039
1609.000000;0.973008
1608.000000;0.973781
1607.000000;0.974849
1606.000000;0.975591
1605.000000;0.975952
1604.000000;0.976260
1603.000000;0.976678
1602.000000;0.977112
1601.000000;0.977509
1600.000000;0.977973
1599.000000;0.978596
1598.000000;0.979312
1597.000000;0.979925
1596.000000;0.980241
1595.000000;0.980229
1594.000000;0.980115
1593.000000;0.980260
1592.000000;0.980861
1591.000000;0.981764
1590.000000;0.982555
1589.000000;0.982855
1588.000000;0.982609
1587.000000;0.982236
1586.000000;0.982425
1585.000000;0.983611
1584.000000;0.985563
1583.000000;0.987576
1582.000000;0.989119
1581.000000;0.990171
1580.000000;0.990955
1579.000000;0.991581
1578.000000;0.992047
1577.000000;0.992391
1576.000000;0.992643
1575.000000;0.992732
1574.000000;0.992688
1573.000000;0.992788
1572.000000;0.993243
1571.000000;0.994061
1570.000000;0.995201
1569.000000;0.996643
1568.000000;0.998145
1567.000000;0.999161
1566.000000;0.999280
1565.000000;0.998693
1564.000000;0.998090
1563.000000;0.997972
1562.000000;0.998334
1561.000000;0.999069
1560.000000;1.000259
1559.000000;1.001802
1558.000000;1.003537
1557.000000;1.004511
1556.000000;1.004366
1555.000000;1.003704
1554.000000;1.003262
1553.000000;1.003374
1552.000000;1.003838
1551.000000;1.004397
1550.000000;1.005059
1549.000000;1.005879
1548.000000;1.006669
1547.000000;1.007200
1546.000000;1.007531
1545.000000;1.007909
1544.000000;1.008480
1543.000000;1.009189
1542.000000;1.009899
1541.000000;1.010516
1540.000000;1.011076
1539.000000;1.011499
1538.000000;1.011504
1537.000000;1.011390
1536.000000;1.011761
1535.000000;1.012919
1534.000000;1.014686
1533.000000;1.016467
1532.000000;1.017716
1531.000000;1.018398
1530.000000;1.018827
1529.000000;1.019038
1528.000000;1.018769
1527.000000;1.018088
1526.000000;1.017616
1525.000000;1.017902
1524.000000;1.018870
1523.000000;1.020042
1522.000000;1.021107
1521.000000;1.022057
1520.000000;1.022934
1519.000000;1.023883
1518.000000;1.025092
1517.000000;1.026367
1516.000000;1.027183
1515.000000;1.027292
1514.000000;1.027192
1513.000000;1.027563
1512.000000;1.028361
1511.000000;1.028988
1510.000000;1.029190
1509.000000;1.029274
1508.000000;1.029503
1507.000000;1.029877
1506.000000;1.030336
1505.000000;1.030576
1504.000000;1.030925
1503.000000;1.031823
1502.000000;1.033112
1501.000000;1.034432
1500.000000;1.035348
1499.000000;1.035457
1498.000000;1.034766
1497.000000;1.033802
1496.000000;1.033193
1495.000000;1.033244
1494.000000;1.033961
1493.000000;1.035172
1492.000000;1.036587
1491.000000;1.037949
1490.000000;1.039191
1489.000000;1.040351
1488.000000;1.041331
1487.000000;1.042044
1486.000000;1.042716
1485.000000;1.043623
1484.000000;1.044580
1483.000000;1.045098
1482.000000;1.045118
1481.000000;1.045151
1480.000000;1.045551
1479.000000;1.046082
1478.000000;1.046388
1477.000000;1.046536
1476.000000;1.046835
1475.000000;1.047383
1474.000000;1.048047
1473.000000;1.048686
1472.000000;1.049156
1471.000000;1.049287
1470.000000;1.049220
1469.000000;1.049446
1468.000000;1.050252
1467.000000;1.051414
1466.000000;1.052536
1465.000000;1.053481
1464.000000;1.054303
1463.000000;1.055024
1462.000000;1.055754
1461.000000;1.056726
1460.000000;1.057900
1459.000000;1.058751
1458.000000;1.058791
1457.000000;1.058252
1456.000000;1.057834
1455.000000;1.058051
1454.000000;1.058878
1453.000000;1.059702
1452.000000;1.060086
1451.000000;1.060262
1450.000000;1.060696
1449.000000;1.061487
1448.000000;1.062294
1447.000000;1.062797
1446.000000;1.063123
1445.000000;1.063701
1444.000000;1.064707
1443.000000;1.065865
1442.000000;1.066826
1441.000000;1.067544
1440.000000;1.068128
1439.000000;1.068547
1438.000000;1.068755
1437.000000;1.069010
1436.000000;1.069780
1435.000000;1.071256
1434.000000;1.072944
1433.000000;1.073946
1432.000000;1.073880
1431.000000;1.073333
1430.000000;1.073217
1429.000000;1.073834
1428.000000;1.074707
1427.000000;1.075213
1426.000000;1.075211
1425.000000;1.075033
1424.000000;1.075131
1423.000000;1.075848
1422.000000;1.077261
1421.000000;1.079003
1420.000000;1.080343
1419.000000;1.080827
1418.000000;1.080934
1417.000000;1.081621
1416.000000;1.083101
1415.000000;1.084472
1414.000000;1.084770
1413.000000;1.084109
1412.000000;1.083500
1411.000000;1.083723
1410.000000;1.084687
1409.000000;1.085779
1408.000000;1.086448
1407.000000;1.086429
1406.000000;1.085794
1405.000000;1.085059
1404.000000;1.084999
1403.000000;1.086044
1402.000000;1.087835
1401.000000;1.089528
1400.000000;1.090600
1399.000000;1.091287
1398.000000;1.092132
1397.000000;1.093247
1396.000000;1.094185
1395.000000;1.094506
1394.000000;1.094269
1393.000000;1.093904
1392.000000;1.093774
1391.000000;1.093941
1390.000000;1.094299
1389.000000;1.094797
1388.000000;1.095443
1387.000000;1.096192
1386.000000;1.096916
1385.000000;1.097458
1384.000000;1.097749
1383.000000;1.097919
1382.000000;1.098267
1381.000000;1.099038
1380.000000;1.100177
1379.000000;1.101338
1378.000000;1.102169
1377.000000;1.102552
1376.000000;1.102600
1375.000000;1.102518
1374.000000;1.102504
1373.000000;1.102697
1372.000000;1.103132
1371.000000;1.103750
1370.000000;1.104437
1369.000000;1.105102
1368.000000;1.105773
1367.000000;1.106539
1366.000000;1.107396
1365.000000;1.108233
1364.000000;1.109009
1363.000000;1.109809
1362.000000;1.110593
1361.000000;1.111019
1360.000000;1.110816
1359.000000;1.110279
1358.000000;1.110074
1357.000000;1.110549
1356.000000;1.111470
1355.000000;1.112437
1354.000000;1.113307
1353.000000;1.114116
1352.000000;1.114842
1351.000000;1.115400
1350.000000;1.115712
1349.000000;1.115709
1348.000000;1.115496
1347.000000;1.115536
1346.000000;1.116314
1345.000000;1.117688
1344.000000;1.118879
1343.000000;1.119305
1342.000000;1.119141
1341.000000;1.118904
1340.000000;1.118891
1339.000000;1.119246
1338.000000;1.120113
1337.000000;1.121357
1336.000000;1.122483
1335.000000;1.123222
1334.000000;1.123931
1333.000000;1.125027
1332.000000;1.126347
1331.000000;1.127540
1330.000000;1.128662
1329.000000;1.129784
1328.000000;1.130414
1327.000000;1.130102
1326.000000;1.129443
1325.000000;1.129623
1324.000000;1.130938
1323.000000;1.132565
1322.000000;1.133847
1321.000000;1.134986
1320.000000;1.136220
1319.000000;1.137081
1318.000000;1.137066
1317.000000;1.136501
1316.000000;1.136090
1315.000000;1.135919
1314.000000;1.135492
1313.000000;1.134589
1312.000000;1.133617
1311.000000;1.133206
1310.000000;1.133772
1309.000000;1.135325
1308.000000;1.137421
1307.000000;1.139332
1306.000000;1.140536
1305.000000;1.141095
1304.000000;1.141471
1303.000000;1.142050
1302.000000;1.142889
1301.000000;1.143789
1300.000000;1.144504
1299.000000;1.145000
1298.000000;1.145549
1297.000000;1.146427
1296.000000;1.147511
1295.000000;1.148347
1294.000000;1.148628
1293.000000;1.148410
1292.000000;1.147865
1291.000000;1.147166
1290.000000;1.146669
1289.000000;1.146837
1288.000000;1.147771
1287.000000;1.149014
1286.000000;1.149993
1285.000000;1.150527
1284.000000;1.150831
1283.000000;1.151229
1282.000000;1.151942
1281.000000;1.152899
1280.000000;1.153661
1279.000000;1.153777
1278.000000;1.153352
1277.000000;1.153001
1276.000000;1.153183
1275.000000;1.153844
1274.000000;1.154773
1273.000000;1.155916
1272.000000;1.157138
1271.000000;1.158028
1270.000000;1.158286
1269.000000;1.158127
1268.000000;1.158061
1267.000000;1.158476
1266.000000;1.159577
1265.000000;1.161375
1264.000000;1.163400
1263.000000;1.164741
1262.000000;1.164852
1261.000000;1.164247
1260.000000;1.164030
1259.000000;1.164762
1258.000000;1.166047
1257.000000;1.167143
1256.000000;1.167664
1255.000000;1.167663
1254.000000;1.167343
1253.000000;1.166872
1252.000000;1.166411
1251.000000;1.166207
1250.000000;1.166583
1249.000000;1.167692
1248.000000;1.169221
1247.000000;1.170477
1246.000000;1.170940
1245.000000;1.170735
1244.000000;1.170477
1243.000000;1.170725
1242.000000;1.171620
1241.000000;1.172907
1240.000000;1.174160
1239.000000;1.175086
1238.000000;1.175762
1237.000000;1.176519
1236.000000;1.177529
1235.000000;1.178595
1234.000000;1.179404
1233.000000;1.179910
1232.000000;1.180365
1231.000000;1.181006
1230.000000;1.181777
1229.000000;1.182330
1228.000000;1.182332
1227.000000;1.181853
1226.000000;1.181399
1225.000000;1.181429
1224.000000;1.181883
1223.000000;1.182340
1222.000000;1.182604
1221.000000;1.182903
1220.000000;1.183465
1219.000000;1.184158
1218.000000;1.184694
1217.000000;1.185076
1216.000000;1.185685
1215.000000;1.186923
1214.000000;1.188749
1213.000000;1.190488
1212.000000;1.191217
1211.000000;1.190567
1210.000000;1.189187
1209.000000;1.188263
1208.000000;1.188564
1207.000000;1.190027
1206.000000;1.192054
1205.000000;1.193895
1204.000000;1.194865
1203.000000;1.194720
1202.000000;1.193978
1201.000000;1.193552
1200.000000;1.193886
