Criado como novo conjunto de dados;"0307_DANIEL.spp","22323.2 Secs"
cm-1;Abs
10000.000000;1.053915
9999.000000;1.053054
9998.000000;1.051888
9997.000000;1.050289
9996.000000;1.048596
9995.000000;1.047092
9994.000000;1.045737
9993.000000;1.044395
9992.000000;1.043011
9991.000000;1.041540
9990.000000;1.039946
9989.000000;1.038373
9988.000000;1.037130
9987.000000;1.036369
9986.000000;1.035869
9985.000000;1.035270
9984.000000;1.034427
9983.000000;1.033431
9982.000000;1.032336
9981.000000;1.031044
9980.000000;1.029488
9979.000000;1.027815
9978.000000;1.026298
9977.000000;1.025056
9976.000000;1.023934
9975.000000;1.022699
9974.000000;1.021341
9973.000000;1.020107
9972.000000;1.019190
9971.000000;1.018463
9970.000000;1.017635
9969.000000;1.016635
9968.000000;1.015674
9967.000000;1.014864
9966.000000;1.013955
9965.000000;1.012564
9964.000000;1.010623
9963.000000;1.008479
9962.000000;1.006589
9961.000000;1.005172
9960.000000;1.004114
9959.000000;1.003093
9958.000000;1.001824
9957.000000;1.000278
9956.000000;0.998696
9955.000000;0.997382
9954.000000;0.996460
9953.000000;0.995815
9952.000000;0.995208
9951.000000;0.994415
9950.000000;0.993337
9949.000000;0.992038
9948.000000;0.990648
9947.000000;0.989184
9946.000000;0.987554
9945.000000;0.985802
9944.000000;0.984220
9943.000000;0.983083
9942.000000;0.982340
9941.000000;0.981700
9940.000000;0.980956
9939.000000;0.980058
9938.000000;0.978948
9937.000000;0.977548
9936.000000;0.975955
9935.000000;0.974445
9934.000000;0.973198
9933.000000;0.972115
9932.000000;0.970985
9931.000000;0.969717
9930.000000;0.968375
9929.000000;0.967069
9928.000000;0.965868
9927.000000;0.964729
9926.000000;0.963526
9925.000000;0.962250
9924.000000;0.961109
9923.000000;0.960270
9922.000000;0.959507
9921.000000;0.958353
9920.000000;0.956657
9919.000000;0.954752
9918.000000;0.952976
9917.000000;0.951312
9916.000000;0.949658
9915.000000;0.948177
9914.000000;0.947065
9913.000000;0.946153
9912.000000;0.945057
9911.000000;0.943686
9910.000000;0.942305
9909.000000;0.941077
9908.000000;0.939803
9907.000000;0.938213
9906.000000;0.936327
9905.000000;0.934430
9904.000000;0.932789
9903.000000;0.931454
9902.000000;0.930249
9901.000000;0.928944
9900.000000;0.927511
9899.000000;0.926187
9898.000000;0.925158
9897.000000;0.924223
9896.000000;0.922938
9895.000000;0.921171
9894.000000;0.919335
9893.000000;0.917990
9892.000000;0.917289
9891.000000;0.916910
9890.000000;0.916412
9889.000000;0.915554
9888.000000;0.914358
9887.000000;0.912988
9886.000000;0.911578
9885.000000;0.910100
9884.000000;0.908406
9883.000000;0.906454
9882.000000;0.904441
9881.000000;0.902635
9880.000000;0.901086
9879.000000;0.899602
9878.000000;0.898038
9877.000000;0.896492
9876.000000;0.895166
9875.000000;0.894076
9874.000000;0.892980
9873.000000;0.891595
9872.000000;0.889856
9871.000000;0.887967
9870.000000;0.886208
9869.000000;0.884703
9868.000000;0.883370
9867.000000;0.882081
9866.000000;0.880840
9865.000000;0.879748
9864.000000;0.878802
9863.000000;0.877814
9862.000000;0.876602
9861.000000;0.875182
9860.000000;0.873667
9859.000000;0.872042
9858.000000;0.870214
9857.000000;0.868291
9856.000000;0.866619
9855.000000;0.865407
9854.000000;0.864435
9853.000000;0.863281
9852.000000;0.861770
9851.000000;0.860083
9850.000000;0.858467
9849.000000;0.857041
9848.000000;0.855849
9847.000000;0.854853
9846.000000;0.853786
9845.000000;0.852198
9844.000000;0.849879
9843.000000;0.847207
9842.000000;0.844898
9841.000000;0.843388
9840.000000;0.842510
9839.000000;0.841752
9838.000000;0.840738
9837.000000;0.839436
9836.000000;0.837977
9835.000000;0.836379
9834.000000;0.834534
9833.000000;0.832430
9832.000000;0.830316
9831.000000;0.828550
9830.000000;0.827306
9829.000000;0.826431
9828.000000;0.825578
9827.000000;0.824427
9826.000000;0.822852
9825.000000;0.820966
9824.000000;0.819036
9823.000000;0.817282
9822.000000;0.815737
9821.000000;0.814298
9820.000000;0.812892
9819.000000;0.811511
9818.000000;0.810129
9817.000000;0.808675
9816.000000;0.807116
9815.000000;0.805482
9814.000000;0.803805
9813.000000;0.802122
9812.000000;0.800540
9811.000000;0.799195
9810.000000;0.798081
9809.000000;0.796975
9808.000000;0.795605
9807.000000;0.793878
9806.000000;0.791935
9805.000000;0.790025
9804.000000;0.788330
9803.000000;0.786862
9802.000000;0.785475
9801.000000;0.784005
9800.000000;0.782379
9799.000000;0.780616
9798.000000;0.778787
9797.000000;0.777040
9796.000000;0.775572
9795.000000;0.774448
9794.000000;0.773440
9793.000000;0.772195
9792.000000;0.770584
9791.000000;0.768807
9790.000000;0.767127
9789.000000;0.765582
9788.000000;0.763978
9787.000000;0.762120
9786.000000;0.760026
9785.000000;0.757962
9784.000000;0.756230
9783.000000;0.754856
9782.000000;0.753527
9781.000000;0.751954
9780.000000;0.750224
9779.000000;0.748633
9778.000000;0.747207
9777.000000;0.745619
9776.000000;0.743613
9775.000000;0.741311
9774.000000;0.739043
9773.000000;0.737029
9772.000000;0.735318
9771.000000;0.733853
9770.000000;0.732487
9769.000000;0.731084
9768.000000;0.729690
9767.000000;0.728439
9766.000000;0.727221
9765.000000;0.725661
9764.000000;0.723558
9763.000000;0.721186
9762.000000;0.718963
9761.000000;0.717002
9760.000000;0.715180
9759.000000;0.713461
9758.000000;0.711882
9757.000000;0.710343
9756.000000;0.708713
9755.000000;0.707091
9754.000000;0.705686
9753.000000;0.704406
9752.000000;0.702837
9751.000000;0.700749
9750.000000;0.698407
9749.000000;0.696277
9748.000000;0.694544
9747.000000;0.693014
9746.000000;0.691392
9745.000000;0.689575
9744.000000;0.687737
9743.000000;0.686137
9742.000000;0.684795
9741.000000;0.683405
9740.000000;0.681669
9739.000000;0.679644
9738.000000;0.677630
9737.000000;0.675723
9736.000000;0.673715
9735.000000;0.671485
9734.000000;0.669278
9733.000000;0.667456
9732.000000;0.666087
9731.000000;0.664917
9730.000000;0.663663
9729.000000;0.662204
9728.000000;0.660553
9727.000000;0.658758
9726.000000;0.656821
9725.000000;0.654700
9724.000000;0.652399
9723.000000;0.650063
9722.000000;0.647904
9721.000000;0.645986
9720.000000;0.644211
9719.000000;0.642543
9718.000000;0.641091
9717.000000;0.639871
9716.000000;0.638608
9715.000000;0.636965
9714.000000;0.634910
9713.000000;0.632716
9712.000000;0.630626
9711.000000;0.628681
9710.000000;0.626840
9709.000000;0.625066
9708.000000;0.623262
9707.000000;0.621291
9706.000000;0.619188
9705.000000;0.617184
9704.000000;0.615395
9703.000000;0.613567
9702.000000;0.611287
9701.000000;0.608444
9700.000000;0.605372
9699.000000;0.602535
9698.000000;0.600164
9697.000000;0.598186
9696.000000;0.596393
9695.000000;0.594621
9694.000000;0.592832
9693.000000;0.591096
9692.000000;0.589482
9691.000000;0.587977
9690.000000;0.586500
9689.000000;0.584986
9688.000000;0.583413
9687.000000;0.581751
9686.000000;0.579950
9685.000000;0.577988
9684.000000;0.575892
9683.000000;0.573681
9682.000000;0.571347
9681.000000;0.568905
9680.000000;0.566426
9679.000000;0.563970
9678.000000;0.561553
9677.000000;0.559193
9676.000000;0.556972
9675.000000;0.555008
9674.000000;0.553376
9673.000000;0.552055
9672.000000;0.550855
9671.000000;0.549403
9670.000000;0.547351
9669.000000;0.544717
9668.000000;0.541966
9667.000000;0.539605
9666.000000;0.537690
9665.000000;0.535849
9664.000000;0.533781
9663.000000;0.531597
9662.000000;0.529606
9661.000000;0.527870
9660.000000;0.526116
9659.000000;0.524044
9658.000000;0.521633
9657.000000;0.519083
9656.000000;0.516596
9655.000000;0.514278
9654.000000;0.512216
9653.000000;0.510475
9652.000000;0.508936
9651.000000;0.507240
9650.000000;0.505055
9649.000000;0.502417
9648.000000;0.499735
9647.000000;0.497418
9646.000000;0.495569
9645.000000;0.493991
9644.000000;0.492371
9643.000000;0.490455
9642.000000;0.488176
9641.000000;0.485721
9640.000000;0.483356
9639.000000;0.481115
9638.000000;0.478777
9637.000000;0.476207
9636.000000;0.473606
9635.000000;0.471286
9634.000000;0.469332
9633.000000;0.467622
9632.000000;0.466048
9631.000000;0.464521
9630.000000;0.462845
9629.000000;0.460794
9628.000000;0.458329
9627.000000;0.455587
9626.000000;0.452692
9625.000000;0.449760
9624.000000;0.447011
9623.000000;0.444632
9622.000000;0.442512
9621.000000;0.440335
9620.000000;0.437970
9619.000000;0.435597
9618.000000;0.433410
9617.000000;0.431392
9616.000000;0.429432
9615.000000;0.427462
9614.000000;0.425414
9613.000000;0.423237
9612.000000;0.421014
9611.000000;0.418888
9610.000000;0.416784
9609.000000;0.414440
9608.000000;0.411792
9607.000000;0.409127
9606.000000;0.406725
9605.000000;0.404549
9604.000000;0.402424
9603.000000;0.400311
9602.000000;0.398236
9601.000000;0.396123
9600.000000;0.393884
9599.000000;0.391557
9598.000000;0.389182
9597.000000;0.386697
9596.000000;0.384132
9595.000000;0.381734
9594.000000;0.379643
9593.000000;0.377596
9592.000000;0.375209
9591.000000;0.372494
9590.000000;0.369841
9589.000000;0.367562
9588.000000;0.365651
9587.000000;0.363928
9586.000000;0.362144
9585.000000;0.359995
9584.000000;0.357349
9583.000000;0.354489
9582.000000;0.351855
9581.000000;0.349511
9580.000000;0.347123
9579.000000;0.344516
9578.000000;0.341956
9577.000000;0.339728
9576.000000;0.337721
9575.000000;0.335621
9574.000000;0.333365
9573.000000;0.331142
9572.000000;0.329048
9571.000000;0.326943
9570.000000;0.324652
9569.000000;0.322126
9568.000000;0.319429
9567.000000;0.316661
9566.000000;0.313934
9565.000000;0.311363
9564.000000;0.309031
9563.000000;0.306937
9562.000000;0.304945
9561.000000;0.302836
9560.000000;0.300491
9559.000000;0.298055
9558.000000;0.295791
9557.000000;0.293749
9556.000000;0.291701
9555.000000;0.289457
9554.000000;0.287129
9553.000000;0.284939
9552.000000;0.282874
9551.000000;0.280703
9550.000000;0.278309
9549.000000;0.275882
9548.000000;0.273691
9547.000000;0.271767
9546.000000;0.269865
9545.000000;0.267727
9544.000000;0.265339
9543.000000;0.262912
9542.000000;0.260627
9541.000000;0.258466
9540.000000;0.256309
9539.000000;0.254112
9538.000000;0.251904
9537.000000;0.249639
9536.000000;0.247205
9535.000000;0.244614
9534.000000;0.242048
9533.000000;0.239639
9532.000000;0.237316
9531.000000;0.234971
9530.000000;0.232685
9529.000000;0.230638
9528.000000;0.228857
9527.000000;0.227187
9526.000000;0.225481
9525.000000;0.223706
9524.000000;0.221841
9523.000000;0.219828
9522.000000;0.217680
9521.000000;0.215536
9520.000000;0.213536
9519.000000;0.211677
9518.000000;0.209871
9517.000000;0.208079
9516.000000;0.206314
9515.000000;0.204530
9514.000000;0.202606
9513.000000;0.200492
9512.000000;0.198325
9511.000000;0.196307
9510.000000;0.194501
9509.000000;0.192777
9508.000000;0.190999
9507.000000;0.189189
9506.000000;0.187431
9505.000000;0.185679
9504.000000;0.183769
9503.000000;0.181661
9502.000000;0.179546
9501.000000;0.177660
9500.000000;0.176042
9499.000000;0.174560
9498.000000;0.173100
9497.000000;0.171642
9496.000000;0.170166
9495.000000;0.168630
9494.000000;0.167067
9493.000000;0.165602
9492.000000;0.164308
9491.000000;0.163091
9490.000000;0.161784
9489.000000;0.160336
9488.000000;0.158866
9487.000000;0.157548
9486.000000;0.156448
9485.000000;0.155472
9484.000000;0.154423
9483.000000;0.153161
9482.000000;0.151712
9481.000000;0.150246
9480.000000;0.148943
9479.000000;0.147889
9478.000000;0.147078
9477.000000;0.146424
9476.000000;0.145749
9475.000000;0.144839
9474.000000;0.143615
9473.000000;0.142225
9472.000000;0.140890
9471.000000;0.139668
9470.000000;0.138464
9469.000000;0.137243
9468.000000;0.136117
9467.000000;0.135198
9466.000000;0.134498
9465.000000;0.134025
9464.000000;0.133834
9463.000000;0.133858
9462.000000;0.133771
9461.000000;0.133239
9460.000000;0.132283
9459.000000;0.131268
9458.000000;0.130491
9457.000000;0.129925
9456.000000;0.129393
9455.000000;0.128818
9454.000000;0.128232
9453.000000;0.127681
9452.000000;0.127247
9451.000000;0.127067
9450.000000;0.127181
9449.000000;0.127412
9448.000000;0.127512
9447.000000;0.127412
9446.000000;0.127222
9445.000000;0.127044
9444.000000;0.126909
9443.000000;0.126846
9442.000000;0.126861
9441.000000;0.126843
9440.000000;0.126627
9439.000000;0.126199
9438.000000;0.125721
9437.000000;0.125364
9436.000000;0.125209
9435.000000;0.125315
9434.000000;0.125697
9433.000000;0.126186
9432.000000;0.126489
9431.000000;0.126491
9430.000000;0.126421
9429.000000;0.126580
9428.000000;0.127001
9427.000000;0.127475
9426.000000;0.127876
9425.000000;0.128319
9424.000000;0.128989
9423.000000;0.129897
9422.000000;0.130840
9421.000000;0.131582
9420.000000;0.132069
9419.000000;0.132479
9418.000000;0.133012
9417.000000;0.133647
9416.000000;0.134158
9415.000000;0.134384
9414.000000;0.134404
9413.000000;0.134437
9412.000000;0.134666
9411.000000;0.135200
9410.000000;0.136061
9409.000000;0.137086
9408.000000;0.137946
9407.000000;0.138443
9406.000000;0.138779
9405.000000;0.139374
9404.000000;0.140393
9403.000000;0.141547
9402.000000;0.142431
9401.000000;0.142945
9400.000000;0.143350
9399.000000;0.143978
9398.000000;0.144965
9397.000000;0.146224
9396.000000;0.147560
9395.000000;0.148774
9394.000000;0.149723
9393.000000;0.150356
9392.000000;0.150749
9391.000000;0.151080
9390.000000;0.151528
9389.000000;0.152174
9388.000000;0.153012
9387.000000;0.154057
9386.000000;0.155388
9385.000000;0.157029
9384.000000;0.158814
9383.000000;0.160442
9382.000000;0.161709
9381.000000;0.162694
9380.000000;0.163653
9379.000000;0.164721
9378.000000;0.165766
9377.000000;0.166615
9376.000000;0.167378
9375.000000;0.168383
9374.000000;0.169723
9373.000000;0.171049
9372.000000;0.171992
9371.000000;0.172692
9370.000000;0.173668
9369.000000;0.175181
9368.000000;0.176970
9367.000000;0.178619
9366.000000;0.179964
9365.000000;0.181057
9364.000000;0.181993
9363.000000;0.182937
9362.000000;0.184110
9361.000000;0.185523
9360.000000;0.186858
9359.000000;0.187825
9358.000000;0.188569
9357.000000;0.189509
9356.000000;0.190850
9355.000000;0.192448
9354.000000;0.194069
9353.000000;0.195562
9352.000000;0.196806
9351.000000;0.197748
9350.000000;0.198499
9349.000000;0.199234
9348.000000;0.200004
9347.000000;0.200827
9346.000000;0.201903
9345.000000;0.203433
9344.000000;0.205204
9343.000000;0.206667
9342.000000;0.207569
9341.000000;0.208251
9340.000000;0.209164
9339.000000;0.210323
9338.000000;0.211440
9337.000000;0.212401
9336.000000;0.213342
9335.000000;0.214361
9334.000000;0.215439
9333.000000;0.216599
9332.000000;0.217919
9331.000000;0.219350
9330.000000;0.220701
9329.000000;0.221850
9328.000000;0.222862
9327.000000;0.223886
9326.000000;0.225049
9325.000000;0.226438
9324.000000;0.228044
9323.000000;0.229677
9322.000000;0.231058
9321.000000;0.232063
9320.000000;0.232808
9319.000000;0.233485
9318.000000;0.234218
9317.000000;0.235097
9316.000000;0.236226
9315.000000;0.237620
9314.000000;0.239128
9313.000000;0.240546
9312.000000;0.241774
9311.000000;0.242803
9310.000000;0.243624
9309.000000;0.244283
9308.000000;0.245020
9307.000000;0.246174
9306.000000;0.247862
9305.000000;0.249786
9304.000000;0.251468
9303.000000;0.252686
9302.000000;0.253593
9301.000000;0.254436
9300.000000;0.255279
9299.000000;0.256079
9298.000000;0.256902
9297.000000;0.257908
9296.000000;0.259150
9295.000000;0.260505
9294.000000;0.261838
9293.000000;0.263105
9292.000000;0.264272
9291.000000;0.265261
9290.000000;0.266068
9289.000000;0.266852
9288.000000;0.267794
9287.000000;0.268904
9286.000000;0.270027
9285.000000;0.270998
9284.000000;0.271760
9283.000000;0.272396
9282.000000;0.273136
9281.000000;0.274242
9280.000000;0.275781
9279.000000;0.277492
9278.000000;0.278977
9277.000000;0.280017
9276.000000;0.280719
9275.000000;0.281397
9274.000000;0.282353
9273.000000;0.283671
9272.000000;0.285102
9271.000000;0.286239
9270.000000;0.286933
9269.000000;0.287496
9268.000000;0.288359
9267.000000;0.289575
9266.000000;0.290783
9265.000000;0.291674
9264.000000;0.292312
9263.000000;0.292992
9262.000000;0.293935
9261.000000;0.295151
9260.000000;0.296452
9259.000000;0.297541
9258.000000;0.298242
9257.000000;0.298709
9256.000000;0.299315
9255.000000;0.300256
9254.000000;0.301382
9253.000000;0.302473
9252.000000;0.303519
9251.000000;0.304596
9250.000000;0.305621
9249.000000;0.306417
9248.000000;0.306991
9247.000000;0.307553
9246.000000;0.308270
9245.000000;0.309132
9244.000000;0.310072
9243.000000;0.311080
9242.000000;0.312159
9241.000000;0.313259
9240.000000;0.314330
9239.000000;0.315372
9238.000000;0.316389
9237.000000;0.317339
9236.000000;0.318192
9235.000000;0.318981
9234.000000;0.319750
9233.000000;0.320468
9232.000000;0.321072
9231.000000;0.321610
9230.000000;0.322271
9229.000000;0.323220
9228.000000;0.324402
9227.000000;0.325556
9226.000000;0.326456
9225.000000;0.327099
9224.000000;0.327619
9223.000000;0.328094
9222.000000;0.328553
9221.000000;0.329125
9220.000000;0.330015
9219.000000;0.331267
9218.000000;0.332638
9217.000000;0.333832
9216.000000;0.334788
9215.000000;0.335662
9214.000000;0.336561
9213.000000;0.337406
9212.000000;0.338065
9211.000000;0.338527
9210.000000;0.338934
9209.000000;0.339477
9208.000000;0.340281
9207.000000;0.341335
9206.000000;0.342479
9205.000000;0.343493
9204.000000;0.344203
9203.000000;0.344577
9202.000000;0.344747
9201.000000;0.344952
9200.000000;0.345389
9199.000000;0.346078
9198.000000;0.346894
9197.000000;0.347720
9196.000000;0.348528
9195.000000;0.349303
9194.000000;0.349987
9193.000000;0.350579
9192.000000;0.351198
9191.000000;0.351953
9190.000000;0.352790
9189.000000;0.353548
9188.000000;0.354155
9187.000000;0.354689
9186.000000;0.355275
9185.000000;0.355993
9184.000000;0.356856
9183.000000;0.357786
9182.000000;0.358632
9181.000000;0.359291
9180.000000;0.359820
9179.000000;0.360336
9178.000000;0.360821
9177.000000;0.361153
9176.000000;0.361322
9175.000000;0.361513
9174.000000;0.361897
9173.000000;0.362456
9172.000000;0.363093
9171.000000;0.363839
9170.000000;0.364822
9169.000000;0.366033
9168.000000;0.367223
9167.000000;0.368100
9166.000000;0.368599
9165.000000;0.368933
9164.000000;0.369346
9163.000000;0.369896
9162.000000;0.370501
9161.000000;0.371163
9160.000000;0.372009
9159.000000;0.373064
9158.000000;0.374078
9157.000000;0.374707
9156.000000;0.374857
9155.000000;0.374751
9154.000000;0.374671
9153.000000;0.374762
9152.000000;0.375055
9151.000000;0.375559
9150.000000;0.376230
9149.000000;0.376932
9148.000000;0.377546
9147.000000;0.378088
9146.000000;0.378656
9145.000000;0.379279
9144.000000;0.379872
9143.000000;0.380349
9142.000000;0.380728
9141.000000;0.381133
9140.000000;0.381694
9139.000000;0.382436
9138.000000;0.383227
9137.000000;0.383870
9136.000000;0.384268
9135.000000;0.384496
9134.000000;0.384699
9133.000000;0.384944
9132.000000;0.385217
9131.000000;0.385534
9130.000000;0.385969
9129.000000;0.386548
9128.000000;0.387160
9127.000000;0.387662
9126.000000;0.388032
9125.000000;0.388385
9124.000000;0.388821
9123.000000;0.389348
9122.000000;0.389945
9121.000000;0.390646
9120.000000;0.391453
9119.000000;0.392214
9118.000000;0.392689
9117.000000;0.392771
9116.000000;0.392616
9115.000000;0.392539
9114.000000;0.392814
9113.000000;0.393500
9112.000000;0.394406
9111.000000;0.395199
9110.000000;0.395669
9109.000000;0.395904
9108.000000;0.396164
9107.000000;0.396589
9106.000000;0.397119
9105.000000;0.397684
9104.000000;0.398320
9103.000000;0.399028
9102.000000;0.399656
9101.000000;0.400047
9100.000000;0.400209
9099.000000;0.400271
9098.000000;0.400319
9097.000000;0.400417
9096.000000;0.400672
9095.000000;0.401136
9094.000000;0.401686
9093.000000;0.402158
9092.000000;0.402576
9091.000000;0.403090
9090.000000;0.403681
9089.000000;0.404108
9088.000000;0.404221
9087.000000;0.404191
9086.000000;0.404336
9085.000000;0.404787
9084.000000;0.405398
9083.000000;0.405936
9082.000000;0.406288
9081.000000;0.406522
9080.000000;0.406790
9079.000000;0.407200
9078.000000;0.407759
9077.000000;0.408442
9076.000000;0.409217
9075.000000;0.409962
9074.000000;0.410443
9073.000000;0.410504
9072.000000;0.410293
9071.000000;0.410159
9070.000000;0.410302
9069.000000;0.410645
9068.000000;0.411030
9067.000000;0.411428
9066.000000;0.411884
9065.000000;0.412384
9064.000000;0.412864
9063.000000;0.413270
9062.000000;0.413548
9061.000000;0.413659
9060.000000;0.413683
9059.000000;0.413816
9058.000000;0.414186
9057.000000;0.414693
9056.000000;0.415092
9055.000000;0.415228
9054.000000;0.415155
9053.000000;0.415070
9052.000000;0.415175
9051.000000;0.415536
9050.000000;0.416030
9049.000000;0.416464
9048.000000;0.416762
9047.000000;0.416994
9046.000000;0.417208
9045.000000;0.417348
9044.000000;0.417365
9043.000000;0.417318
9042.000000;0.417289
9041.000000;0.417300
9040.000000;0.417380
9039.000000;0.417641
9038.000000;0.418161
9037.000000;0.418850
9036.000000;0.419510
9035.000000;0.420019
9034.000000;0.420367
9033.000000;0.420580
9032.000000;0.420705
9031.000000;0.420820
9030.000000;0.420942
9029.000000;0.420970
9028.000000;0.420838
9027.000000;0.420703
9026.000000;0.420838
9025.000000;0.421314
9024.000000;0.421915
9023.000000;0.422399
9022.000000;0.422746
9021.000000;0.423084
9020.000000;0.423437
9019.000000;0.423662
9018.000000;0.423618
9017.000000;0.423343
9016.000000;0.423057
9015.000000;0.422979
9014.000000;0.423159
9013.000000;0.423468
9012.000000;0.423769
9011.000000;0.424032
9010.000000;0.424286
9009.000000;0.424503
9008.000000;0.424635
9007.000000;0.424741
9006.000000;0.424961
9005.000000;0.425336
9004.000000;0.425713
9003.000000;0.425884
9002.000000;0.425795
9001.000000;0.425579
9000.000000;0.425430
8999.000000;0.425459
8998.000000;0.425657
8997.000000;0.425930
8996.000000;0.426173
8995.000000;0.426336
8994.000000;0.426437
8993.000000;0.426544
8992.000000;0.426727
8991.000000;0.427010
8990.000000;0.427335
8989.000000;0.427595
8988.000000;0.427742
8987.000000;0.427827
8986.000000;0.427913
8985.000000;0.427972
8984.000000;0.427945
8983.000000;0.427864
8982.000000;0.427852
8981.000000;0.427987
8980.000000;0.428227
8979.000000;0.428486
8978.000000;0.428696
8977.000000;0.428796
8976.000000;0.428733
8975.000000;0.428549
8974.000000;0.428401
8973.000000;0.428434
8972.000000;0.428654
8971.000000;0.428980
8970.000000;0.429339
8969.000000;0.429672
8968.000000;0.429896
8967.000000;0.429951
8966.000000;0.429899
8965.000000;0.429883
8964.000000;0.429980
8963.000000;0.430138
8962.000000;0.430263
8961.000000;0.430300
8960.000000;0.430242
8959.000000;0.430129
8958.000000;0.430053
8957.000000;0.430079
8956.000000;0.430138
8955.000000;0.430107
8954.000000;0.430028
8953.000000;0.430154
8952.000000;0.430642
8951.000000;0.431282
8950.000000;0.431668
8949.000000;0.431633
8948.000000;0.431404
8947.000000;0.431291
8946.000000;0.431371
8945.000000;0.431517
8944.000000;0.431598
8943.000000;0.431553
8942.000000;0.431354
8941.000000;0.431043
8940.000000;0.430784
8939.000000;0.430769
8938.000000;0.431034
8937.000000;0.431429
8936.000000;0.431763
8935.000000;0.431939
8934.000000;0.431943
8933.000000;0.431815
8932.000000;0.431642
8931.000000;0.431536
8930.000000;0.431562
8929.000000;0.431706
8928.000000;0.431916
8927.000000;0.432143
8926.000000;0.432321
8925.000000;0.432366
8924.000000;0.432221
8923.000000;0.431893
8922.000000;0.431475
8921.000000;0.431137
8920.000000;0.431073
8919.000000;0.431345
8918.000000;0.431776
8917.000000;0.432081
8916.000000;0.432134
8915.000000;0.432055
8914.000000;0.432019
8913.000000;0.432065
8912.000000;0.432137
8911.000000;0.432225
8910.000000;0.432365
8909.000000;0.432539
8908.000000;0.432663
8907.000000;0.432653
8906.000000;0.432477
8905.000000;0.432166
8904.000000;0.431843
8903.000000;0.431687
8902.000000;0.431787
8901.000000;0.432043
8900.000000;0.432276
8899.000000;0.432408
8898.000000;0.432475
8897.000000;0.432483
8896.000000;0.432380
8895.000000;0.432177
8894.000000;0.431973
8893.000000;0.431843
8892.000000;0.431765
8891.000000;0.431728
8890.000000;0.431806
8889.000000;0.432059
8888.000000;0.432406
8887.000000;0.432687
8886.000000;0.432811
8885.000000;0.432783
8884.000000;0.432632
8883.000000;0.432399
8882.000000;0.432172
8881.000000;0.432031
8880.000000;0.431967
8879.000000;0.431911
8878.000000;0.431835
8877.000000;0.431766
8876.000000;0.431679
8875.000000;0.431507
8874.000000;0.431268
8873.000000;0.431115
8872.000000;0.431160
8871.000000;0.431333
8870.000000;0.431499
8869.000000;0.431647
8868.000000;0.431859
8867.000000;0.432092
8866.000000;0.432143
8865.000000;0.431887
8864.000000;0.431480
8863.000000;0.431220
8862.000000;0.431251
8861.000000;0.431441
8860.000000;0.431539
8859.000000;0.431395
8858.000000;0.431045
8857.000000;0.430671
8856.000000;0.430490
8855.000000;0.430624
8854.000000;0.431002
8853.000000;0.431414
8852.000000;0.431683
8851.000000;0.431769
8850.000000;0.431697
8849.000000;0.431463
8848.000000;0.431068
8847.000000;0.430655
8846.000000;0.430473
8845.000000;0.430644
8844.000000;0.430992
8843.000000;0.431181
8842.000000;0.431032
8841.000000;0.430687
8840.000000;0.430457
8839.000000;0.430530
8838.000000;0.430819
8837.000000;0.431068
8836.000000;0.431084
8835.000000;0.430905
8834.000000;0.430745
8833.000000;0.430760
8832.000000;0.430881
8831.000000;0.430903
8830.000000;0.430729
8829.000000;0.430471
8828.000000;0.430298
8827.000000;0.430259
8826.000000;0.430308
8825.000000;0.430433
8824.000000;0.430647
8823.000000;0.430881
8822.000000;0.430994
8821.000000;0.430914
8820.000000;0.430692
8819.000000;0.430405
8818.000000;0.430091
8817.000000;0.429821
8816.000000;0.429748
8815.000000;0.429984
8814.000000;0.430461
8813.000000;0.430981
8812.000000;0.431400
8811.000000;0.431704
8810.000000;0.431914
8809.000000;0.431998
8808.000000;0.431893
8807.000000;0.431590
8806.000000;0.431185
8805.000000;0.430856
8804.000000;0.430753
8803.000000;0.430867
8802.000000;0.431019
8801.000000;0.431008
8800.000000;0.430794
8799.000000;0.430520
8798.000000;0.430352
8797.000000;0.430317
8796.000000;0.430312
8795.000000;0.430230
8794.000000;0.430095
8793.000000;0.430072
8792.000000;0.430311
8791.000000;0.430765
8790.000000;0.431191
8789.000000;0.431372
8788.000000;0.431321
8787.000000;0.431233
8786.000000;0.431280
8785.000000;0.431460
8784.000000;0.431632
8783.000000;0.431626
8782.000000;0.431363
8781.000000;0.430935
8780.000000;0.430562
8779.000000;0.430405
8778.000000;0.430433
8777.000000;0.430517
8776.000000;0.430621
8775.000000;0.430794
8774.000000;0.430985
8773.000000;0.431019
8772.000000;0.430819
8771.000000;0.430553
8770.000000;0.430456
8769.000000;0.430599
8768.000000;0.430889
8767.000000;0.431212
8766.000000;0.431478
8765.000000;0.431591
8764.000000;0.431523
8763.000000;0.431391
8762.000000;0.431340
8761.000000;0.431341
8760.000000;0.431234
8759.000000;0.430998
8758.000000;0.430846
8757.000000;0.430990
8756.000000;0.431381
8755.000000;0.431767
8754.000000;0.431938
8753.000000;0.431833
8752.000000;0.431512
8751.000000;0.431139
8750.000000;0.430963
8749.000000;0.431153
8748.000000;0.431593
8747.000000;0.431940
8746.000000;0.431946
8745.000000;0.431673
8744.000000;0.431358
8743.000000;0.431177
8742.000000;0.431199
8741.000000;0.431465
8740.000000;0.431953
8739.000000;0.432472
8738.000000;0.432755
8737.000000;0.432710
8736.000000;0.432495
8735.000000;0.432300
8734.000000;0.432155
8733.000000;0.432015
8732.000000;0.431900
8731.000000;0.431843
8730.000000;0.431758
8729.000000;0.431551
8728.000000;0.431336
8727.000000;0.431390
8726.000000;0.431797
8725.000000;0.432269
8724.000000;0.432453
8723.000000;0.432352
8722.000000;0.432317
8721.000000;0.432612
8720.000000;0.433083
8719.000000;0.433323
8718.000000;0.433091
8717.000000;0.432534
8716.000000;0.432000
8715.000000;0.431712
8714.000000;0.431638
8713.000000;0.431630
8712.000000;0.431611
8711.000000;0.431597
8710.000000;0.431580
8709.000000;0.431483
8708.000000;0.431256
8707.000000;0.430980
8706.000000;0.430813
8705.000000;0.430835
8704.000000;0.430973
8703.000000;0.431074
8702.000000;0.431041
8701.000000;0.430901
8700.000000;0.430762
8699.000000;0.430725
8698.000000;0.430804
8697.000000;0.430910
8696.000000;0.430898
8695.000000;0.430662
8694.000000;0.430236
8693.000000;0.429814
8692.000000;0.429620
8691.000000;0.429710
8690.000000;0.429891
8689.000000;0.429912
8688.000000;0.429717
8687.000000;0.429465
8686.000000;0.429291
8685.000000;0.429135
8684.000000;0.428874
8683.000000;0.428547
8682.000000;0.428328
8681.000000;0.428306
8680.000000;0.428400
8679.000000;0.428514
8678.000000;0.428656
8677.000000;0.428835
8676.000000;0.428929
8675.000000;0.428770
8674.000000;0.428335
8673.000000;0.427783
8672.000000;0.427299
8671.000000;0.426973
8670.000000;0.426806
8669.000000;0.426744
8668.000000;0.426702
8667.000000;0.426606
8666.000000;0.426466
8665.000000;0.426357
8664.000000;0.426313
8663.000000;0.426272
8662.000000;0.426152
8661.000000;0.425927
8660.000000;0.425626
8659.000000;0.425288
8658.000000;0.424965
8657.000000;0.424729
8656.000000;0.424598
8655.000000;0.424477
8654.000000;0.424214
8653.000000;0.423744
8652.000000;0.423152
8651.000000;0.422606
8650.000000;0.422232
8649.000000;0.422040
8648.000000;0.421945
8647.000000;0.421870
8646.000000;0.421816
8645.000000;0.421811
8644.000000;0.421781
8643.000000;0.421574
8642.000000;0.421153
8641.000000;0.420696
8640.000000;0.420404
8639.000000;0.420260
8638.000000;0.420079
8637.000000;0.419788
8636.000000;0.419511
8635.000000;0.419365
8634.000000;0.419286
8633.000000;0.419116
8632.000000;0.418780
8631.000000;0.418309
8630.000000;0.417764
8629.000000;0.417215
8628.000000;0.416771
8627.000000;0.416525
8626.000000;0.416471
8625.000000;0.416516
8624.000000;0.416547
8623.000000;0.416472
8622.000000;0.416225
8621.000000;0.415823
8620.000000;0.415400
8619.000000;0.415093
8618.000000;0.414896
8617.000000;0.414674
8616.000000;0.414325
8615.000000;0.413879
8614.000000;0.413405
8613.000000;0.412898
8612.000000;0.412304
8611.000000;0.411642
8610.000000;0.411031
8609.000000;0.410591
8608.000000;0.410331
8607.000000;0.410166
8606.000000;0.410010
8605.000000;0.409847
8604.000000;0.409688
8603.000000;0.409516
8602.000000;0.409296
8601.000000;0.409033
8600.000000;0.408767
8599.000000;0.408499
8598.000000;0.408158
8597.000000;0.407693
8596.000000;0.407161
8595.000000;0.406698
8594.000000;0.406379
8593.000000;0.406138
8592.000000;0.405832
8591.000000;0.405383
8590.000000;0.404867
8589.000000;0.404461
8588.000000;0.404278
8587.000000;0.404238
8586.000000;0.404120
8585.000000;0.403785
8584.000000;0.403318
8583.000000;0.402928
8582.000000;0.402708
8581.000000;0.402541
8580.000000;0.402261
8579.000000;0.401842
8578.000000;0.401401
8577.000000;0.401045
8576.000000;0.400756
8575.000000;0.400427
8574.000000;0.399974
8573.000000;0.399418
8572.000000;0.398881
8571.000000;0.398506
8570.000000;0.398337
8569.000000;0.398263
8568.000000;0.398098
8567.000000;0.397747
8566.000000;0.397316
8565.000000;0.397006
8564.000000;0.396894
8563.000000;0.396851
8562.000000;0.396665
8561.000000;0.396237
8560.000000;0.395639
8559.000000;0.395017
8558.000000;0.394486
8557.000000;0.394071
8556.000000;0.393729
8555.000000;0.393396
8554.000000;0.393056
8553.000000;0.392728
8552.000000;0.392401
8551.000000;0.392007
8550.000000;0.391514
8549.000000;0.390996
8548.000000;0.390566
8547.000000;0.390255
8546.000000;0.390013
8545.000000;0.389798
8544.000000;0.389599
8543.000000;0.389389
8542.000000;0.389131
8541.000000;0.388855
8540.000000;0.388627
8539.000000;0.388422
8538.000000;0.388104
8537.000000;0.387589
8536.000000;0.386957
8535.000000;0.386357
8534.000000;0.385860
8533.000000;0.385447
8532.000000;0.385100
8531.000000;0.384833
8530.000000;0.384670
8529.000000;0.384615
8528.000000;0.384628
8527.000000;0.384577
8526.000000;0.384288
8525.000000;0.383709
8524.000000;0.383005
8523.000000;0.382432
8522.000000;0.382100
8521.000000;0.381892
8520.000000;0.381599
8519.000000;0.381123
8518.000000;0.380543
8517.000000;0.380031
8516.000000;0.379678
8515.000000;0.379416
8514.000000;0.379118
8513.000000;0.378753
8512.000000;0.378401
8511.000000;0.378099
8510.000000;0.377782
8509.000000;0.377407
8508.000000;0.377043
8507.000000;0.376743
8506.000000;0.376429
8505.000000;0.376000
8504.000000;0.375510
8503.000000;0.375117
8502.000000;0.374865
8501.000000;0.374626
8500.000000;0.374277
8499.000000;0.373833
8498.000000;0.373393
8497.000000;0.373032
8496.000000;0.372775
8495.000000;0.372596
8494.000000;0.372414
8493.000000;0.372148
8492.000000;0.371808
8491.000000;0.371489
8490.000000;0.371240
8489.000000;0.370998
8488.000000;0.370676
8487.000000;0.370267
8486.000000;0.369822
8485.000000;0.369387
8484.000000;0.368989
8483.000000;0.368663
8482.000000;0.368423
8481.000000;0.368221
8480.000000;0.367971
8479.000000;0.367621
8478.000000;0.367193
8477.000000;0.366774
8476.000000;0.366465
8475.000000;0.366320
8474.000000;0.366299
8473.000000;0.366287
8472.000000;0.366171
8471.000000;0.365905
8470.000000;0.365518
8469.000000;0.365077
8468.000000;0.364659
8467.000000;0.364321
8466.000000;0.364068
8465.000000;0.363846
8464.000000;0.363581
8463.000000;0.363219
8462.000000;0.362745
8461.000000;0.362175
8460.000000;0.361570
8459.000000;0.361040
8458.000000;0.360694
8457.000000;0.360552
8456.000000;0.360495
8455.000000;0.360330
8454.000000;0.359976
8453.000000;0.359547
8452.000000;0.359225
8451.000000;0.359032
8450.000000;0.358794
8449.000000;0.358362
8448.000000;0.357817
8447.000000;0.357376
8446.000000;0.357150
8445.000000;0.357056
8444.000000;0.356953
8443.000000;0.356784
8442.000000;0.356555
8441.000000;0.356261
8440.000000;0.355871
8439.000000;0.355388
8438.000000;0.354873
8437.000000;0.354426
8436.000000;0.354119
8435.000000;0.353952
8434.000000;0.353850
8433.000000;0.353721
8432.000000;0.353520
8431.000000;0.353249
8430.000000;0.352917
8429.000000;0.352533
8428.000000;0.352125
8427.000000;0.351718
8426.000000;0.351303
8425.000000;0.350861
8424.000000;0.350418
8423.000000;0.350043
8422.000000;0.349767
8421.000000;0.349552
8420.000000;0.349343
8419.000000;0.349137
8418.000000;0.348952
8417.000000;0.348772
8416.000000;0.348535
8415.000000;0.348203
8414.000000;0.347806
8413.000000;0.347414
8412.000000;0.347063
8411.000000;0.346728
8410.000000;0.346382
8409.000000;0.346070
8408.000000;0.345888
8407.000000;0.345892
8406.000000;0.346023
8405.000000;0.346129
8404.000000;0.346068
8403.000000;0.345792
8402.000000;0.345365
8401.000000;0.344909
8400.000000;0.344511
8399.000000;0.344170
8398.000000;0.343841
8397.000000;0.343530
8396.000000;0.343280
8395.000000;0.343065
8394.000000;0.342749
8393.000000;0.342235
8392.000000;0.341618
8391.000000;0.341128
8390.000000;0.340917
8389.000000;0.340915
8388.000000;0.340920
8387.000000;0.340783
8386.000000;0.340507
8385.000000;0.340185
8384.000000;0.339872
8383.000000;0.339534
8382.000000;0.339136
8381.000000;0.338753
8380.000000;0.338524
8379.000000;0.338498
8378.000000;0.338534
8377.000000;0.338416
8376.000000;0.338022
8375.000000;0.337412
8374.000000;0.336771
8373.000000;0.336293
8372.000000;0.336047
8371.000000;0.335914
8370.000000;0.335706
8369.000000;0.335369
8368.000000;0.335021
8367.000000;0.334766
8366.000000;0.334544
8365.000000;0.334260
8364.000000;0.333965
8363.000000;0.333789
8362.000000;0.333732
8361.000000;0.333638
8360.000000;0.333400
8359.000000;0.333083
8358.000000;0.332810
8357.000000;0.332608
8356.000000;0.332420
8355.000000;0.332185
8354.000000;0.331890
8353.000000;0.331550
8352.000000;0.331181
8351.000000;0.330774
8350.000000;0.330299
8349.000000;0.329783
8348.000000;0.329359
8347.000000;0.329164
8346.000000;0.329203
8345.000000;0.329339
8344.000000;0.329420
8343.000000;0.329353
8342.000000;0.329092
8341.000000;0.328642
8340.000000;0.328115
8339.000000;0.327684
8338.000000;0.327429
8337.000000;0.327264
8336.000000;0.327034
8335.000000;0.326666
8334.000000;0.326214
8333.000000;0.325808
8332.000000;0.325567
8331.000000;0.325498
8330.000000;0.325464
8329.000000;0.325307
8328.000000;0.325013
8327.000000;0.324697
8326.000000;0.324418
8325.000000;0.324117
8324.000000;0.323749
8323.000000;0.323392
8322.000000;0.323157
8321.000000;0.323045
8320.000000;0.322962
8319.000000;0.322843
8318.000000;0.322699
8317.000000;0.322568
8316.000000;0.322458
8315.000000;0.322318
8314.000000;0.322050
8313.000000;0.321608
8312.000000;0.321094
8311.000000;0.320684
8310.000000;0.320432
8309.000000;0.320214
8308.000000;0.319932
8307.000000;0.319656
8306.000000;0.319489
8305.000000;0.319386
8304.000000;0.319210
8303.000000;0.318936
8302.000000;0.318650
8301.000000;0.318387
8300.000000;0.318093
8299.000000;0.317773
8298.000000;0.317521
8297.000000;0.317381
8296.000000;0.317269
8295.000000;0.317102
8294.000000;0.316912
8293.000000;0.316766
8292.000000;0.316634
8291.000000;0.316432
8290.000000;0.316144
8289.000000;0.315847
8288.000000;0.315611
8287.000000;0.315434
8286.000000;0.315248
8285.000000;0.314964
8284.000000;0.314542
8283.000000;0.314054
8282.000000;0.313666
8281.000000;0.313479
8280.000000;0.313412
8279.000000;0.313286
8278.000000;0.313034
8277.000000;0.312758
8276.000000;0.312582
8275.000000;0.312487
8274.000000;0.312363
8273.000000;0.312162
8272.000000;0.311952
8271.000000;0.311815
8270.000000;0.311749
8269.000000;0.311679
8268.000000;0.311537
8267.000000;0.311312
8266.000000;0.311045
8265.000000;0.310803
8264.000000;0.310647
8263.000000;0.310586
8262.000000;0.310555
8261.000000;0.310454
8260.000000;0.310238
8259.000000;0.309944
8258.000000;0.309656
8257.000000;0.309431
8256.000000;0.309287
8255.000000;0.309208
8254.000000;0.309140
8253.000000;0.308995
8252.000000;0.308704
8251.000000;0.308295
8250.000000;0.307902
8249.000000;0.307653
8248.000000;0.307562
8247.000000;0.307509
8246.000000;0.307345
8245.000000;0.307023
8244.000000;0.306634
8243.000000;0.306350
8242.000000;0.306287
8241.000000;0.306405
8240.000000;0.306533
8239.000000;0.306507
8238.000000;0.306325
8237.000000;0.306121
8236.000000;0.306011
8235.000000;0.305967
8234.000000;0.305874
8233.000000;0.305670
8232.000000;0.305392
8231.000000;0.305089
8230.000000;0.304772
8229.000000;0.304462
8228.000000;0.304237
8227.000000;0.304164
8226.000000;0.304193
8225.000000;0.304160
8224.000000;0.303928
8223.000000;0.303528
8222.000000;0.303124
8221.000000;0.302858
8220.000000;0.302736
8219.000000;0.302675
8218.000000;0.302634
8217.000000;0.302663
8216.000000;0.302785
8215.000000;0.302906
8214.000000;0.302876
8213.000000;0.302644
8212.000000;0.302306
8211.000000;0.301983
8210.000000;0.301722
8209.000000;0.301501
8208.000000;0.301303
8207.000000;0.301122
8206.000000;0.300933
8205.000000;0.300714
8204.000000;0.300468
8203.000000;0.300220
8202.000000;0.299994
8201.000000;0.299827
8200.000000;0.299768
8199.000000;0.299814
8198.000000;0.299869
8197.000000;0.299822
8196.000000;0.299656
8195.000000;0.299471
8194.000000;0.299362
8193.000000;0.299321
8192.000000;0.299245
8191.000000;0.299039
8190.000000;0.298708
8189.000000;0.298358
8188.000000;0.298118
8187.000000;0.298030
8186.000000;0.298026
8185.000000;0.298012
8184.000000;0.297952
8183.000000;0.297864
8182.000000;0.297760
8181.000000;0.297643
8180.000000;0.297538
8179.000000;0.297487
8178.000000;0.297493
8177.000000;0.297499
8176.000000;0.297434
8175.000000;0.297267
8174.000000;0.297020
8173.000000;0.296756
8172.000000;0.296545
8171.000000;0.296419
8170.000000;0.296346
8169.000000;0.296258
8168.000000;0.296115
8167.000000;0.295933
8166.000000;0.295752
8165.000000;0.295612
8164.000000;0.295518
8163.000000;0.295430
8162.000000;0.295290
8161.000000;0.295094
8160.000000;0.294930
8159.000000;0.294896
8158.000000;0.294971
8157.000000;0.295020
8156.000000;0.294942
8155.000000;0.294776
8154.000000;0.294636
8153.000000;0.294575
8152.000000;0.294544
8151.000000;0.294477
8150.000000;0.294360
8149.000000;0.294216
8148.000000;0.294039
8147.000000;0.293780
8146.000000;0.293429
8145.000000;0.293091
8144.000000;0.292936
8143.000000;0.293037
8142.000000;0.293276
8141.000000;0.293439
8140.000000;0.293411
8139.000000;0.293259
8138.000000;0.293107
8137.000000;0.293001
8136.000000;0.292906
8135.000000;0.292800
8134.000000;0.292720
8133.000000;0.292682
8132.000000;0.292627
8131.000000;0.292476
8130.000000;0.292242
8129.000000;0.292045
8128.000000;0.291986
8127.000000;0.292044
8126.000000;0.292120
8125.000000;0.292152
8124.000000;0.292132
8123.000000;0.292053
8122.000000;0.291903
8121.000000;0.291716
8120.000000;0.291556
8119.000000;0.291415
8118.000000;0.291219
8117.000000;0.290972
8116.000000;0.290814
8115.000000;0.290853
8114.000000;0.291002
8113.000000;0.291058
8112.000000;0.290936
8111.000000;0.290731
8110.000000;0.290566
8109.000000;0.290476
8108.000000;0.290450
8107.000000;0.290482
8106.000000;0.290562
8105.000000;0.290655
8104.000000;0.290729
8103.000000;0.290766
8102.000000;0.290727
8101.000000;0.290563
8100.000000;0.290288
8099.000000;0.289995
8098.000000;0.289783
8097.000000;0.289675
8096.000000;0.289642
8095.000000;0.289632
8094.000000;0.289596
8093.000000;0.289517
8092.000000;0.289444
8091.000000;0.289438
8090.000000;0.289484
8089.000000;0.289496
8088.000000;0.289432
8087.000000;0.289356
8086.000000;0.289337
8085.000000;0.289342
8084.000000;0.289295
8083.000000;0.289181
8082.000000;0.289054
8081.000000;0.288948
8080.000000;0.288851
8079.000000;0.288754
8078.000000;0.288680
8077.000000;0.288654
8076.000000;0.288664
8075.000000;0.288663
8074.000000;0.288599
8073.000000;0.288464
8072.000000;0.288323
8071.000000;0.288269
8070.000000;0.288323
8069.000000;0.288392
8068.000000;0.288369
8067.000000;0.288241
8066.000000;0.288089
8065.000000;0.287995
8064.000000;0.287981
8063.000000;0.288009
8062.000000;0.288004
8061.000000;0.287897
8060.000000;0.287682
8059.000000;0.287454
8058.000000;0.287344
8057.000000;0.287396
8056.000000;0.287536
8055.000000;0.287656
8054.000000;0.287712
8053.000000;0.287737
8052.000000;0.287772
8051.000000;0.287819
8050.000000;0.287838
8049.000000;0.287791
8048.000000;0.287679
8047.000000;0.287541
8046.000000;0.287439
8045.000000;0.287419
8044.000000;0.287474
8043.000000;0.287535
8042.000000;0.287516
8041.000000;0.287401
8040.000000;0.287270
8039.000000;0.287212
8038.000000;0.287225
8037.000000;0.287224
8036.000000;0.287150
8035.000000;0.287021
8034.000000;0.286885
8033.000000;0.286756
8032.000000;0.286630
8031.000000;0.286524
8030.000000;0.286467
8029.000000;0.286471
8028.000000;0.286529
8027.000000;0.286638
8026.000000;0.286791
8025.000000;0.286959
8024.000000;0.287092
8023.000000;0.287135
8022.000000;0.287048
8021.000000;0.286832
8020.000000;0.286561
8019.000000;0.286356
8018.000000;0.286290
8017.000000;0.286324
8016.000000;0.286370
8015.000000;0.286389
8014.000000;0.286416
8013.000000;0.286491
8012.000000;0.286607
8011.000000;0.286718
8010.000000;0.286767
8009.000000;0.286708
8008.000000;0.286545
8007.000000;0.286357
8006.000000;0.286251
8005.000000;0.286255
8004.000000;0.286276
8003.000000;0.286187
8002.000000;0.285964
8001.000000;0.285712
8000.000000;0.285557
7999.000000;0.285550
7998.000000;0.285655
7997.000000;0.285795
7996.000000;0.285877
7995.000000;0.285820
7994.000000;0.285626
7993.000000;0.285423
7992.000000;0.285369
7991.000000;0.285489
7990.000000;0.285649
7989.000000;0.285729
7988.000000;0.285763
7987.000000;0.285846
7986.000000;0.285947
7985.000000;0.285926
7984.000000;0.285726
7983.000000;0.285470
7982.000000;0.285315
7981.000000;0.285304
7980.000000;0.285386
7979.000000;0.285517
7978.000000;0.285670
7977.000000;0.285791
7976.000000;0.285828
7975.000000;0.285790
7974.000000;0.285743
7973.000000;0.285722
7972.000000;0.285705
7971.000000;0.285669
7970.000000;0.285621
7969.000000;0.285575
7968.000000;0.285534
7967.000000;0.285499
7966.000000;0.285476
7965.000000;0.285453
7964.000000;0.285401
7963.000000;0.285313
7962.000000;0.285218
7961.000000;0.285160
7960.000000;0.285163
7959.000000;0.285224
7958.000000;0.285317
7957.000000;0.285406
7956.000000;0.285461
7955.000000;0.285477
7954.000000;0.285485
7953.000000;0.285519
7952.000000;0.285593
7951.000000;0.285684
7950.000000;0.285754
7949.000000;0.285773
7948.000000;0.285741
7947.000000;0.285677
7946.000000;0.285607
7945.000000;0.285557
7944.000000;0.285537
7943.000000;0.285517
7942.000000;0.285447
7941.000000;0.285316
7940.000000;0.285190
7939.000000;0.285150
7938.000000;0.285193
7937.000000;0.285233
7936.000000;0.285222
7935.000000;0.285206
7934.000000;0.285250
7933.000000;0.285345
7932.000000;0.285440
7931.000000;0.285506
7930.000000;0.285538
7929.000000;0.285504
7928.000000;0.285385
7927.000000;0.285245
7926.000000;0.285211
7925.000000;0.285327
7924.000000;0.285491
7923.000000;0.285556
7922.000000;0.285494
7921.000000;0.285404
7920.000000;0.285390
7919.000000;0.285440
7918.000000;0.285470
7917.000000;0.285429
7916.000000;0.285362
7915.000000;0.285338
7914.000000;0.285365
7913.000000;0.285391
7912.000000;0.285381
7911.000000;0.285358
7910.000000;0.285374
7909.000000;0.285448
7908.000000;0.285556
7907.000000;0.285661
7906.000000;0.285728
7905.000000;0.285736
7904.000000;0.285691
7903.000000;0.285649
7902.000000;0.285680
7901.000000;0.285806
7900.000000;0.285971
7899.000000;0.286082
7898.000000;0.286095
7897.000000;0.286050
7896.000000;0.286025
7895.000000;0.286048
7894.000000;0.286075
7893.000000;0.286056
7892.000000;0.286010
7891.000000;0.285989
7890.000000;0.286000
7889.000000;0.285997
7888.000000;0.285971
7887.000000;0.285971
7886.000000;0.286032
7885.000000;0.286103
7884.000000;0.286122
7883.000000;0.286105
7882.000000;0.286121
7881.000000;0.286186
7880.000000;0.286229
7879.000000;0.286186
7878.000000;0.286071
7877.000000;0.285955
7876.000000;0.285879
7875.000000;0.285841
7874.000000;0.285816
7873.000000;0.285797
7872.000000;0.285801
7871.000000;0.285863
7870.000000;0.286002
7869.000000;0.286203
7868.000000;0.286419
7867.000000;0.286592
7866.000000;0.286678
7865.000000;0.286674
7864.000000;0.286627
7863.000000;0.286613
7862.000000;0.286666
7861.000000;0.286748
7860.000000;0.286801
7859.000000;0.286823
7858.000000;0.286857
7857.000000;0.286923
7856.000000;0.286993
7855.000000;0.287052
7854.000000;0.287120
7853.000000;0.287206
7852.000000;0.287259
7851.000000;0.287210
7850.000000;0.287050
7849.000000;0.286856
7848.000000;0.286728
7847.000000;0.286728
7846.000000;0.286843
7845.000000;0.287005
7844.000000;0.287145
7843.000000;0.287237
7842.000000;0.287307
7841.000000;0.287391
7840.000000;0.287493
7839.000000;0.287586
7838.000000;0.287648
7837.000000;0.287680
7836.000000;0.287705
7835.000000;0.287736
7834.000000;0.287760
7833.000000;0.287754
7832.000000;0.287721
7831.000000;0.287711
7830.000000;0.287769
7829.000000;0.287872
7828.000000;0.287943
7827.000000;0.287946
7826.000000;0.287927
7825.000000;0.287944
7824.000000;0.287995
7823.000000;0.288050
7822.000000;0.288119
7821.000000;0.288232
7820.000000;0.288356
7819.000000;0.288402
7818.000000;0.288342
7817.000000;0.288262
7816.000000;0.288279
7815.000000;0.288415
7814.000000;0.288605
7813.000000;0.288779
7812.000000;0.288907
7811.000000;0.288984
7810.000000;0.289021
7809.000000;0.289053
7808.000000;0.289117
7807.000000;0.289205
7806.000000;0.289268
7805.000000;0.289268
7804.000000;0.289216
7803.000000;0.289168
7802.000000;0.289184
7801.000000;0.289289
7800.000000;0.289439
7799.000000;0.289539
7798.000000;0.289539
7797.000000;0.289505
7796.000000;0.289550
7795.000000;0.289707
7794.000000;0.289899
7793.000000;0.290047
7792.000000;0.290143
7791.000000;0.290204
7790.000000;0.290226
7789.000000;0.290218
7788.000000;0.290244
7787.000000;0.290363
7786.000000;0.290539
7785.000000;0.290680
7784.000000;0.290749
7783.000000;0.290805
7782.000000;0.290925
7781.000000;0.291123
7780.000000;0.291337
7779.000000;0.291473
7778.000000;0.291455
7777.000000;0.291285
7776.000000;0.291058
7775.000000;0.290912
7774.000000;0.290933
7773.000000;0.291110
7772.000000;0.291376
7771.000000;0.291638
7770.000000;0.291815
7769.000000;0.291870
7768.000000;0.291857
7767.000000;0.291873
7766.000000;0.291972
7765.000000;0.292130
7764.000000;0.292293
7763.000000;0.292430
7762.000000;0.292533
7761.000000;0.292598
7760.000000;0.292641
7759.000000;0.292695
7758.000000;0.292787
7757.000000;0.292915
7756.000000;0.293060
7755.000000;0.293202
7754.000000;0.293311
7753.000000;0.293366
7752.000000;0.293389
7751.000000;0.293441
7750.000000;0.293562
7749.000000;0.293719
7748.000000;0.293835
7747.000000;0.293859
7746.000000;0.293815
7745.000000;0.293790
7744.000000;0.293868
7743.000000;0.294060
7742.000000;0.294296
7741.000000;0.294498
7740.000000;0.294660
7739.000000;0.294831
7738.000000;0.295013
7737.000000;0.295135
7736.000000;0.295146
7735.000000;0.295091
7734.000000;0.295068
7733.000000;0.295127
7732.000000;0.295240
7731.000000;0.295350
7730.000000;0.295426
7729.000000;0.295476
7728.000000;0.295528
7727.000000;0.295615
7726.000000;0.295752
7725.000000;0.295930
7724.000000;0.296126
7723.000000;0.296320
7722.000000;0.296516
7721.000000;0.296720
7720.000000;0.296918
7719.000000;0.297050
7718.000000;0.297066
7717.000000;0.297006
7716.000000;0.296998
7715.000000;0.297138
7714.000000;0.297376
7713.000000;0.297568
7712.000000;0.297639
7711.000000;0.297645
7710.000000;0.297682
7709.000000;0.297794
7708.000000;0.297971
7707.000000;0.298183
7706.000000;0.298382
7705.000000;0.298512
7704.000000;0.298568
7703.000000;0.298607
7702.000000;0.298677
7701.000000;0.298769
7700.000000;0.298874
7699.000000;0.299031
7698.000000;0.299265
7697.000000;0.299512
7696.000000;0.299667
7695.000000;0.299703
7694.000000;0.299704
7693.000000;0.299769
7692.000000;0.299925
7691.000000;0.300126
7690.000000;0.300316
7689.000000;0.300480
7688.000000;0.300651
7687.000000;0.300863
7686.000000;0.301097
7685.000000;0.301281
7684.000000;0.301375
7683.000000;0.301427
7682.000000;0.301518
7681.000000;0.301668
7680.000000;0.301819
7679.000000;0.301918
7678.000000;0.301984
7677.000000;0.302096
7676.000000;0.302308
7675.000000;0.302587
7674.000000;0.302827
7673.000000;0.302947
7672.000000;0.302981
7671.000000;0.303048
7670.000000;0.303228
7669.000000;0.303494
7668.000000;0.303766
7667.000000;0.304003
7666.000000;0.304207
7665.000000;0.304396
7664.000000;0.304591
7663.000000;0.304800
7662.000000;0.304992
7661.000000;0.305115
7660.000000;0.305183
7659.000000;0.305290
7658.000000;0.305504
7657.000000;0.305771
7656.000000;0.305981
7655.000000;0.306109
7654.000000;0.306217
7653.000000;0.306353
7652.000000;0.306503
7651.000000;0.306641
7650.000000;0.306771
7649.000000;0.306902
7648.000000;0.307053
7647.000000;0.307261
7646.000000;0.307557
7645.000000;0.307912
7644.000000;0.308252
7643.000000;0.308524
7642.000000;0.308723
7641.000000;0.308868
7640.000000;0.308997
7639.000000;0.309165
7638.000000;0.309394
7637.000000;0.309621
7636.000000;0.309760
7635.000000;0.309825
7634.000000;0.309919
7633.000000;0.310106
7632.000000;0.310350
7631.000000;0.310601
7630.000000;0.310877
7629.000000;0.311209
7628.000000;0.311561
7627.000000;0.311864
7626.000000;0.312096
7625.000000;0.312296
7624.000000;0.312500
7623.000000;0.312703
7622.000000;0.312882
7621.000000;0.313024
7620.000000;0.313146
7619.000000;0.313296
7618.000000;0.313503
7617.000000;0.313735
7616.000000;0.313932
7615.000000;0.314095
7614.000000;0.314307
7613.000000;0.314631
7612.000000;0.315023
7611.000000;0.315380
7610.000000;0.315653
7609.000000;0.315880
7608.000000;0.316108
7607.000000;0.316334
7606.000000;0.316525
7605.000000;0.316677
7604.000000;0.316828
7603.000000;0.317024
7602.000000;0.317281
7601.000000;0.317574
7600.000000;0.317874
7599.000000;0.318175
7598.000000;0.318486
7597.000000;0.318805
7596.000000;0.319116
7595.000000;0.319408
7594.000000;0.319680
7593.000000;0.319923
7592.000000;0.320129
7591.000000;0.320322
7590.000000;0.320553
7589.000000;0.320842
7588.000000;0.321133
7587.000000;0.321347
7586.000000;0.321486
7585.000000;0.321650
7584.000000;0.321944
7583.000000;0.322370
7582.000000;0.322819
7581.000000;0.323186
7580.000000;0.323473
7579.000000;0.323757
7578.000000;0.324085
7577.000000;0.324418
7576.000000;0.324703
7575.000000;0.324965
7574.000000;0.325272
7573.000000;0.325632
7572.000000;0.325982
7571.000000;0.326281
7570.000000;0.326577
7569.000000;0.326943
7568.000000;0.327384
7567.000000;0.327825
7566.000000;0.328180
7565.000000;0.328419
7564.000000;0.328565
7563.000000;0.328681
7562.000000;0.328843
7561.000000;0.329096
7560.000000;0.329419
7559.000000;0.329741
7558.000000;0.330014
7557.000000;0.330274
7556.000000;0.330607
7555.000000;0.331033
7554.000000;0.331464
7553.000000;0.331798
7552.000000;0.332047
7551.000000;0.332326
7550.000000;0.332713
7549.000000;0.333165
7548.000000;0.333592
7547.000000;0.333972
7546.000000;0.334340
7545.000000;0.334710
7544.000000;0.335052
7543.000000;0.335350
7542.000000;0.335635
7541.000000;0.335944
7540.000000;0.336284
7539.000000;0.336635
7538.000000;0.336968
7537.000000;0.337272
7536.000000;0.337568
7535.000000;0.337913
7534.000000;0.338346
7533.000000;0.338848
7532.000000;0.339369
7531.000000;0.339870
7530.000000;0.340336
7529.000000;0.340745
7528.000000;0.341092
7527.000000;0.341413
7526.000000;0.341773
7525.000000;0.342190
7524.000000;0.342621
7523.000000;0.343002
7522.000000;0.343312
7521.000000;0.343586
7520.000000;0.343888
7519.000000;0.344259
7518.000000;0.344665
7517.000000;0.345022
7516.000000;0.345291
7515.000000;0.345538
7514.000000;0.345867
7513.000000;0.346309
7512.000000;0.346809
7511.000000;0.347314
7510.000000;0.347808
7509.000000;0.348284
7508.000000;0.348718
7507.000000;0.349100
7506.000000;0.349448
7505.000000;0.349790
7504.000000;0.350147
7503.000000;0.350540
7502.000000;0.350970
7501.000000;0.351406
7500.000000;0.351804
7499.000000;0.352165
7498.000000;0.352525
7497.000000;0.352863
7496.000000;0.353256
7495.000000;0.353655
7494.000000;0.354063
7493.000000;0.354479
7492.000000;0.354892
7491.000000;0.355291
7490.000000;0.355677
7489.000000;0.356057
7488.000000;0.356452
7487.000000;0.356883
7486.000000;0.357334
7485.000000;0.357767
7484.000000;0.358186
7483.000000;0.358645
7482.000000;0.359156
7481.000000;0.359649
7480.000000;0.360056
7479.000000;0.360408
7478.000000;0.360778
7477.000000;0.361170
7476.000000;0.361547
7475.000000;0.361919
7474.000000;0.362323
7473.000000;0.362737
7472.000000;0.363118
7471.000000;0.363501
7470.000000;0.363974
7469.000000;0.364540
7468.000000;0.365098
7467.000000;0.365574
7466.000000;0.365982
7465.000000;0.366351
7464.000000;0.366675
7463.000000;0.366966
7462.000000;0.367278
7461.000000;0.367641
7460.000000;0.368035
7459.000000;0.368449
7458.000000;0.368890
7457.000000;0.369325
7456.000000;0.369698
7455.000000;0.370019
7454.000000;0.370377
7453.000000;0.370824
7452.000000;0.371322
7451.000000;0.371827
7450.000000;0.372349
7449.000000;0.372891
7448.000000;0.373398
7447.000000;0.373819
7446.000000;0.374177
7445.000000;0.374538
7444.000000;0.374935
7443.000000;0.375362
7442.000000;0.375786
7441.000000;0.376154
7440.000000;0.376455
7439.000000;0.376767
7438.000000;0.377194
7437.000000;0.377728
7436.000000;0.378246
7435.000000;0.378666
7434.000000;0.379036
7433.000000;0.379446
7432.000000;0.379917
7431.000000;0.380400
7430.000000;0.380845
7429.000000;0.381218
7428.000000;0.381530
7427.000000;0.381846
7426.000000;0.382239
7425.000000;0.382694
7424.000000;0.383116
7423.000000;0.383473
7422.000000;0.383831
7421.000000;0.384235
7420.000000;0.384630
7419.000000;0.384967
7418.000000;0.385294
7417.000000;0.385679
7416.000000;0.386124
7415.000000;0.386584
7414.000000;0.387020
7413.000000;0.387413
7412.000000;0.387753
7411.000000;0.388053
7410.000000;0.388332
7409.000000;0.388596
7408.000000;0.388892
7407.000000;0.389323
7406.000000;0.389905
7405.000000;0.390479
7404.000000;0.390887
7403.000000;0.391197
7402.000000;0.391603
7401.000000;0.392157
7400.000000;0.392740
7399.000000;0.393223
7398.000000;0.393554
7397.000000;0.393769
7396.000000;0.393996
7395.000000;0.394363
7394.000000;0.394768
7393.000000;0.394916
7392.000000;0.394709
7391.000000;0.394469
7390.000000;0.394605
7389.000000;0.395166
7388.000000;0.395928
7387.000000;0.396774
7386.000000;0.397694
7385.000000;0.398507
7384.000000;0.399001
7383.000000;0.399364
7382.000000;0.400018
7381.000000;0.400894
7380.000000;0.401345
7379.000000;0.401099
7378.000000;0.400825
7377.000000;0.401299
7376.000000;0.402388
7375.000000;0.403288
7374.000000;0.403554
7373.000000;0.403451
7372.000000;0.403430
7371.000000;0.403689
7370.000000;0.404191
7369.000000;0.404750
7368.000000;0.405149
7367.000000;0.405404
7366.000000;0.405787
7365.000000;0.406391
7364.000000;0.406909
7363.000000;0.407145
7362.000000;0.407415
7361.000000;0.408034
7360.000000;0.408688
7359.000000;0.408946
7358.000000;0.409082
7357.000000;0.409677
7356.000000;0.410642
7355.000000;0.411336
7354.000000;0.411555
7353.000000;0.411685
7352.000000;0.411988
7351.000000;0.412426
7350.000000;0.413085
7349.000000;0.414003
7348.000000;0.414726
7347.000000;0.414835
7346.000000;0.414754
7345.000000;0.415220
7344.000000;0.416101
7343.000000;0.416745
7342.000000;0.417313
7341.000000;0.418587
7340.000000;0.420330
7339.000000;0.421154
7338.000000;0.420566
7337.000000;0.419794
7336.000000;0.420029
7335.000000;0.421020
7334.000000;0.421952
7333.000000;0.422584
7332.000000;0.422943
7331.000000;0.422968
7330.000000;0.423066
7329.000000;0.423983
7328.000000;0.425519
7327.000000;0.426411
7326.000000;0.426175
7325.000000;0.425961
7324.000000;0.426796
7323.000000;0.428090
7322.000000;0.428729
7321.000000;0.428798
7320.000000;0.429248
7319.000000;0.430339
7318.000000;0.431543
7317.000000;0.432559
7316.000000;0.433431
7315.000000;0.434025
7314.000000;0.434375
7313.000000;0.435159
7312.000000;0.436787
7311.000000;0.438384
7310.000000;0.438845
7309.000000;0.438518
7308.000000;0.438685
7307.000000;0.439669
7306.000000;0.440621
7305.000000;0.441117
7304.000000;0.441729
7303.000000;0.442776
7302.000000;0.443795
7301.000000;0.444554
7300.000000;0.445490
7299.000000;0.446708
7298.000000;0.447554
7297.000000;0.447859
7296.000000;0.448507
7295.000000;0.450093
7294.000000;0.451882
7293.000000;0.452895
7292.000000;0.453435
7291.000000;0.454553
7290.000000;0.456497
7289.000000;0.458535
7288.000000;0.459995
7287.000000;0.460848
7286.000000;0.461391
7285.000000;0.461901
7284.000000;0.462661
7283.000000;0.463839
7282.000000;0.465252
7281.000000;0.466557
7280.000000;0.467693
7279.000000;0.468891
7278.000000;0.470261
7277.000000;0.471694
7276.000000;0.473154
7275.000000;0.474759
7274.000000;0.476542
7273.000000;0.478312
7272.000000;0.479857
7271.000000;0.481193
7270.000000;0.482535
7269.000000;0.484070
7268.000000;0.485785
7267.000000;0.487505
7266.000000;0.489111
7265.000000;0.490739
7264.000000;0.492643
7263.000000;0.494824
7262.000000;0.496918
7261.000000;0.498595
7260.000000;0.499982
7259.000000;0.501492
7258.000000;0.503318
7257.000000;0.505324
7256.000000;0.507433
7255.000000;0.509784
7254.000000;0.512393
7253.000000;0.514948
7252.000000;0.517086
7251.000000;0.518836
7250.000000;0.520682
7249.000000;0.523064
7248.000000;0.525809
7247.000000;0.528246
7246.000000;0.530122
7245.000000;0.532088
7244.000000;0.534894
7243.000000;0.538295
7242.000000;0.541238
7241.000000;0.543223
7240.000000;0.544964
7239.000000;0.547406
7238.000000;0.550551
7237.000000;0.553608
7236.000000;0.556128
7235.000000;0.558592
7234.000000;0.561758
7233.000000;0.565692
7232.000000;0.569531
7231.000000;0.572336
7230.000000;0.574201
7229.000000;0.576225
7228.000000;0.579283
7227.000000;0.583122
7226.000000;0.586840
7225.000000;0.589900
7224.000000;0.592476
7223.000000;0.595077
7222.000000;0.598098
7221.000000;0.601592
7220.000000;0.605258
7219.000000;0.608719
7218.000000;0.611967
7217.000000;0.615373
7216.000000;0.619174
7215.000000;0.623113
7214.000000;0.626776
7213.000000;0.630203
7212.000000;0.633876
7211.000000;0.638062
7210.000000;0.642499
7209.000000;0.646845
7208.000000;0.651142
7207.000000;0.655660
7206.000000;0.660494
7205.000000;0.665445
7204.000000;0.670173
7203.000000;0.674458
7202.000000;0.678408
7201.000000;0.682409
7200.000000;0.686746
7199.000000;0.691284
7198.000000;0.695707
7197.000000;0.700029
7196.000000;0.704602
7195.000000;0.709527
7194.000000;0.714432
7193.000000;0.719067
7192.000000;0.723741
7191.000000;0.728847
7190.000000;0.734247
7189.000000;0.739586
7188.000000;0.744932
7187.000000;0.750513
7186.000000;0.756074
7185.000000;0.761136
7184.000000;0.765897
7183.000000;0.771114
7182.000000;0.777003
7181.000000;0.782907
7180.000000;0.788311
7179.000000;0.793589
7178.000000;0.799327
7177.000000;0.805465
7176.000000;0.811581
7175.000000;0.817569
7174.000000;0.823587
7173.000000;0.829630
7172.000000;0.835638
7171.000000;0.841829
7170.000000;0.848369
7169.000000;0.854959
7168.000000;0.861203
7167.000000;0.867115
7166.000000;0.872849
7165.000000;0.878265
7164.000000;0.883338
7163.000000;0.888623
7162.000000;0.894715
7161.000000;0.901433
7160.000000;0.908077
7159.000000;0.914450
7158.000000;0.920980
7157.000000;0.927794
7156.000000;0.934391
7155.000000;0.940443
7154.000000;0.946298
7153.000000;0.952445
7152.000000;0.958863
7151.000000;0.965195
7150.000000;0.971259
7149.000000;0.977220
7148.000000;0.983370
7147.000000;0.989898
7146.000000;0.996811
7145.000000;1.003901
7144.000000;1.010807
7143.000000;1.017285
7142.000000;1.023512
7141.000000;1.029881
7140.000000;1.036446
7139.000000;1.042808
7138.000000;1.048727
7137.000000;1.054538
7136.000000;1.060660
7135.000000;1.066971
7134.000000;1.073062
7133.000000;1.078972
7132.000000;1.085190
7131.000000;1.091864
7130.000000;1.098498
7129.000000;1.104650
7128.000000;1.110488
7127.000000;1.116375
7126.000000;1.122344
7125.000000;1.128393
7124.000000;1.134842
7123.000000;1.141796
7122.000000;1.148558
7121.000000;1.154253
7120.000000;1.159029
7119.000000;1.164001
7118.000000;1.169897
7117.000000;1.176285
7116.000000;1.182403
7115.000000;1.188213
7114.000000;1.194161
7113.000000;1.200282
7112.000000;1.206107
7111.000000;1.211375
7110.000000;1.216389
7109.000000;1.221629
7108.000000;1.227285
7107.000000;1.233206
7106.000000;1.239015
7105.000000;1.244279
7104.000000;1.248776
7103.000000;1.252756
7102.000000;1.256863
7101.000000;1.261661
7100.000000;1.267074
7099.000000;1.272387
7098.000000;1.276986
7097.000000;1.281014
7096.000000;1.285092
7095.000000;1.289599
7094.000000;1.294532
7093.000000;1.299882
7092.000000;1.305620
7091.000000;1.311292
7090.000000;1.316193
7089.000000;1.320128
7088.000000;1.323648
7087.000000;1.327355
7086.000000;1.331365
7085.000000;1.335597
7084.000000;1.340088
7083.000000;1.344679
7082.000000;1.348852
7081.000000;1.352316
7080.000000;1.355433
7079.000000;1.358745
7078.000000;1.362347
7077.000000;1.365978
7076.000000;1.369472
7075.000000;1.372853
7074.000000;1.376222
7073.000000;1.379767
7072.000000;1.383701
7071.000000;1.387954
7070.000000;1.392118
7069.000000;1.395848
7068.000000;1.399120
7067.000000;1.401997
7066.000000;1.404493
7065.000000;1.406834
7064.000000;1.409447
7063.000000;1.412413
7062.000000;1.415319
7061.000000;1.417950
7060.000000;1.420677
7059.000000;1.423777
7058.000000;1.426856
7057.000000;1.429417
7056.000000;1.431642
7055.000000;1.434110
7054.000000;1.436979
7053.000000;1.439904
7052.000000;1.442587
7051.000000;1.444989
7050.000000;1.447139
7049.000000;1.449175
7048.000000;1.451460
7047.000000;1.454240
7046.000000;1.457248
7045.000000;1.459937
7044.000000;1.462037
7043.000000;1.463600
7042.000000;1.464745
7041.000000;1.465698
7040.000000;1.466860
7039.000000;1.468447
7038.000000;1.470229
7037.000000;1.471917
7036.000000;1.473559
7035.000000;1.475297
7034.000000;1.477081
7033.000000;1.478986
7032.000000;1.481451
7031.000000;1.484676
7030.000000;1.488031
7029.000000;1.490575
7028.000000;1.492052
7027.000000;1.492937
7026.000000;1.493705
7025.000000;1.494584
7024.000000;1.495800
7023.000000;1.497439
7022.000000;1.499113
7021.000000;1.500325
7020.000000;1.501188
7019.000000;1.502326
7018.000000;1.504037
7017.000000;1.505971
7016.000000;1.507629
7015.000000;1.508823
7014.000000;1.509639
7013.000000;1.510316
7012.000000;1.511160
7011.000000;1.512212
7010.000000;1.513014
7009.000000;1.513072
7008.000000;1.512570
7007.000000;1.512329
7006.000000;1.513076
7005.000000;1.514939
7004.000000;1.517455
7003.000000;1.519747
7002.000000;1.520905
7001.000000;1.520680
7000.000000;1.519813
6999.000000;1.519352
6998.000000;1.519705
6997.000000;1.520569
6996.000000;1.521561
6995.000000;1.522465
6994.000000;1.523049
6993.000000;1.523197
6992.000000;1.523303
6991.000000;1.524025
6990.000000;1.525465
6989.000000;1.526971
6988.000000;1.527896
6987.000000;1.528245
6986.000000;1.528506
6985.000000;1.529113
6984.000000;1.530154
6983.000000;1.531327
6982.000000;1.532116
6981.000000;1.532244
6980.000000;1.532018
6979.000000;1.532013
6978.000000;1.532404
6977.000000;1.532849
6976.000000;1.533026
6975.000000;1.533020
6974.000000;1.533122
6973.000000;1.533461
6972.000000;1.533942
6971.000000;1.534404
6970.000000;1.534705
6969.000000;1.534734
6968.000000;1.534439
6967.000000;1.533843
6966.000000;1.533074
6965.000000;1.532382
6964.000000;1.532064
6963.000000;1.532289
6962.000000;1.533010
6961.000000;1.534010
6960.000000;1.534887
6959.000000;1.535111
6958.000000;1.534443
6957.000000;1.533357
6956.000000;1.532704
6955.000000;1.532797
6954.000000;1.533141
6953.000000;1.533218
6952.000000;1.533158
6951.000000;1.533318
6950.000000;1.533564
6949.000000;1.533419
6948.000000;1.532779
6947.000000;1.532006
6946.000000;1.531361
6945.000000;1.530761
6944.000000;1.530175
6943.000000;1.529860
6942.000000;1.530046
6941.000000;1.530560
6940.000000;1.530870
6939.000000;1.530463
6938.000000;1.529247
6937.000000;1.527686
6936.000000;1.526475
6935.000000;1.525948
6934.000000;1.525850
6933.000000;1.525772
6932.000000;1.525669
6931.000000;1.525763
6930.000000;1.526059
6929.000000;1.526194
6928.000000;1.525826
6927.000000;1.525034
6926.000000;1.524270
6925.000000;1.523901
6924.000000;1.523799
6923.000000;1.523419
6922.000000;1.522396
6921.000000;1.521030
6920.000000;1.520008
6919.000000;1.519612
6918.000000;1.519462
6917.000000;1.519111
6916.000000;1.518624
6915.000000;1.518355
6914.000000;1.518377
6913.000000;1.518366
6912.000000;1.517935
6911.000000;1.516948
6910.000000;1.515647
6909.000000;1.514565
6908.000000;1.514137
6907.000000;1.514260
6906.000000;1.514409
6905.000000;1.514271
6904.000000;1.514012
6903.000000;1.513787
6902.000000;1.513321
6901.000000;1.512328
6900.000000;1.511142
6899.000000;1.510480
6898.000000;1.510605
6897.000000;1.510982
6896.000000;1.510775
6895.000000;1.509587
6894.000000;1.507770
6893.000000;1.506163
6892.000000;1.505418
6891.000000;1.505429
6890.000000;1.505432
6889.000000;1.504788
6888.000000;1.503553
6887.000000;1.502254
6886.000000;1.501325
6885.000000;1.500892
6884.000000;1.500852
6883.000000;1.500845
6882.000000;1.500308
6881.000000;1.498873
6880.000000;1.496782
6879.000000;1.494752
6878.000000;1.493434
6877.000000;1.492980
6876.000000;1.493004
6875.000000;1.492889
6874.000000;1.492277
6873.000000;1.491323
6872.000000;1.490474
6871.000000;1.490017
6870.000000;1.489948
6869.000000;1.490070
6868.000000;1.489979
6867.000000;1.489145
6866.000000;1.487474
6865.000000;1.485714
6864.000000;1.484834
6863.000000;1.484907
6862.000000;1.485032
6861.000000;1.484443
6860.000000;1.483246
6859.000000;1.481928
6858.000000;1.480719
6857.000000;1.479670
6856.000000;1.478833
6855.000000;1.478010
6854.000000;1.476757
6853.000000;1.475022
6852.000000;1.473407
6851.000000;1.472419
6850.000000;1.471831
6849.000000;1.471179
6848.000000;1.470487
6847.000000;1.469957
6846.000000;1.469210
6845.000000;1.467522
6844.000000;1.464814
6843.000000;1.461915
6842.000000;1.459781
6841.000000;1.458744
6840.000000;1.458418
6839.000000;1.458007
6838.000000;1.456827
6837.000000;1.454899
6836.000000;1.452958
6835.000000;1.451566
6834.000000;1.450346
6833.000000;1.448439
6832.000000;1.445663
6831.000000;1.442757
6830.000000;1.440457
6829.000000;1.438710
6828.000000;1.436939
6827.000000;1.434770
6826.000000;1.432360
6825.000000;1.430161
6824.000000;1.428503
6823.000000;1.427302
6822.000000;1.426101
6821.000000;1.424458
6820.000000;1.422299
6819.000000;1.419873
6818.000000;1.417488
6817.000000;1.415344
6816.000000;1.413469
6815.000000;1.411628
6814.000000;1.409425
6813.000000;1.406707
6812.000000;1.403801
6811.000000;1.401201
6810.000000;1.399081
6809.000000;1.397255
6808.000000;1.395503
6807.000000;1.393728
6806.000000;1.391802
6805.000000;1.389489
6804.000000;1.386611
6803.000000;1.383283
6802.000000;1.379952
6801.000000;1.377155
6800.000000;1.375086
6799.000000;1.373371
6798.000000;1.371423
6797.000000;1.369042
6796.000000;1.366487
6795.000000;1.363976
6794.000000;1.361418
6793.000000;1.358756
6792.000000;1.356214
6791.000000;1.353952
6790.000000;1.351697
6789.000000;1.349030
6788.000000;1.345895
6787.000000;1.342586
6786.000000;1.339399
6785.000000;1.336538
6784.000000;1.334143
6783.000000;1.332110
6782.000000;1.329974
6781.000000;1.327311
6780.000000;1.324206
6779.000000;1.321124
6778.000000;1.318379
6777.000000;1.315939
6776.000000;1.313627
6775.000000;1.311229
6774.000000;1.308490
6773.000000;1.305332
6772.000000;1.302050
6771.000000;1.299023
6770.000000;1.296261
6769.000000;1.293487
6768.000000;1.290612
6767.000000;1.287834
6766.000000;1.285273
6765.000000;1.282801
6764.000000;1.280263
6763.000000;1.277613
6762.000000;1.274814
6761.000000;1.271819
6760.000000;1.268736
6759.000000;1.265806
6758.000000;1.263141
6757.000000;1.260626
6756.000000;1.258112
6755.000000;1.255532
6754.000000;1.252803
6753.000000;1.249821
6752.000000;1.246647
6751.000000;1.243532
6750.000000;1.240710
6749.000000;1.238232
6748.000000;1.236012
6747.000000;1.233871
6746.000000;1.231539
6745.000000;1.228774
6744.000000;1.225593
6743.000000;1.222290
6742.000000;1.219189
6741.000000;1.216428
6740.000000;1.213972
6739.000000;1.211678
6738.000000;1.209343
6737.000000;1.206792
6736.000000;1.203993
6735.000000;1.201018
6734.000000;1.197924
6733.000000;1.194781
6732.000000;1.191765
6731.000000;1.189052
6730.000000;1.186592
6729.000000;1.184141
6728.000000;1.181541
6727.000000;1.178820
6726.000000;1.176013
6725.000000;1.173084
6724.000000;1.170101
6723.000000;1.167310
6722.000000;1.164864
6721.000000;1.162601
6720.000000;1.160213
6719.000000;1.157569
6718.000000;1.154761
6717.000000;1.151930
6716.000000;1.149182
6715.000000;1.146617
6714.000000;1.144258
6713.000000;1.141952
6712.000000;1.139406
6711.000000;1.136478
6710.000000;1.133318
6709.000000;1.130215
6708.000000;1.127380
6707.000000;1.124826
6706.000000;1.122380
6705.000000;1.119836
6704.000000;1.117151
6703.000000;1.114543
6702.000000;1.111957
6701.000000;1.109546
6700.000000;1.107209
6699.000000;1.104779
6698.000000;1.102163
6697.000000;1.099423
6696.000000;1.096728
6695.000000;1.094207
6694.000000;1.091806
6693.000000;1.089330
6692.000000;1.086640
6691.000000;1.083834
6690.000000;1.081173
6689.000000;1.078834
6688.000000;1.076737
6687.000000;1.074646
6686.000000;1.072401
6685.000000;1.069999
6684.000000;1.067491
6683.000000;1.064877
6682.000000;1.062157
6681.000000;1.059410
6680.000000;1.056734
6679.000000;1.054141
6678.000000;1.051566
6677.000000;1.048983
6676.000000;1.046439
6675.000000;1.043978
6674.000000;1.041593
6673.000000;1.039248
6672.000000;1.036890
6671.000000;1.034451
6670.000000;1.031906
6669.000000;1.029338
6668.000000;1.026875
6667.000000;1.024516
6666.000000;1.022107
6665.000000;1.019531
6664.000000;1.016866
6663.000000;1.014309
6662.000000;1.011982
6661.000000;1.009837
6660.000000;1.007721
6659.000000;1.005483
6658.000000;1.003091
6657.000000;1.000671
6656.000000;0.998390
6655.000000;0.996237
6654.000000;0.993988
6653.000000;0.991448
6652.000000;0.988689
6651.000000;0.985998
6650.000000;0.983609
6649.000000;0.981538
6648.000000;0.979625
6647.000000;0.977671
6646.000000;0.975540
6645.000000;0.973224
6644.000000;0.970826
6643.000000;0.968470
6642.000000;0.966212
6641.000000;0.964028
6640.000000;0.961866
6639.000000;0.959664
6638.000000;0.957369
6637.000000;0.954971
6636.000000;0.952515
6635.000000;0.950083
6634.000000;0.947771
6633.000000;0.945659
6632.000000;0.943768
6631.000000;0.942001
6630.000000;0.940187
6629.000000;0.938216
6628.000000;0.936098
6627.000000;0.933891
6626.000000;0.931616
6625.000000;0.929275
6624.000000;0.926905
6623.000000;0.924565
6622.000000;0.922310
6621.000000;0.920186
6620.000000;0.918211
6619.000000;0.916315
6618.000000;0.914360
6617.000000;0.912258
6616.000000;0.910056
6615.000000;0.907868
6614.000000;0.905766
6613.000000;0.903760
6612.000000;0.901837
6611.000000;0.899959
6610.000000;0.898056
6609.000000;0.896082
6608.000000;0.894055
6607.000000;0.892006
6606.000000;0.889926
6605.000000;0.887812
6604.000000;0.885718
6603.000000;0.883707
6602.000000;0.881782
6601.000000;0.879920
6600.000000;0.878127
6599.000000;0.876386
6598.000000;0.874585
6597.000000;0.872594
6596.000000;0.870439
6595.000000;0.868311
6594.000000;0.866378
6593.000000;0.864613
6592.000000;0.862839
6591.000000;0.860932
6590.000000;0.858936
6589.000000;0.857001
6588.000000;0.855211
6587.000000;0.853490
6586.000000;0.851694
6585.000000;0.849788
6584.000000;0.847889
6583.000000;0.846112
6582.000000;0.844418
6581.000000;0.842656
6580.000000;0.840731
6579.000000;0.838689
6578.000000;0.836647
6577.000000;0.834690
6576.000000;0.832829
6575.000000;0.831023
6574.000000;0.829221
6573.000000;0.827415
6572.000000;0.825644
6571.000000;0.823951
6570.000000;0.822326
6569.000000;0.820697
6568.000000;0.818972
6567.000000;0.817095
6566.000000;0.815107
6565.000000;0.813136
6564.000000;0.811302
6563.000000;0.809609
6562.000000;0.807954
6561.000000;0.806254
6560.000000;0.804513
6559.000000;0.802773
6558.000000;0.801054
6557.000000;0.799377
6556.000000;0.797782
6555.000000;0.796277
6554.000000;0.794789
6553.000000;0.793214
6552.000000;0.791500
6551.000000;0.789669
6550.000000;0.787802
6549.000000;0.786027
6548.000000;0.784455
6547.000000;0.783068
6546.000000;0.781703
6545.000000;0.780209
6544.000000;0.778583
6543.000000;0.776920
6542.000000;0.775260
6541.000000;0.773573
6540.000000;0.771862
6539.000000;0.770195
6538.000000;0.768610
6537.000000;0.767069
6536.000000;0.765539
6535.000000;0.764042
6534.000000;0.762599
6533.000000;0.761162
6532.000000;0.759643
6531.000000;0.758005
6530.000000;0.756297
6529.000000;0.754608
6528.000000;0.753010
6527.000000;0.751536
6526.000000;0.750168
6525.000000;0.748842
6524.000000;0.747459
6523.000000;0.745941
6522.000000;0.744292
6521.000000;0.742605
6520.000000;0.740992
6519.000000;0.739499
6518.000000;0.738099
6517.000000;0.736747
6516.000000;0.735397
6515.000000;0.733986
6514.000000;0.732475
6513.000000;0.730916
6512.000000;0.729436
6511.000000;0.728105
6510.000000;0.726866
6509.000000;0.725613
6508.000000;0.724298
6507.000000;0.722936
6506.000000;0.721553
6505.000000;0.720174
6504.000000;0.718826
6503.000000;0.717501
6502.000000;0.716145
6501.000000;0.714717
6500.000000;0.713259
6499.000000;0.711834
6498.000000;0.710448
6497.000000;0.709058
6496.000000;0.707666
6495.000000;0.706325
6494.000000;0.705068
6493.000000;0.703862
6492.000000;0.702646
6491.000000;0.701375
6490.000000;0.700032
6489.000000;0.698624
6488.000000;0.697183
6487.000000;0.695742
6486.000000;0.694324
6485.000000;0.692968
6484.000000;0.691731
6483.000000;0.690613
6482.000000;0.689508
6481.000000;0.688289
6480.000000;0.686963
6479.000000;0.685660
6478.000000;0.684471
6477.000000;0.683334
6476.000000;0.682117
6475.000000;0.680774
6474.000000;0.679388
6473.000000;0.678068
6472.000000;0.676842
6471.000000;0.675655
6470.000000;0.674444
6469.000000;0.673213
6468.000000;0.672011
6467.000000;0.670858
6466.000000;0.669722
6465.000000;0.668573
6464.000000;0.667424
6463.000000;0.666291
6462.000000;0.665146
6461.000000;0.663946
6460.000000;0.662700
6459.000000;0.661457
6458.000000;0.660248
6457.000000;0.659073
6456.000000;0.657928
6455.000000;0.656815
6454.000000;0.655726
6453.000000;0.654635
6452.000000;0.653534
6451.000000;0.652438
6450.000000;0.651353
6449.000000;0.650270
6448.000000;0.649186
6447.000000;0.648114
6446.000000;0.647047
6445.000000;0.645964
6444.000000;0.644854
6443.000000;0.643733
6442.000000;0.642614
6441.000000;0.641490
6440.000000;0.640340
6439.000000;0.639166
6438.000000;0.637999
6437.000000;0.636883
6436.000000;0.635847
6435.000000;0.634879
6434.000000;0.633943
6433.000000;0.633019
6432.000000;0.632111
6431.000000;0.631206
6430.000000;0.630255
6429.000000;0.629217
6428.000000;0.628118
6427.000000;0.627028
6426.000000;0.625988
6425.000000;0.624988
6424.000000;0.624003
6423.000000;0.623018
6422.000000;0.622018
6421.000000;0.620997
6420.000000;0.619971
6419.000000;0.618973
6418.000000;0.618012
6417.000000;0.617051
6416.000000;0.616051
6415.000000;0.615005
6414.000000;0.613957
6413.000000;0.612956
6412.000000;0.612014
6411.000000;0.611089
6410.000000;0.610132
6409.000000;0.609148
6408.000000;0.608194
6407.000000;0.607311
6406.000000;0.606478
6405.000000;0.605638
6404.000000;0.604752
6403.000000;0.603813
6402.000000;0.602831
6401.000000;0.601841
6400.000000;0.600896
6399.000000;0.600023
6398.000000;0.599185
6397.000000;0.598336
6396.000000;0.597480
6395.000000;0.596656
6394.000000;0.595857
6393.000000;0.595029
6392.000000;0.594136
6391.000000;0.593203
6390.000000;0.592284
6389.000000;0.591413
6388.000000;0.590595
6387.000000;0.589811
6386.000000;0.589012
6385.000000;0.588158
6384.000000;0.587263
6383.000000;0.586393
6382.000000;0.585584
6381.000000;0.584792
6380.000000;0.583952
6379.000000;0.583063
6378.000000;0.582193
6377.000000;0.581392
6376.000000;0.580650
6375.000000;0.579919
6374.000000;0.579169
6373.000000;0.578401
6372.000000;0.577615
6371.000000;0.576799
6370.000000;0.575947
6369.000000;0.575073
6368.000000;0.574217
6367.000000;0.573413
6366.000000;0.572664
6365.000000;0.571950
6364.000000;0.571243
6363.000000;0.570525
6362.000000;0.569781
6361.000000;0.569001
6360.000000;0.568181
6359.000000;0.567332
6358.000000;0.566488
6357.000000;0.565686
6356.000000;0.564942
6355.000000;0.564251
6354.000000;0.563589
6353.000000;0.562926
6352.000000;0.562227
6351.000000;0.561478
6350.000000;0.560711
6349.000000;0.559990
6348.000000;0.559341
6347.000000;0.558717
6346.000000;0.558043
6345.000000;0.557300
6344.000000;0.556531
6343.000000;0.555786
6342.000000;0.555078
6341.000000;0.554399
6340.000000;0.553725
6339.000000;0.553018
6338.000000;0.552264
6337.000000;0.551515
6336.000000;0.550850
6335.000000;0.550272
6334.000000;0.549697
6333.000000;0.549053
6332.000000;0.548345
6331.000000;0.547607
6330.000000;0.546833
6329.000000;0.546027
6328.000000;0.545253
6327.000000;0.544587
6326.000000;0.544021
6325.000000;0.543477
6324.000000;0.542897
6323.000000;0.542286
6322.000000;0.541669
6321.000000;0.541059
6320.000000;0.540464
6319.000000;0.539881
6318.000000;0.539282
6317.000000;0.538633
6316.000000;0.537948
6315.000000;0.537284
6314.000000;0.536678
6313.000000;0.536099
6312.000000;0.535493
6311.000000;0.534853
6310.000000;0.534227
6309.000000;0.533671
6308.000000;0.533180
6307.000000;0.532675
6306.000000;0.532073
6305.000000;0.531365
6304.000000;0.530636
6303.000000;0.529972
6302.000000;0.529383
6301.000000;0.528822
6300.000000;0.528256
6299.000000;0.527693
6298.000000;0.527152
6297.000000;0.526640
6296.000000;0.526159
6295.000000;0.525696
6294.000000;0.525209
6293.000000;0.524659
6292.000000;0.524058
6291.000000;0.523463
6290.000000;0.522909
6289.000000;0.522379
6288.000000;0.521846
6287.000000;0.521300
6286.000000;0.520751
6285.000000;0.520209
6284.000000;0.519691
6283.000000;0.519207
6282.000000;0.518720
6281.000000;0.518160
6280.000000;0.517498
6279.000000;0.516796
6278.000000;0.516158
6277.000000;0.515636
6276.000000;0.515202
6275.000000;0.514794
6274.000000;0.514370
6273.000000;0.513919
6272.000000;0.513445
6271.000000;0.512951
6270.000000;0.512437
6269.000000;0.511904
6268.000000;0.511369
6267.000000;0.510858
6266.000000;0.510389
6265.000000;0.509948
6264.000000;0.509502
6263.000000;0.509026
6262.000000;0.508521
6261.000000;0.508002
6260.000000;0.507475
6259.000000;0.506952
6258.000000;0.506465
6257.000000;0.506053
6256.000000;0.505705
6255.000000;0.505342
6254.000000;0.504881
6253.000000;0.504317
6252.000000;0.503732
6251.000000;0.503204
6250.000000;0.502753
6249.000000;0.502349
6248.000000;0.501960
6247.000000;0.501558
6246.000000;0.501120
6245.000000;0.500643
6244.000000;0.500159
6243.000000;0.499700
6242.000000;0.499247
6241.000000;0.498754
6240.000000;0.498217
6239.000000;0.497691
6238.000000;0.497239
6237.000000;0.496870
6236.000000;0.496538
6235.000000;0.496185
6234.000000;0.495783
6233.000000;0.495336
6232.000000;0.494860
6231.000000;0.494371
6230.000000;0.493884
6229.000000;0.493420
6228.000000;0.492991
6227.000000;0.492583
6226.000000;0.492168
6225.000000;0.491739
6224.000000;0.491315
6223.000000;0.490912
6222.000000;0.490517
6221.000000;0.490125
6220.000000;0.489756
6219.000000;0.489426
6218.000000;0.489118
6217.000000;0.488793
6216.000000;0.488433
6215.000000;0.488043
6214.000000;0.487634
6213.000000;0.487221
6212.000000;0.486828
6211.000000;0.486467
6210.000000;0.486116
6209.000000;0.485739
6208.000000;0.485333
6207.000000;0.484929
6206.000000;0.484545
6205.000000;0.484168
6204.000000;0.483771
6203.000000;0.483348
6202.000000;0.482915
6201.000000;0.482497
6200.000000;0.482110
6199.000000;0.481746
6198.000000;0.481378
6197.000000;0.480989
6196.000000;0.480598
6195.000000;0.480232
6194.000000;0.479896
6193.000000;0.479566
6192.000000;0.479217
6191.000000;0.478848
6190.000000;0.478475
6189.000000;0.478107
6188.000000;0.477748
6187.000000;0.477400
6186.000000;0.477064
6185.000000;0.476740
6184.000000;0.476425
6183.000000;0.476109
6182.000000;0.475785
6181.000000;0.475452
6180.000000;0.475119
6179.000000;0.474787
6178.000000;0.474450
6177.000000;0.474103
6176.000000;0.473744
6175.000000;0.473366
6174.000000;0.472969
6173.000000;0.472584
6172.000000;0.472263
6171.000000;0.472019
6170.000000;0.471789
6169.000000;0.471495
6168.000000;0.471131
6167.000000;0.470755
6166.000000;0.470417
6165.000000;0.470114
6164.000000;0.469822
6163.000000;0.469527
6162.000000;0.469227
6161.000000;0.468906
6160.000000;0.468543
6159.000000;0.468142
6158.000000;0.467737
6157.000000;0.467377
6156.000000;0.467095
6155.000000;0.466875
6154.000000;0.466664
6153.000000;0.466413
6152.000000;0.466118
6151.000000;0.465809
6150.000000;0.465508
6149.000000;0.465217
6148.000000;0.464928
6147.000000;0.464637
6146.000000;0.464343
6145.000000;0.464056
6144.000000;0.463787
6143.000000;0.463538
6142.000000;0.463289
6141.000000;0.463015
6140.000000;0.462711
6139.000000;0.462387
6138.000000;0.462049
6137.000000;0.461709
6136.000000;0.461395
6135.000000;0.461129
6134.000000;0.460892
6133.000000;0.460635
6132.000000;0.460331
6131.000000;0.460011
6130.000000;0.459728
6129.000000;0.459496
6128.000000;0.459274
6127.000000;0.459010
6126.000000;0.458690
6125.000000;0.458353
6124.000000;0.458047
6123.000000;0.457788
6122.000000;0.457549
6121.000000;0.457300
6120.000000;0.457036
6119.000000;0.456777
6118.000000;0.456538
6117.000000;0.456316
6116.000000;0.456095
6115.000000;0.455865
6114.000000;0.455620
6113.000000;0.455369
6112.000000;0.455124
6111.000000;0.454884
6110.000000;0.454639
6109.000000;0.454380
6108.000000;0.454115
6107.000000;0.453867
6106.000000;0.453645
6105.000000;0.453446
6104.000000;0.453252
6103.000000;0.453043
6102.000000;0.452806
6101.000000;0.452553
6100.000000;0.452309
6099.000000;0.452074
6098.000000;0.451822
6097.000000;0.451536
6096.000000;0.451236
6095.000000;0.450955
6094.000000;0.450697
6093.000000;0.450444
6092.000000;0.450194
6091.000000;0.449960
6090.000000;0.449747
6089.000000;0.449548
6088.000000;0.449357
6087.000000;0.449177
6086.000000;0.448996
6085.000000;0.448788
6084.000000;0.448543
6083.000000;0.448285
6082.000000;0.448055
6081.000000;0.447868
6080.000000;0.447710
6079.000000;0.447550
6078.000000;0.447365
6077.000000;0.447150
6076.000000;0.446918
6075.000000;0.446680
6074.000000;0.446441
6073.000000;0.446206
6072.000000;0.445990
6071.000000;0.445804
6070.000000;0.445643
6069.000000;0.445485
6068.000000;0.445307
6067.000000;0.445096
6066.000000;0.444850
6065.000000;0.444586
6064.000000;0.444338
6063.000000;0.444143
6062.000000;0.444008
6061.000000;0.443907
6060.000000;0.443797
6059.000000;0.443650
6058.000000;0.443469
6057.000000;0.443280
6056.000000;0.443101
6055.000000;0.442927
6054.000000;0.442746
6053.000000;0.442560
6052.000000;0.442385
6051.000000;0.442226
6050.000000;0.442078
6049.000000;0.441945
6048.000000;0.441830
6047.000000;0.441709
6046.000000;0.441542
6045.000000;0.441324
6044.000000;0.441105
6043.000000;0.440931
6042.000000;0.440794
6041.000000;0.440649
6040.000000;0.440481
6039.000000;0.440313
6038.000000;0.440166
6037.000000;0.440036
6036.000000;0.439913
6035.000000;0.439799
6034.000000;0.439699
6033.000000;0.439608
6032.000000;0.439515
6031.000000;0.439398
6030.000000;0.439240
6029.000000;0.439044
6028.000000;0.438845
6027.000000;0.438690
6026.000000;0.438584
6025.000000;0.438485
6024.000000;0.438343
6023.000000;0.438151
6022.000000;0.437950
6021.000000;0.437778
6020.000000;0.437642
6019.000000;0.437523
6018.000000;0.437408
6017.000000;0.437320
6016.000000;0.437275
6015.000000;0.437244
6014.000000;0.437167
6013.000000;0.437007
6012.000000;0.436791
6011.000000;0.436577
6010.000000;0.436400
6009.000000;0.436265
6008.000000;0.436163
6007.000000;0.436081
6006.000000;0.435997
6005.000000;0.435891
6004.000000;0.435760
6003.000000;0.435621
6002.000000;0.435501
6001.000000;0.435426
6000.000000;0.435410
5999.000000;0.435435
5998.000000;0.435471
5997.000000;0.435495
5996.000000;0.435494
5995.000000;0.435450
5994.000000;0.435338
5993.000000;0.435162
5992.000000;0.434973
5991.000000;0.434832
5990.000000;0.434757
5989.000000;0.434718
5988.000000;0.434671
5987.000000;0.434588
5986.000000;0.434462
5985.000000;0.434312
5984.000000;0.434169
5983.000000;0.434058
5982.000000;0.433977
5981.000000;0.433915
5980.000000;0.433862
5979.000000;0.433813
5978.000000;0.433761
5977.000000;0.433712
5976.000000;0.433680
5975.000000;0.433663
5974.000000;0.433641
5973.000000;0.433598
5972.000000;0.433541
5971.000000;0.433486
5970.000000;0.433433
5969.000000;0.433383
5968.000000;0.433348
5967.000000;0.433336
5966.000000;0.433322
5965.000000;0.433282
5964.000000;0.433223
5963.000000;0.433186
5962.000000;0.433194
5961.000000;0.433231
5960.000000;0.433263
5959.000000;0.433265
5958.000000;0.433232
5957.000000;0.433177
5956.000000;0.433113
5955.000000;0.433042
5954.000000;0.432970
5953.000000;0.432917
5952.000000;0.432907
5951.000000;0.432938
5950.000000;0.432979
5949.000000;0.433002
5948.000000;0.433011
5947.000000;0.433011
5946.000000;0.432995
5945.000000;0.432963
5944.000000;0.432938
5943.000000;0.432935
5942.000000;0.432937
5941.000000;0.432916
5940.000000;0.432877
5939.000000;0.432856
5938.000000;0.432872
5937.000000;0.432918
5936.000000;0.432977
5935.000000;0.433039
5934.000000;0.433088
5933.000000;0.433109
5932.000000;0.433103
5931.000000;0.433088
5930.000000;0.433087
5929.000000;0.433118
5928.000000;0.433185
5927.000000;0.433263
5926.000000;0.433310
5925.000000;0.433306
5924.000000;0.433279
5923.000000;0.433268
5922.000000;0.433285
5921.000000;0.433317
5920.000000;0.433351
5919.000000;0.433381
5918.000000;0.433396
5917.000000;0.433391
5916.000000;0.433384
5915.000000;0.433394
5914.000000;0.433409
5913.000000;0.433407
5912.000000;0.433395
5911.000000;0.433406
5910.000000;0.433467
5909.000000;0.433569
5908.000000;0.433686
5907.000000;0.433786
5906.000000;0.433849
5905.000000;0.433874
5904.000000;0.433889
5903.000000;0.433926
5902.000000;0.433987
5901.000000;0.434048
5900.000000;0.434096
5899.000000;0.434146
5898.000000;0.434213
5897.000000;0.434292
5896.000000;0.434359
5895.000000;0.434397
5894.000000;0.434414
5893.000000;0.434442
5892.000000;0.434509
5891.000000;0.434612
5890.000000;0.434716
5889.000000;0.434792
5888.000000;0.434846
5887.000000;0.434897
5886.000000;0.434957
5885.000000;0.435034
5884.000000;0.435139
5883.000000;0.435276
5882.000000;0.435419
5881.000000;0.435531
5880.000000;0.435600
5879.000000;0.435649
5878.000000;0.435709
5877.000000;0.435804
5876.000000;0.435940
5875.000000;0.436104
5874.000000;0.436260
5873.000000;0.436383
5872.000000;0.436475
5871.000000;0.436559
5870.000000;0.436653
5869.000000;0.436763
5868.000000;0.436884
5867.000000;0.437005
5866.000000;0.437117
5865.000000;0.437226
5864.000000;0.437349
5863.000000;0.437498
5862.000000;0.437671
5861.000000;0.437863
5860.000000;0.438070
5859.000000;0.438272
5858.000000;0.438440
5857.000000;0.438573
5856.000000;0.438710
5855.000000;0.438882
5854.000000;0.439075
5853.000000;0.439260
5852.000000;0.439435
5851.000000;0.439618
5850.000000;0.439804
5849.000000;0.439974
5848.000000;0.440133
5847.000000;0.440304
5846.000000;0.440494
5845.000000;0.440685
5844.000000;0.440861
5843.000000;0.441033
5842.000000;0.441222
5841.000000;0.441439
5840.000000;0.441677
5839.000000;0.441920
5838.000000;0.442157
5837.000000;0.442394
5836.000000;0.442643
5835.000000;0.442896
5834.000000;0.443120
5833.000000;0.443305
5832.000000;0.443481
5831.000000;0.443684
5830.000000;0.443914
5829.000000;0.444148
5828.000000;0.444379
5827.000000;0.444615
5826.000000;0.444864
5825.000000;0.445128
5824.000000;0.445406
5823.000000;0.445690
5822.000000;0.445960
5821.000000;0.446207
5820.000000;0.446451
5819.000000;0.446713
5818.000000;0.446986
5817.000000;0.447245
5816.000000;0.447488
5815.000000;0.447740
5814.000000;0.448020
5813.000000;0.448333
5812.000000;0.448676
5811.000000;0.449035
5810.000000;0.449380
5809.000000;0.449681
5808.000000;0.449945
5807.000000;0.450206
5806.000000;0.450491
5805.000000;0.450803
5804.000000;0.451126
5803.000000;0.451437
5802.000000;0.451723
5801.000000;0.452006
5800.000000;0.452324
5799.000000;0.452690
5798.000000;0.453065
5797.000000;0.453410
5796.000000;0.453737
5795.000000;0.454081
5794.000000;0.454454
5793.000000;0.454837
5792.000000;0.455220
5791.000000;0.455615
5790.000000;0.456023
5789.000000;0.456422
5788.000000;0.456792
5787.000000;0.457131
5786.000000;0.457443
5785.000000;0.457736
5784.000000;0.458024
5783.000000;0.458328
5782.000000;0.458665
5781.000000;0.459050
5780.000000;0.459496
5779.000000;0.459988
5778.000000;0.460471
5777.000000;0.460891
5776.000000;0.461252
5775.000000;0.461613
5774.000000;0.462020
5773.000000;0.462471
5772.000000;0.462936
5771.000000;0.463394
5770.000000;0.463841
5769.000000;0.464292
5768.000000;0.464766
5767.000000;0.465257
5766.000000;0.465730
5765.000000;0.466159
5764.000000;0.466561
5763.000000;0.466986
5762.000000;0.467461
5761.000000;0.467970
5760.000000;0.468475
5759.000000;0.468955
5758.000000;0.469412
5757.000000;0.469864
5756.000000;0.470330
5755.000000;0.470818
5754.000000;0.471328
5753.000000;0.471859
5752.000000;0.472406
5751.000000;0.472949
5750.000000;0.473467
5749.000000;0.473965
5748.000000;0.474477
5747.000000;0.475017
5746.000000;0.475564
5745.000000;0.476101
5744.000000;0.476638
5743.000000;0.477191
5742.000000;0.477747
5741.000000;0.478292
5740.000000;0.478840
5739.000000;0.479407
5738.000000;0.479977
5737.000000;0.480522
5736.000000;0.481047
5735.000000;0.481581
5734.000000;0.482151
5733.000000;0.482765
5732.000000;0.483428
5731.000000;0.484120
5730.000000;0.484793
5729.000000;0.485405
5728.000000;0.485972
5727.000000;0.486550
5726.000000;0.487168
5725.000000;0.487814
5724.000000;0.488468
5723.000000;0.489129
5722.000000;0.489796
5721.000000;0.490464
5720.000000;0.491130
5719.000000;0.491805
5718.000000;0.492492
5717.000000;0.493185
5716.000000;0.493871
5715.000000;0.494534
5714.000000;0.495169
5713.000000;0.495791
5712.000000;0.496436
5711.000000;0.497124
5710.000000;0.497842
5709.000000;0.498560
5708.000000;0.499257
5707.000000;0.499932
5706.000000;0.500595
5705.000000;0.501271
5704.000000;0.501976
5703.000000;0.502694
5702.000000;0.503397
5701.000000;0.504089
5700.000000;0.504807
5699.000000;0.505555
5698.000000;0.506257
5697.000000;0.506941
5696.000000;0.507626
5695.000000;0.508359
5694.000000;0.509126
5693.000000;0.509880
5692.000000;0.510598
5691.000000;0.511298
5690.000000;0.512000
5689.000000;0.512718
5688.000000;0.513467
5687.000000;0.514233
5686.000000;0.514987
5685.000000;0.515717
5684.000000;0.516452
5683.000000;0.517204
5682.000000;0.517938
5681.000000;0.518623
5680.000000;0.519291
5679.000000;0.519993
5678.000000;0.520732
5677.000000;0.521479
5676.000000;0.522221
5675.000000;0.522961
5674.000000;0.523685
5673.000000;0.524382
5672.000000;0.525086
5671.000000;0.525836
5670.000000;0.526621
5669.000000;0.527395
5668.000000;0.528135
5667.000000;0.528843
5666.000000;0.529523
5665.000000;0.530191
5664.000000;0.530889
5663.000000;0.531642
5662.000000;0.532413
5661.000000;0.533147
5660.000000;0.533842
5659.000000;0.534529
5658.000000;0.535206
5657.000000;0.535854
5656.000000;0.536489
5655.000000;0.537158
5654.000000;0.537866
5653.000000;0.538566
5652.000000;0.539224
5651.000000;0.539839
5650.000000;0.540422
5649.000000;0.540994
5648.000000;0.541600
5647.000000;0.542270
5646.000000;0.542969
5645.000000;0.543630
5644.000000;0.544230
5643.000000;0.544797
5642.000000;0.545361
5641.000000;0.545931
5640.000000;0.546520
5639.000000;0.547133
5638.000000;0.547745
5637.000000;0.548324
5636.000000;0.548879
5635.000000;0.549438
5634.000000;0.550001
5633.000000;0.550545
5632.000000;0.551074
5631.000000;0.551607
5630.000000;0.552133
5629.000000;0.552624
5628.000000;0.553092
5627.000000;0.553578
5626.000000;0.554084
5625.000000;0.554573
5624.000000;0.555030
5623.000000;0.555479
5622.000000;0.555937
5621.000000;0.556381
5620.000000;0.556798
5619.000000;0.557199
5618.000000;0.557604
5617.000000;0.558022
5616.000000;0.558454
5615.000000;0.558880
5614.000000;0.559265
5613.000000;0.559595
5612.000000;0.559916
5611.000000;0.560275
5610.000000;0.560656
5609.000000;0.560999
5608.000000;0.561278
5607.000000;0.561520
5606.000000;0.561771
5605.000000;0.562059
5604.000000;0.562392
5603.000000;0.562739
5602.000000;0.563042
5601.000000;0.563285
5600.000000;0.563521
5599.000000;0.563801
5598.000000;0.564095
5597.000000;0.564338
5596.000000;0.564534
5595.000000;0.564737
5594.000000;0.564961
5593.000000;0.565170
5592.000000;0.565345
5591.000000;0.565508
5590.000000;0.565669
5589.000000;0.565815
5588.000000;0.565949
5587.000000;0.566087
5586.000000;0.566223
5585.000000;0.566343
5584.000000;0.566450
5583.000000;0.566558
5582.000000;0.566657
5581.000000;0.566744
5580.000000;0.566854
5579.000000;0.567007
5578.000000;0.567147
5577.000000;0.567201
5576.000000;0.567175
5575.000000;0.567124
5574.000000;0.567075
5573.000000;0.567032
5572.000000;0.567035
5571.000000;0.567126
5570.000000;0.567253
5569.000000;0.567312
5568.000000;0.567284
5567.000000;0.567247
5566.000000;0.567261
5565.000000;0.567308
5564.000000;0.567355
5563.000000;0.567383
5562.000000;0.567364
5561.000000;0.567282
5560.000000;0.567198
5559.000000;0.567197
5558.000000;0.567268
5557.000000;0.567311
5556.000000;0.567269
5555.000000;0.567193
5554.000000;0.567136
5553.000000;0.567078
5552.000000;0.566980
5551.000000;0.566860
5550.000000;0.566756
5549.000000;0.566681
5548.000000;0.566639
5547.000000;0.566629
5546.000000;0.566617
5545.000000;0.566553
5544.000000;0.566439
5543.000000;0.566332
5542.000000;0.566261
5541.000000;0.566201
5540.000000;0.566137
5539.000000;0.566100
5538.000000;0.566087
5537.000000;0.566030
5536.000000;0.565889
5535.000000;0.565721
5534.000000;0.565610
5533.000000;0.565565
5532.000000;0.565541
5531.000000;0.565508
5530.000000;0.565465
5529.000000;0.565410
5528.000000;0.565352
5527.000000;0.565300
5526.000000;0.565238
5525.000000;0.565135
5524.000000;0.565001
5523.000000;0.564882
5522.000000;0.564805
5521.000000;0.564740
5520.000000;0.564680
5519.000000;0.564669
5518.000000;0.564711
5517.000000;0.564728
5516.000000;0.564642
5515.000000;0.564488
5514.000000;0.564392
5513.000000;0.564413
5512.000000;0.564477
5511.000000;0.564489
5510.000000;0.564446
5509.000000;0.564411
5508.000000;0.564402
5507.000000;0.564368
5506.000000;0.564288
5505.000000;0.564267
5504.000000;0.564388
5503.000000;0.564566
5502.000000;0.564643
5501.000000;0.564584
5500.000000;0.564550
5499.000000;0.564680
5498.000000;0.564861
5497.000000;0.564910
5496.000000;0.564890
5495.000000;0.565030
5494.000000;0.565383
5493.000000;0.565705
5492.000000;0.565775
5491.000000;0.565713
5490.000000;0.565765
5489.000000;0.565930
5488.000000;0.565994
5487.000000;0.565874
5486.000000;0.565729
5485.000000;0.565744
5484.000000;0.565881
5483.000000;0.565988
5482.000000;0.566116
5481.000000;0.566401
5480.000000;0.566759
5479.000000;0.566997
5478.000000;0.567127
5477.000000;0.567403
5476.000000;0.567936
5475.000000;0.568427
5474.000000;0.568589
5473.000000;0.568627
5472.000000;0.568912
5471.000000;0.569411
5470.000000;0.569791
5469.000000;0.569930
5468.000000;0.570090
5467.000000;0.570515
5466.000000;0.571062
5465.000000;0.571504
5464.000000;0.571877
5463.000000;0.572312
5462.000000;0.572813
5461.000000;0.573290
5460.000000;0.573681
5459.000000;0.574012
5458.000000;0.574349
5457.000000;0.574761
5456.000000;0.575298
5455.000000;0.575876
5454.000000;0.576314
5453.000000;0.576670
5452.000000;0.577263
5451.000000;0.578219
5450.000000;0.579232
5449.000000;0.579976
5448.000000;0.580618
5447.000000;0.581599
5446.000000;0.582839
5445.000000;0.583786
5444.000000;0.584248
5443.000000;0.584642
5442.000000;0.585396
5441.000000;0.586445
5440.000000;0.587368
5439.000000;0.587999
5438.000000;0.588645
5437.000000;0.589608
5436.000000;0.590882
5435.000000;0.592248
5434.000000;0.593467
5433.000000;0.594529
5432.000000;0.595651
5431.000000;0.596967
5430.000000;0.598385
5429.000000;0.599690
5428.000000;0.600760
5427.000000;0.601715
5426.000000;0.602759
5425.000000;0.603956
5424.000000;0.605218
5423.000000;0.606419
5422.000000;0.607554
5421.000000;0.608898
5420.000000;0.610719
5419.000000;0.612844
5418.000000;0.614863
5417.000000;0.616722
5416.000000;0.618814
5415.000000;0.621366
5414.000000;0.624003
5413.000000;0.626250
5412.000000;0.628212
5411.000000;0.630300
5410.000000;0.632526
5409.000000;0.634533
5408.000000;0.636253
5407.000000;0.638023
5406.000000;0.640089
5405.000000;0.642309
5404.000000;0.644528
5403.000000;0.646947
5402.000000;0.649699
5401.000000;0.652622
5400.000000;0.655686
5399.000000;0.659001
5398.000000;0.662494
5397.000000;0.665914
5396.000000;0.669193
5395.000000;0.672585
5394.000000;0.676174
5393.000000;0.679701
5392.000000;0.683104
5391.000000;0.686720
5390.000000;0.690733
5389.000000;0.694874
5388.000000;0.698877
5387.000000;0.702943
5386.000000;0.707392
5385.000000;0.712049
5384.000000;0.716614
5383.000000;0.721341
5382.000000;0.726537
5381.000000;0.731942
5380.000000;0.737203
5379.000000;0.742491
5378.000000;0.748221
5377.000000;0.754284
5376.000000;0.760196
5375.000000;0.765975
5374.000000;0.772097
5373.000000;0.778626
5372.000000;0.785140
5371.000000;0.791515
5370.000000;0.798165
5369.000000;0.805347
5368.000000;0.812752
5367.000000;0.820141
5366.000000;0.827796
5365.000000;0.835969
5364.000000;0.844488
5363.000000;0.853177
5362.000000;0.862128
5361.000000;0.871442
5360.000000;0.881028
5359.000000;0.890809
5358.000000;0.900869
5357.000000;0.911232
5356.000000;0.921831
5355.000000;0.932827
5354.000000;0.944517
5353.000000;0.956695
5352.000000;0.968785
5351.000000;0.980832
5350.000000;0.993440
5349.000000;1.006672
5348.000000;1.019954
5347.000000;1.033192
5346.000000;1.047240
5345.000000;1.062686
5344.000000;1.078770
5343.000000;1.094399
5342.000000;1.109728
5341.000000;1.125631
5340.000000;1.142368
5339.000000;1.159692
5338.000000;1.177598
5337.000000;1.196184
5336.000000;1.215043
5335.000000;1.233714
5334.000000;1.252606
5333.000000;1.272479
5332.000000;1.293294
5331.000000;1.314522
5330.000000;1.336215
5329.000000;1.358876
5328.000000;1.382489
5327.000000;1.406441
5326.000000;1.430511
5325.000000;1.455105
5324.000000;1.480362
5323.000000;1.506017
5322.000000;1.532159
5321.000000;1.559101
5320.000000;1.586641
5319.000000;1.614368
5318.000000;1.642568
5317.000000;1.671910
5316.000000;1.702339
5315.000000;1.733266
5314.000000;1.764677
5313.000000;1.796730
5312.000000;1.828604
5311.000000;1.859447
5310.000000;1.890135
5309.000000;1.922264
5308.000000;1.955530
5307.000000;1.988030
5306.000000;2.019161
5305.000000;2.050009
5304.000000;2.080853
5303.000000;2.110868
5302.000000;2.140303
5301.000000;2.170300
5300.000000;2.200475
5299.000000;2.229257
5298.000000;2.256718
5297.000000;2.284262
5296.000000;2.311326
5295.000000;2.335308
5294.000000;2.354928
5293.000000;2.370908
5292.000000;2.383984
5291.000000;2.395292
5290.000000;2.407939
5289.000000;2.424643
5288.000000;2.443891
5287.000000;2.460922
5286.000000;2.472167
5285.000000;2.477542
5284.000000;2.480074
5283.000000;2.484540
5282.000000;2.494297
5281.000000;2.507481
5280.000000;2.518621
5279.000000;2.525854
5278.000000;2.532358
5277.000000;2.538687
5276.000000;2.540164
5275.000000;2.535404
5274.000000;2.530659
5273.000000;2.531112
5272.000000;2.534684
5271.000000;2.537604
5270.000000;2.540401
5269.000000;2.544935
5268.000000;2.549641
5267.000000;2.552412
5266.000000;2.554857
5265.000000;2.558067
5264.000000;2.558007
5263.000000;2.551307
5262.000000;2.541805
5261.000000;2.535168
5260.000000;2.531962
5259.000000;2.530687
5258.000000;2.532894
5257.000000;2.540413
5256.000000;2.550635
5255.000000;2.559035
5254.000000;2.564562
5253.000000;2.568153
5252.000000;2.568264
5251.000000;2.563166
5250.000000;2.555105
5249.000000;2.547899
5248.000000;2.543167
5247.000000;2.541562
5246.000000;2.544461
5245.000000;2.551346
5244.000000;2.557694
5243.000000;2.559784
5242.000000;2.559654
5241.000000;2.560911
5240.000000;2.562933
5239.000000;2.562869
5238.000000;2.560784
5237.000000;2.558800
5236.000000;2.557020
5235.000000;2.554545
5234.000000;2.552326
5233.000000;2.551480
5232.000000;2.551398
5231.000000;2.552180
5230.000000;2.555832
5229.000000;2.562319
5228.000000;2.567327
5227.000000;2.567138
5226.000000;2.563371
5225.000000;2.559723
5224.000000;2.556856
5223.000000;2.553671
5222.000000;2.550602
5221.000000;2.548245
5220.000000;2.545213
5219.000000;2.540619
5218.000000;2.536492
5217.000000;2.535017
5216.000000;2.536055
5215.000000;2.538979
5214.000000;2.543864
5213.000000;2.549237
5212.000000;2.551574
5211.000000;2.549357
5210.000000;2.544823
5209.000000;2.539758
5208.000000;2.533349
5207.000000;2.526359
5206.000000;2.523283
5205.000000;2.527110
5204.000000;2.534935
5203.000000;2.541329
5202.000000;2.543946
5201.000000;2.543838
5200.000000;2.543162
5199.000000;2.544908
5198.000000;2.551557
5197.000000;2.561185
5196.000000;2.567508
5195.000000;2.566803
5194.000000;2.561847
5193.000000;2.556651
5192.000000;2.551928
5191.000000;2.547566
5190.000000;2.545131
5189.000000;2.545566
5188.000000;2.547609
5187.000000;2.550761
5186.000000;2.556319
5185.000000;2.562859
5184.000000;2.565133
5183.000000;2.561166
5182.000000;2.555766
5181.000000;2.553148
5180.000000;2.551353
5179.000000;2.547251
5178.000000;2.542641
5177.000000;2.540985
5176.000000;2.541610
5175.000000;2.541674
5174.000000;2.541027
5173.000000;2.541629
5172.000000;2.544767
5171.000000;2.550812
5170.000000;2.559773
5169.000000;2.569144
5168.000000;2.573154
5167.000000;2.568642
5166.000000;2.559317
5165.000000;2.550957
5164.000000;2.545523
5163.000000;2.542567
5162.000000;2.542929
5161.000000;2.546977
5160.000000;2.551659
5159.000000;2.553312
5158.000000;2.551779
5157.000000;2.549105
5156.000000;2.546760
5155.000000;2.545805
5154.000000;2.546928
5153.000000;2.548858
5152.000000;2.549164
5151.000000;2.548189
5150.000000;2.548934
5149.000000;2.551257
5148.000000;2.550551
5147.000000;2.545061
5146.000000;2.539694
5145.000000;2.539024
5144.000000;2.541199
5143.000000;2.542239
5142.000000;2.542565
5141.000000;2.544427
5140.000000;2.546382
5139.000000;2.545975
5138.000000;2.544884
5137.000000;2.545952
5136.000000;2.547524
5135.000000;2.545666
5134.000000;2.540496
5133.000000;2.535580
5132.000000;2.532786
5131.000000;2.532064
5130.000000;2.534226
5129.000000;2.539642
5128.000000;2.545513
5127.000000;2.548751
5126.000000;2.550309
5125.000000;2.552379
5124.000000;2.553229
5123.000000;2.549503
5122.000000;2.542552
5121.000000;2.537228
5120.000000;2.535613
5119.000000;2.536282
5118.000000;2.538144
5117.000000;2.541603
5116.000000;2.546308
5115.000000;2.550868
5114.000000;2.554814
5113.000000;2.557749
5112.000000;2.557148
5111.000000;2.550660
5110.000000;2.540117
5109.000000;2.530168
5108.000000;2.524195
5107.000000;2.524052
5106.000000;2.531136
5105.000000;2.543593
5104.000000;2.553763
5103.000000;2.554036
5102.000000;2.546213
5101.000000;2.539063
5100.000000;2.537291
5099.000000;2.538276
5098.000000;2.538189
5097.000000;2.536625
5096.000000;2.534328
5095.000000;2.530609
5094.000000;2.525382
5093.000000;2.520853
5092.000000;2.519125
5091.000000;2.520088
5090.000000;2.522436
5089.000000;2.525133
5088.000000;2.527441
5087.000000;2.528960
5086.000000;2.530049
5085.000000;2.530888
5084.000000;2.530609
5083.000000;2.528842
5082.000000;2.527383
5081.000000;2.528533
5080.000000;2.532032
5079.000000;2.535314
5078.000000;2.536671
5077.000000;2.536490
5076.000000;2.535756
5075.000000;2.535370
5074.000000;2.536592
5073.000000;2.539978
5072.000000;2.543547
5071.000000;2.544164
5070.000000;2.541269
5069.000000;2.536884
5068.000000;2.532486
5067.000000;2.527923
5066.000000;2.523178
5065.000000;2.519608
5064.000000;2.518489
5063.000000;2.519523
5062.000000;2.521266
5061.000000;2.522289
5060.000000;2.522135
5059.000000;2.521680
5058.000000;2.522111
5057.000000;2.523124
5056.000000;2.523178
5055.000000;2.522159
5054.000000;2.522259
5053.000000;2.524611
5052.000000;2.526380
5051.000000;2.523765
5050.000000;2.517653
5049.000000;2.513321
5048.000000;2.514290
5047.000000;2.518488
5046.000000;2.520809
5045.000000;2.518651
5044.000000;2.513871
5043.000000;2.510122
5042.000000;2.509275
5041.000000;2.509536
5040.000000;2.507425
5039.000000;2.501991
5038.000000;2.495749
5037.000000;2.491706
5036.000000;2.490760
5035.000000;2.491476
5034.000000;2.491419
5033.000000;2.488909
5032.000000;2.484554
5031.000000;2.481057
5030.000000;2.480399
5029.000000;2.481247
5028.000000;2.480435
5027.000000;2.477181
5026.000000;2.473883
5025.000000;2.472251
5024.000000;2.471115
5023.000000;2.469191
5022.000000;2.467708
5021.000000;2.468186
5020.000000;2.469021
5019.000000;2.466642
5018.000000;2.459975
5017.000000;2.451937
5016.000000;2.446291
5015.000000;2.444282
5014.000000;2.444036
5013.000000;2.442415
5012.000000;2.437769
5011.000000;2.431054
5010.000000;2.423924
5009.000000;2.416405
5008.000000;2.407795
5007.000000;2.399571
5006.000000;2.395184
5005.000000;2.396121
5004.000000;2.399778
5003.000000;2.401948
5002.000000;2.400544
5001.000000;2.396397
5000.000000;2.391600
4999.000000;2.387657
4998.000000;2.384968
4997.000000;2.382767
4996.000000;2.379750
4995.000000;2.375436
4994.000000;2.370483
4993.000000;2.365351
4992.000000;2.359946
4991.000000;2.354725
4990.000000;2.350638
4989.000000;2.347586
4988.000000;2.344053
4987.000000;2.338873
4986.000000;2.332560
4985.000000;2.326363
4984.000000;2.320849
4983.000000;2.316053
4982.000000;2.312213
4981.000000;2.309482
4980.000000;2.307409
4979.000000;2.305019
4978.000000;2.300989
4977.000000;2.294261
4976.000000;2.285775
4975.000000;2.279085
4974.000000;2.277355
4973.000000;2.279457
4972.000000;2.280471
4971.000000;2.276930
4970.000000;2.270047
4969.000000;2.262703
4968.000000;2.255767
4967.000000;2.248867
4966.000000;2.242534
4965.000000;2.237504
4964.000000;2.233110
4963.000000;2.228099
4962.000000;2.222378
4961.000000;2.216724
4960.000000;2.211410
4959.000000;2.206177
4958.000000;2.200881
4957.000000;2.195056
4956.000000;2.187721
4955.000000;2.178925
4954.000000;2.170612
4953.000000;2.164653
4952.000000;2.160715
4951.000000;2.157122
4950.000000;2.153101
4949.000000;2.148857
4948.000000;2.144045
4947.000000;2.137860
4946.000000;2.130663
4945.000000;2.124017
4944.000000;2.118901
4943.000000;2.114896
4942.000000;2.111230
4941.000000;2.107748
4940.000000;2.104501
4939.000000;2.101045
4938.000000;2.096708
4937.000000;2.091155
4936.000000;2.084476
4935.000000;2.077118
4934.000000;2.069822
4933.000000;2.063180
4932.000000;2.057098
4931.000000;2.050959
4930.000000;2.044354
4929.000000;2.037366
4928.000000;2.030237
4927.000000;2.023167
4926.000000;2.016507
4925.000000;2.010797
4924.000000;2.006346
4923.000000;2.002795
4922.000000;1.999178
4921.000000;1.994580
4920.000000;1.988916
4919.000000;1.983040
4918.000000;1.977912
4917.000000;1.973656
4916.000000;1.969574
4915.000000;1.964906
4914.000000;1.959332
4913.000000;1.952898
4912.000000;1.945893
4911.000000;1.938881
4910.000000;1.932435
4909.000000;1.926678
4908.000000;1.921329
4907.000000;1.916220
4906.000000;1.911397
4905.000000;1.906666
4904.000000;1.901553
4903.000000;1.895903
4902.000000;1.890060
4901.000000;1.884242
4900.000000;1.878214
4899.000000;1.871857
4898.000000;1.865605
4897.000000;1.859965
4896.000000;1.854912
4895.000000;1.850052
4894.000000;1.845087
4893.000000;1.839827
4892.000000;1.834053
4891.000000;1.827780
4890.000000;1.821434
4889.000000;1.815364
4888.000000;1.809382
4887.000000;1.803157
4886.000000;1.796897
4885.000000;1.791238
4884.000000;1.786473
4883.000000;1.782242
4882.000000;1.778018
4881.000000;1.773656
4880.000000;1.769362
4879.000000;1.765210
4878.000000;1.760838
4877.000000;1.755722
4876.000000;1.749800
4875.000000;1.743682
4874.000000;1.738042
4873.000000;1.732908
4872.000000;1.727794
4871.000000;1.722463
4870.000000;1.717183
4869.000000;1.712177
4868.000000;1.707249
4867.000000;1.702129
4866.000000;1.696908
4865.000000;1.691871
4864.000000;1.687116
4863.000000;1.682511
4862.000000;1.677863
4861.000000;1.672997
4860.000000;1.667848
4859.000000;1.662611
4858.000000;1.657614
4857.000000;1.652882
4856.000000;1.648031
4855.000000;1.642722
4854.000000;1.637055
4853.000000;1.631414
4852.000000;1.626127
4851.000000;1.621362
4850.000000;1.617089
4849.000000;1.612933
4848.000000;1.608287
4847.000000;1.602840
4846.000000;1.596926
4845.000000;1.591209
4844.000000;1.586111
4843.000000;1.581609
4842.000000;1.577405
4841.000000;1.573144
4840.000000;1.568629
4839.000000;1.563938
4838.000000;1.559285
4837.000000;1.554724
4836.000000;1.550126
4835.000000;1.545435
4834.000000;1.540751
4833.000000;1.536124
4832.000000;1.531501
4831.000000;1.526970
4830.000000;1.522757
4829.000000;1.518824
4828.000000;1.514746
4827.000000;1.510186
4826.000000;1.505339
4825.000000;1.500665
4824.000000;1.496358
4823.000000;1.492265
4822.000000;1.488173
4821.000000;1.483975
4820.000000;1.479628
4819.000000;1.475175
4818.000000;1.470748
4817.000000;1.466419
4816.000000;1.462113
4815.000000;1.457758
4814.000000;1.453409
4813.000000;1.449123
4812.000000;1.444838
4811.000000;1.440503
4810.000000;1.436181
4809.000000;1.431905
4808.000000;1.427588
4807.000000;1.423218
4806.000000;1.419011
4805.000000;1.415149
4804.000000;1.411479
4803.000000;1.407649
4802.000000;1.403497
4801.000000;1.399162
4800.000000;1.394902
4799.000000;1.390907
4798.000000;1.387203
4797.000000;1.383572
4796.000000;1.379672
4795.000000;1.375403
4794.000000;1.371080
4793.000000;1.367065
4792.000000;1.363312
4791.000000;1.359448
4790.000000;1.355267
4789.000000;1.350952
4788.000000;1.346783
4787.000000;1.342842
4786.000000;1.339049
4785.000000;1.335359
4784.000000;1.331810
4783.000000;1.328393
4782.000000;1.324964
4781.000000;1.321324
4780.000000;1.317428
4779.000000;1.313493
4778.000000;1.309816
4777.000000;1.306453
4776.000000;1.303169
4775.000000;1.299748
4774.000000;1.296227
4773.000000;1.292734
4772.000000;1.289252
4771.000000;1.285679
4770.000000;1.282026
4769.000000;1.278395
4768.000000;1.274801
4767.000000;1.271190
4766.000000;1.267593
4765.000000;1.264122
4764.000000;1.260786
4763.000000;1.257448
4762.000000;1.254025
4761.000000;1.250600
4760.000000;1.247298
4759.000000;1.244106
4758.000000;1.240891
4757.000000;1.237581
4756.000000;1.234268
4755.000000;1.231101
4754.000000;1.228109
4753.000000;1.225147
4752.000000;1.222064
4751.000000;1.218866
4750.000000;1.215662
4749.000000;1.212479
4748.000000;1.209230
4747.000000;1.205867
4746.000000;1.202456
4745.000000;1.199065
4744.000000;1.195674
4743.000000;1.192250
4742.000000;1.188825
4741.000000;1.185445
4740.000000;1.182115
4739.000000;1.178856
4738.000000;1.175750
4737.000000;1.172888
4736.000000;1.170298
4735.000000;1.167942
4734.000000;1.165673
4733.000000;1.163212
4732.000000;1.160315
4731.000000;1.157084
4730.000000;1.153981
4729.000000;1.151384
4728.000000;1.149197
4727.000000;1.146958
4726.000000;1.144287
4725.000000;1.141131
4724.000000;1.137678
4723.000000;1.134195
4722.000000;1.130918
4721.000000;1.127951
4720.000000;1.125222
4719.000000;1.122593
4718.000000;1.119997
4717.000000;1.117444
4716.000000;1.114949
4715.000000;1.112526
4714.000000;1.110195
4713.000000;1.107911
4712.000000;1.105546
4711.000000;1.103036
4710.000000;1.100503
4709.000000;1.098127
4708.000000;1.095915
4707.000000;1.093700
4706.000000;1.091352
4705.000000;1.088905
4704.000000;1.086467
4703.000000;1.084115
4702.000000;1.081874
4701.000000;1.079714
4700.000000;1.077551
4699.000000;1.075309
4698.000000;1.072998
4697.000000;1.070681
4696.000000;1.068367
4695.000000;1.066015
4694.000000;1.063622
4693.000000;1.061246
4692.000000;1.058949
4691.000000;1.056738
4690.000000;1.054596
4689.000000;1.052503
4688.000000;1.050442
4687.000000;1.048407
4686.000000;1.046409
4685.000000;1.044438
4684.000000;1.042464
4683.000000;1.040495
4682.000000;1.038584
4681.000000;1.036734
4680.000000;1.034845
4679.000000;1.032844
4678.000000;1.030810
4677.000000;1.028886
4676.000000;1.027089
4675.000000;1.025306
4674.000000;1.023460
4673.000000;1.021586
4672.000000;1.019730
4671.000000;1.017882
4670.000000;1.016030
4669.000000;1.014192
4668.000000;1.012375
4667.000000;1.010551
4666.000000;1.008726
4665.000000;1.006976
4664.000000;1.005385
4663.000000;1.003951
4662.000000;1.002571
4661.000000;1.001100
4660.000000;0.999453
4659.000000;0.997665
4658.000000;0.995878
4657.000000;0.994223
4656.000000;0.992718
4655.000000;0.991294
4654.000000;0.989889
4653.000000;0.988472
4652.000000;0.987026
4651.000000;0.985555
4650.000000;0.984092
4649.000000;0.982656
4648.000000;0.981198
4647.000000;0.979657
4646.000000;0.978056
4645.000000;0.976486
4644.000000;0.975009
4643.000000;0.973616
4642.000000;0.972285
4641.000000;0.971028
4640.000000;0.969854
4639.000000;0.968734
4638.000000;0.967592
4637.000000;0.966330
4636.000000;0.964892
4635.000000;0.963341
4634.000000;0.961852
4633.000000;0.960561
4632.000000;0.959426
4631.000000;0.958303
4630.000000;0.957135
4629.000000;0.956010
4628.000000;0.954999
4627.000000;0.954038
4626.000000;0.953001
4625.000000;0.951848
4624.000000;0.950656
4623.000000;0.949514
4622.000000;0.948426
4621.000000;0.947322
4620.000000;0.946161
4619.000000;0.945000
4618.000000;0.943940
4617.000000;0.943011
4616.000000;0.942136
4615.000000;0.941236
4614.000000;0.940322
4613.000000;0.939460
4612.000000;0.938673
4611.000000;0.937936
4610.000000;0.937222
4609.000000;0.936502
4608.000000;0.935723
4607.000000;0.934839
4606.000000;0.933867
4605.000000;0.932867
4604.000000;0.931882
4603.000000;0.930953
4602.000000;0.930148
4601.000000;0.929504
4600.000000;0.928946
4599.000000;0.928323
4598.000000;0.927549
4597.000000;0.926672
4596.000000;0.925804
4595.000000;0.925027
4594.000000;0.924370
4593.000000;0.923800
4592.000000;0.923242
4591.000000;0.922625
4590.000000;0.921933
4589.000000;0.921202
4588.000000;0.920481
4587.000000;0.919840
4586.000000;0.919353
4585.000000;0.919011
4584.000000;0.918697
4583.000000;0.918294
4582.000000;0.917815
4581.000000;0.917357
4580.000000;0.916958
4579.000000;0.916594
4578.000000;0.916273
4577.000000;0.916032
4576.000000;0.915826
4575.000000;0.915546
4574.000000;0.915169
4573.000000;0.914796
4572.000000;0.914508
4571.000000;0.914288
4570.000000;0.914113
4569.000000;0.914013
4568.000000;0.913966
4567.000000;0.913833
4566.000000;0.913511
4565.000000;0.913109
4564.000000;0.912871
4563.000000;0.912926
4562.000000;0.913170
4561.000000;0.913381
4560.000000;0.913419
4559.000000;0.913332
4558.000000;0.913313
4557.000000;0.913512
4556.000000;0.913880
4555.000000;0.914202
4554.000000;0.914327
4553.000000;0.914321
4552.000000;0.914347
4551.000000;0.914471
4550.000000;0.914650
4549.000000;0.914870
4548.000000;0.915182
4547.000000;0.915601
4546.000000;0.916037
4545.000000;0.916374
4544.000000;0.916576
4543.000000;0.916691
4542.000000;0.916808
4541.000000;0.917015
4540.000000;0.917369
4539.000000;0.917856
4538.000000;0.918382
4537.000000;0.918828
4536.000000;0.919123
4535.000000;0.919303
4534.000000;0.919495
4533.000000;0.919822
4532.000000;0.920297
4531.000000;0.920818
4530.000000;0.921278
4529.000000;0.921670
4528.000000;0.922061
4527.000000;0.922470
4526.000000;0.922855
4525.000000;0.923206
4524.000000;0.923580
4523.000000;0.924016
4522.000000;0.924455
4521.000000;0.924831
4520.000000;0.925191
4519.000000;0.925654
4518.000000;0.926219
4517.000000;0.926709
4516.000000;0.926958
4515.000000;0.927009
4514.000000;0.927081
4513.000000;0.927344
4512.000000;0.927768
4511.000000;0.928201
4510.000000;0.928550
4509.000000;0.928869
4508.000000;0.929301
4507.000000;0.929907
4506.000000;0.930582
4505.000000;0.931147
4504.000000;0.931543
4503.000000;0.931898
4502.000000;0.932354
4501.000000;0.932899
4500.000000;0.933432
4499.000000;0.933947
4498.000000;0.934539
4497.000000;0.935254
4496.000000;0.936023
4495.000000;0.936788
4494.000000;0.937573
4493.000000;0.938388
4492.000000;0.939188
4491.000000;0.939968
4490.000000;0.940818
4489.000000;0.941772
4488.000000;0.942708
4487.000000;0.943503
4486.000000;0.944241
4485.000000;0.945131
4484.000000;0.946227
4483.000000;0.947344
4482.000000;0.948273
4481.000000;0.949002
4480.000000;0.949704
4479.000000;0.950564
4478.000000;0.951634
4477.000000;0.952806
4476.000000;0.953936
4475.000000;0.954998
4474.000000;0.956096
4473.000000;0.957311
4472.000000;0.958602
4471.000000;0.959897
4470.000000;0.961210
4469.000000;0.962589
4468.000000;0.964010
4467.000000;0.965428
4466.000000;0.966869
4465.000000;0.968364
4464.000000;0.969847
4463.000000;0.971247
4462.000000;0.972645
4461.000000;0.974192
4460.000000;0.975873
4459.000000;0.977499
4458.000000;0.978949
4457.000000;0.980288
4456.000000;0.981637
4455.000000;0.983078
4454.000000;0.984693
4453.000000;0.986537
4452.000000;0.988494
4451.000000;0.990340
4450.000000;0.991995
4449.000000;0.993603
4448.000000;0.995271
4447.000000;0.996912
4446.000000;0.998442
4445.000000;0.999987
4444.000000;1.001712
4443.000000;1.003586
4442.000000;1.005471
4441.000000;1.007374
4440.000000;1.009410
4439.000000;1.011526
4438.000000;1.013488
4437.000000;1.015165
4436.000000;1.016724
4435.000000;1.018478
4434.000000;1.020622
4433.000000;1.023117
4432.000000;1.025743
4431.000000;1.028247
4430.000000;1.030518
4429.000000;1.032648
4428.000000;1.034773
4427.000000;1.036920
4426.000000;1.039051
4425.000000;1.041219
4424.000000;1.043533
4423.000000;1.045975
4422.000000;1.048379
4421.000000;1.050642
4420.000000;1.052859
4419.000000;1.055201
4418.000000;1.057712
4417.000000;1.060280
4416.000000;1.062754
4415.000000;1.065062
4414.000000;1.067259
4413.000000;1.069492
4412.000000;1.071867
4411.000000;1.074377
4410.000000;1.076968
4409.000000;1.079674
4408.000000;1.082560
4407.000000;1.085552
4406.000000;1.088428
4405.000000;1.091054
4404.000000;1.093548
4403.000000;1.096131
4402.000000;1.098880
4401.000000;1.101687
4400.000000;1.104442
4399.000000;1.107167
4398.000000;1.109981
4397.000000;1.112963
4396.000000;1.116049
4395.000000;1.119007
4394.000000;1.121608
4393.000000;1.123871
4392.000000;1.126123
4391.000000;1.128730
4390.000000;1.131748
4389.000000;1.134922
4388.000000;1.138027
4387.000000;1.141116
4386.000000;1.144374
4385.000000;1.147803
4384.000000;1.151166
4383.000000;1.154264
4382.000000;1.157173
4381.000000;1.160140
4380.000000;1.163282
4379.000000;1.166485
4378.000000;1.169628
4377.000000;1.172780
4376.000000;1.176083
4375.000000;1.179487
4374.000000;1.182784
4373.000000;1.185919
4372.000000;1.189109
4371.000000;1.192533
4370.000000;1.196071
4369.000000;1.199523
4368.000000;1.203003
4367.000000;1.206822
4366.000000;1.210943
4365.000000;1.214846
4364.000000;1.218088
4363.000000;1.220871
4362.000000;1.223844
4361.000000;1.227429
4360.000000;1.231501
4359.000000;1.235645
4358.000000;1.239538
4357.000000;1.243123
4356.000000;1.246617
4355.000000;1.250370
4354.000000;1.254560
4353.000000;1.258992
4352.000000;1.263359
4351.000000;1.267693
4350.000000;1.272308
4349.000000;1.277220
4348.000000;1.281891
4347.000000;1.285795
4346.000000;1.289087
4345.000000;1.292465
4344.000000;1.296449
4343.000000;1.301042
4342.000000;1.305978
4341.000000;1.311014
4340.000000;1.315922
4339.000000;1.320497
4338.000000;1.324735
4337.000000;1.328872
4336.000000;1.333124
4335.000000;1.337476
4334.000000;1.341823
4333.000000;1.346185
4332.000000;1.350641
4331.000000;1.355104
4330.000000;1.359308
4329.000000;1.363111
4328.000000;1.366770
4327.000000;1.370875
4326.000000;1.375958
4325.000000;1.382058
4324.000000;1.388615
4323.000000;1.394806
4322.000000;1.400102
4321.000000;1.404572
4320.000000;1.408700
4319.000000;1.412982
4318.000000;1.417690
4317.000000;1.422858
4316.000000;1.428329
4315.000000;1.433794
4314.000000;1.438888
4313.000000;1.443416
4312.000000;1.447584
4311.000000;1.451969
4310.000000;1.457181
4309.000000;1.463405
4308.000000;1.470177
4307.000000;1.476618
4306.000000;1.482040
4305.000000;1.486493
4304.000000;1.490746
4303.000000;1.495624
4302.000000;1.501237
4301.000000;1.506869
4300.000000;1.511787
4299.000000;1.516162
4298.000000;1.521003
4297.000000;1.527095
4296.000000;1.534153
4295.000000;1.541150
4294.000000;1.547373
4293.000000;1.552951
4292.000000;1.558352
4291.000000;1.563690
4290.000000;1.568741
4289.000000;1.573497
4288.000000;1.578451
4287.000000;1.584181
4286.000000;1.590710
4285.000000;1.597417
4284.000000;1.603677
4283.000000;1.609536
4282.000000;1.615565
4281.000000;1.622077
4280.000000;1.628691
4279.000000;1.634770
4278.000000;1.640208
4277.000000;1.645656
4276.000000;1.651939
4275.000000;1.659312
4274.000000;1.667157
4273.000000;1.674328
4272.000000;1.679942
4271.000000;1.684116
4270.000000;1.688048
4269.000000;1.693220
4268.000000;1.700244
4267.000000;1.708311
4266.000000;1.715836
4265.000000;1.721938
4264.000000;1.727343
4263.000000;1.733607
4262.000000;1.741349
4261.000000;1.749507
4260.000000;1.756539
4259.000000;1.762000
4258.000000;1.766598
4257.000000;1.771245
4256.000000;1.776689
4255.000000;1.783561
4254.000000;1.791824
4253.000000;1.800252
4252.000000;1.807411
4251.000000;1.813416
4250.000000;1.819759
4249.000000;1.827143
4248.000000;1.834572
4247.000000;1.840764
4246.000000;1.846048
4245.000000;1.851506
4244.000000;1.857729
4243.000000;1.864916
4242.000000;1.873152
4241.000000;1.881621
4240.000000;1.888603
4239.000000;1.893620
4238.000000;1.898752
4237.000000;1.906240
4236.000000;1.915440
4235.000000;1.923728
4234.000000;1.930105
4233.000000;1.936054
4232.000000;1.942853
4231.000000;1.950334
4230.000000;1.958492
4229.000000;1.968157
4228.000000;1.979116
4227.000000;1.988968
4226.000000;1.995668
4225.000000;2.000223
4224.000000;2.004759
4223.000000;2.009401
4222.000000;2.013274
4221.000000;2.017167
4220.000000;2.022774
4219.000000;2.029860
4218.000000;2.036422
4217.000000;2.041842
4216.000000;2.048222
4215.000000;2.057996
4214.000000;2.071073
4213.000000;2.084467
4212.000000;2.094191
4211.000000;2.098024
4210.000000;2.097500
4209.000000;2.097205
4208.000000;2.101382
4207.000000;2.110765
4206.000000;2.122666
4205.000000;2.133978
4204.000000;2.143677
4203.000000;2.152165
4202.000000;2.159107
4201.000000;2.163702
4200.000000;2.167388
4199.000000;2.174272
4198.000000;2.187375
4197.000000;2.204775
4196.000000;2.220749
4195.000000;2.231618
4194.000000;2.238893
4193.000000;2.245713
4192.000000;2.251872
4191.000000;2.254242
4190.000000;2.252128
4189.000000;2.249572
4188.000000;2.252188
4187.000000;2.263709
4186.000000;2.284184
4185.000000;2.308680
4184.000000;2.329222
4183.000000;2.340993
4182.000000;2.345984
4181.000000;2.349094
4180.000000;2.352372
4179.000000;2.355012
4178.000000;2.357529
4177.000000;2.362063
4176.000000;2.368405
4175.000000;2.373388
4174.000000;2.375672
4173.000000;2.378937
4172.000000;2.386668
4171.000000;2.396123
4170.000000;2.402270
4169.000000;2.406320
4168.000000;2.415077
4167.000000;2.431971
4166.000000;2.452300
4165.000000;2.468125
4164.000000;2.476733
4163.000000;2.482609
4162.000000;2.491603
4161.000000;2.503936
4160.000000;2.512938
4159.000000;2.511888
4158.000000;2.502958
4157.000000;2.497421
4156.000000;2.504395
4155.000000;2.521541
4154.000000;2.540601
4153.000000;2.555880
4152.000000;2.563307
4151.000000;2.561333
4150.000000;2.553434
4149.000000;2.545827
4148.000000;2.543379
4147.000000;2.546624
4146.000000;2.553100
4145.000000;2.561404
4144.000000;2.572019
4143.000000;2.584772
4142.000000;2.598952
4141.000000;2.616082
4140.000000;2.637751
4139.000000;2.658012
4138.000000;2.663786
4137.000000;2.652780
4136.000000;2.642069
4135.000000;2.649375
4134.000000;2.678230
4133.000000;2.715805
4132.000000;2.733760
4131.000000;2.708950
4130.000000;2.659014
4129.000000;2.622130
4128.000000;2.618016
4127.000000;2.642733
4126.000000;2.676342
4125.000000;2.699509
4124.000000;2.712334
4123.000000;2.728852
4122.000000;2.755483
4121.000000;2.785325
4120.000000;2.809104
4119.000000;2.825541
4118.000000;2.841800
4117.000000;2.861526
4116.000000;2.877651
4115.000000;2.883313
4114.000000;2.881060
4113.000000;2.878998
4112.000000;2.882412
4111.000000;2.885159
4110.000000;2.872123
4109.000000;2.839711
4108.000000;2.800163
4107.000000;2.770977
4106.000000;2.768948
4105.000000;2.798896
4104.000000;2.848290
4103.000000;2.896127
4102.000000;2.933697
4101.000000;2.970194
4100.000000;3.005294
4099.000000;3.005994
4098.000000;2.947903
4097.000000;2.868972
4096.000000;2.818343
4095.000000;2.813753
4094.000000;2.846903
4093.000000;2.895574
4092.000000;2.943421
4091.000000;2.985762
4090.000000;3.006181
4089.000000;2.991585
4088.000000;2.975760
4087.000000;2.992768
4086.000000;3.023845
4085.000000;3.011050
4084.000000;2.946611
4083.000000;2.892604
4082.000000;2.884830
4081.000000;2.906540
4080.000000;2.923943
4079.000000;2.933352
4078.000000;2.957952
4077.000000;3.007320
4076.000000;3.058993
4075.000000;3.076374
4074.000000;3.079642
4073.000000;3.117302
4072.000000;3.175144
4071.000000;3.190233
4070.000000;3.146767
4069.000000;3.085167
4068.000000;3.029071
4067.000000;2.976793
4066.000000;2.926564
4065.000000;2.886142
4064.000000;2.858064
4063.000000;2.841874
4062.000000;2.846444
4061.000000;2.881811
4060.000000;2.943361
4059.000000;3.012555
4058.000000;3.065251
4057.000000;3.076037
4056.000000;3.049850
4055.000000;3.023107
4054.000000;3.010015
4053.000000;3.001404
4052.000000;2.996560
4051.000000;2.992153
4050.000000;2.992941
4049.000000;3.015574
4048.000000;3.047059
4047.000000;3.052232
4046.000000;3.025011
4045.000000;2.997431
4044.000000;2.991578
4043.000000;2.997845
4042.000000;2.980583
4041.000000;2.934972
4040.000000;2.903620
4039.000000;2.908141
4038.000000;2.941380
4037.000000;2.995675
4036.000000;3.061582
4035.000000;3.115866
4034.000000;3.148495
4033.000000;3.180959
4032.000000;3.242376
4031.000000;3.368116
4030.000000;3.361554
4029.000000;3.111906
4028.000000;2.965070
4027.000000;2.913405
4026.000000;2.922323
4025.000000;2.973571
4024.000000;3.048922
4023.000000;3.111490
4022.000000;3.127517
4021.000000;3.088594
4020.000000;3.054333
4019.000000;3.053202
4018.000000;3.064630
4017.000000;3.081202
4016.000000;3.113646
4015.000000;3.154451
4014.000000;3.171928
4013.000000;3.178637
4012.000000;3.194899
4011.000000;3.189882
4010.000000;3.130078
4009.000000;3.032963
4008.000000;2.970643
4007.000000;2.976588
4006.000000;3.027423
4005.000000;3.059158
4004.000000;3.055840
4003.000000;3.066253
4002.000000;3.113074
4001.000000;3.204874
4000.000000;3.324894
3999.000000;3.407351
3998.000000;3.453657
3997.000000;3.476474
3996.000000;3.392076
3995.000000;3.218861
3994.000000;3.065163
3993.000000;2.973979
3992.000000;2.947884
3991.000000;2.980256
3990.000000;3.060841
3989.000000;3.180354
3988.000000;3.330957
3987.000000;3.400823
3986.000000;3.302466
3985.000000;3.199366
3984.000000;3.147391
3983.000000;3.128963
3982.000000;3.119191
3981.000000;3.109787
3980.000000;3.121354
3979.000000;3.174169
3978.000000;3.232702
3977.000000;3.270324
3976.000000;3.325355
3975.000000;3.347693
3974.000000;3.296610
3973.000000;3.252867
3972.000000;3.259080
3971.000000;3.279643
3970.000000;3.248922
3969.000000;3.205275
3968.000000;3.216821
3967.000000;3.298402
3966.000000;3.474979
3965.000000;3.719386
3964.000000;3.947067
3963.000000;3.959175
3962.000000;3.585416
3961.000000;3.408266
3960.000000;3.396901
3959.000000;3.457514
3958.000000;3.576805
3957.000000;3.782587
3956.000000;3.923090
3955.000000;3.716173
3954.000000;3.468971
3953.000000;3.312407
3952.000000;3.252037
3951.000000;3.274558
3950.000000;3.342982
3949.000000;3.382426
3948.000000;3.369523
3947.000000;3.370311
3946.000000;3.441817
3945.000000;3.630912
3944.000000;3.892975
3943.000000;4.003761
3942.000000;3.900938
3941.000000;3.559635
3940.000000;3.304015
3939.000000;3.241494
3938.000000;3.335909
3937.000000;3.727113
3936.000000;3.774156
3935.000000;3.493155
3934.000000;3.374257
3933.000000;3.271476
3932.000000;3.224557
3931.000000;3.231671
3930.000000;3.264953
3929.000000;3.302533
3928.000000;3.335350
3927.000000;3.403315
3926.000000;3.582703
3925.000000;3.727940
3924.000000;3.685597
3923.000000;3.828241
3922.000000;3.847985
3921.000000;3.669662
3920.000000;3.684045
3919.000000;3.563994
3918.000000;3.437107
3917.000000;3.388722
3916.000000;3.408827
3915.000000;3.505986
3914.000000;3.667808
3913.000000;3.655460
3912.000000;3.836428
3911.000000;3.934982
3910.000000;3.387487
3909.000000;3.185448
3908.000000;3.153717
3907.000000;3.202597
3906.000000;3.305451
3905.000000;3.454311
3904.000000;3.625136
3903.000000;3.751860
3902.000000;3.819331
3901.000000;3.920488
3900.000000;3.931236
3899.000000;3.611484
3898.000000;3.418384
3897.000000;3.381957
3896.000000;3.491884
3895.000000;3.746387
3894.000000;4.110458
3893.000000;4.451640
3892.000000;4.565468
3891.000000;3.918683
3890.000000;3.473573
3889.000000;3.298894
3888.000000;3.275786
3887.000000;3.331200
3886.000000;3.424434
3885.000000;3.534322
3884.000000;3.643581
3883.000000;3.726674
3882.000000;3.767339
3881.000000;3.771888
3880.000000;3.723290
3879.000000;3.836220
3878.000000;4.014686
3877.000000;3.503997
3876.000000;3.330304
3875.000000;3.354013
3874.000000;3.562783
3873.000000;3.933126
3872.000000;4.057048
3871.000000;4.116719
3870.000000;4.124732
3869.000000;3.594595
3868.000000;3.460564
3867.000000;3.449671
3866.000000;3.432772
3865.000000;3.414256
3864.000000;3.433491
3863.000000;3.723428
3862.000000;3.933544
3861.000000;3.361388
3860.000000;3.194696
3859.000000;3.221986
3858.000000;3.359166
3857.000000;3.464099
3856.000000;3.384069
3855.000000;3.128824
3854.000000;2.899164
3853.000000;2.835478
3852.000000;2.972808
3851.000000;3.273152
3850.000000;3.629159
3849.000000;3.657526
3848.000000;3.673859
3847.000000;4.090455
3846.000000;3.891079
3845.000000;3.629784
3844.000000;3.499038
3843.000000;3.508925
3842.000000;3.659838
3841.000000;3.820399
3840.000000;4.000972
3839.000000;4.316054
3838.000000;4.242293
3837.000000;3.738920
3836.000000;3.574378
3835.000000;3.524362
3834.000000;3.186701
3833.000000;2.948216
3832.000000;2.897057
3831.000000;3.016580
3830.000000;3.270359
3829.000000;3.535777
3828.000000;3.761802
3827.000000;3.943703
3826.000000;3.787760
3825.000000;3.663309
3824.000000;3.675611
3823.000000;3.644371
3822.000000;3.266715
3821.000000;3.099340
3820.000000;3.185650
3819.000000;3.424567
3818.000000;3.565898
3817.000000;3.280880
3816.000000;2.989153
3815.000000;2.870393
3814.000000;2.913988
3813.000000;2.980882
3812.000000;3.008258
3811.000000;3.035801
3810.000000;3.035062
3809.000000;2.966178
3808.000000;3.220890
3807.000000;3.465413
3806.000000;2.982802
3805.000000;3.004351
3804.000000;3.156840
3803.000000;3.410125
3802.000000;3.755086
3801.000000;4.000719
3800.000000;3.909363
3799.000000;3.530437
3798.000000;3.420766
3797.000000;3.453483
3796.000000;3.741917
3795.000000;3.342550
3794.000000;2.976847
3793.000000;2.809122
3792.000000;2.788376
3791.000000;2.978747
3790.000000;3.561730
3789.000000;3.109197
3788.000000;3.015171
3787.000000;3.144579
3786.000000;3.509242
3785.000000;3.837668
3784.000000;3.617751
3783.000000;3.519980
3782.000000;3.453952
3781.000000;3.447425
3780.000000;3.462235
3779.000000;3.501862
3778.000000;3.499326
3777.000000;3.312998
3776.000000;3.073502
3775.000000;2.960199
3774.000000;3.008952
3773.000000;3.303430
3772.000000;3.246867
3771.000000;2.917686
3770.000000;2.755504
3769.000000;2.728349
3768.000000;2.817604
3767.000000;3.009931
3766.000000;3.367904
3765.000000;3.266039
3764.000000;3.011654
3763.000000;3.000995
3762.000000;3.220109
3761.000000;3.711424
3760.000000;3.619519
3759.000000;3.692970
3758.000000;3.652860
3757.000000;3.524258
3756.000000;3.467459
3755.000000;3.406660
3754.000000;3.324500
3753.000000;3.248904
3752.000000;3.239105
3751.000000;3.296455
3750.000000;3.250948
3749.000000;3.104249
3748.000000;3.033072
3747.000000;3.005409
3746.000000;2.947310
3745.000000;3.108151
3744.000000;3.175046
3743.000000;2.868091
3742.000000;3.029791
3741.000000;3.298727
3740.000000;3.523549
3739.000000;3.538226
3738.000000;3.567449
3737.000000;3.769814
3736.000000;4.053725
3735.000000;4.032295
3734.000000;3.750325
3733.000000;3.475083
3732.000000;3.349879
3731.000000;3.447210
3730.000000;3.978527
3729.000000;4.459282
3728.000000;4.112937
3727.000000;3.887846
3726.000000;3.489188
3725.000000;3.384737
3724.000000;3.371998
3723.000000;3.354742
3722.000000;3.333904
3721.000000;3.302910
3720.000000;3.288155
3719.000000;3.325907
3718.000000;4.422623
3717.000000;3.409891
3716.000000;3.044885
3715.000000;2.915522
3714.000000;2.858880
3713.000000;2.878694
3712.000000;2.940002
3711.000000;2.937393
3710.000000;2.889890
3709.000000;2.884503
3708.000000;2.900008
3707.000000;2.893009
3706.000000;2.955890
3705.000000;3.117881
3704.000000;3.599785
3703.000000;4.452492
3702.000000;3.512052
3701.000000;3.199492
3700.000000;2.925850
3699.000000;2.812699
3698.000000;2.784792
3697.000000;2.844505
3696.000000;2.962232
3695.000000;3.070294
3694.000000;3.058590
3693.000000;2.983940
3692.000000;2.941144
3691.000000;2.916562
3690.000000;2.840899
3689.000000;2.758522
3688.000000;2.810930
3687.000000;3.391157
3686.000000;2.909611
3685.000000;2.772168
3684.000000;2.802623
3683.000000;2.973565
3682.000000;3.141737
3681.000000;2.891075
3680.000000;2.758030
3679.000000;2.749140
3678.000000;2.792258
3677.000000;2.835520
3676.000000;2.863260
3675.000000;2.840733
3674.000000;2.800529
3673.000000;2.782250
3672.000000;2.748172
3671.000000;2.689690
3670.000000;2.638144
3669.000000;2.630749
3668.000000;2.704101
3667.000000;2.955392
3666.000000;2.925548
3665.000000;2.713342
3664.000000;2.672762
3663.000000;2.681935
3662.000000;2.647993
3661.000000;2.671467
3660.000000;2.806192
3659.000000;2.871618
3658.000000;2.724721
3657.000000;2.577480
3656.000000;2.542312
3655.000000;2.700410
3654.000000;3.146233
3653.000000;3.528190
3652.000000;3.311252
3651.000000;3.315658
3650.000000;3.210240
3649.000000;3.229620
3648.000000;3.246726
3647.000000;3.275051
3646.000000;3.257702
3645.000000;3.051075
3644.000000;2.798044
3643.000000;2.659663
3642.000000;2.659141
3641.000000;2.867431
3640.000000;2.888386
3639.000000;2.663213
3638.000000;2.606690
3637.000000;2.677146
3636.000000;2.848780
3635.000000;3.013782
3634.000000;3.019843
3633.000000;3.095449
3632.000000;3.210519
3631.000000;2.924600
3630.000000;2.641721
3629.000000;2.515000
3628.000000;2.531750
3627.000000;2.697493
3626.000000;2.912333
3625.000000;2.802208
3624.000000;2.648941
3623.000000;2.581319
3622.000000;2.576839
3621.000000;2.656503
3620.000000;2.837888
3619.000000;3.164925
3618.000000;3.743942
3617.000000;3.330012
3616.000000;3.024433
3615.000000;2.968811
3614.000000;3.037382
3613.000000;3.195477
3612.000000;3.273755
3611.000000;3.045960
3610.000000;2.892860
3609.000000;3.020569
3608.000000;3.657764
3607.000000;3.213963
3606.000000;3.101779
3605.000000;3.239548
3604.000000;3.612835
3603.000000;4.014353
3602.000000;3.605771
3601.000000;3.194958
3600.000000;2.949868
3599.000000;2.847816
3598.000000;2.870610
3597.000000;2.957462
3596.000000;2.861852
3595.000000;2.666132
3594.000000;2.570190
3593.000000;2.573829
3592.000000;2.808812
3591.000000;3.071827
3590.000000;2.772146
3589.000000;2.734173
3588.000000;2.849676
3587.000000;2.904499
3586.000000;2.871529
3585.000000;2.845084
3584.000000;2.885625
3583.000000;3.143929
3582.000000;3.450640
3581.000000;2.858634
3580.000000;2.555082
3579.000000;2.351698
3578.000000;2.255700
3577.000000;2.278671
3576.000000;2.429349
3575.000000;2.715816
3574.000000;2.745588
3573.000000;2.601666
3572.000000;2.640767
3571.000000;2.846455
3570.000000;3.152490
3569.000000;3.128864
3568.000000;3.116254
3567.000000;3.169560
3566.000000;3.199705
3565.000000;3.265132
3564.000000;3.506114
3563.000000;3.304942
3562.000000;2.965145
3561.000000;2.833708
3560.000000;2.767617
3559.000000;2.770044
3558.000000;3.004652
3557.000000;3.235839
3556.000000;2.787405
3555.000000;2.731063
3554.000000;2.903547
3553.000000;2.988315
3552.000000;2.849835
3551.000000;2.764176
3550.000000;2.833026
3549.000000;3.153569
3548.000000;3.611579
3547.000000;3.354141
3546.000000;3.066376
3545.000000;2.837905
3544.000000;2.699321
3543.000000;2.645247
3542.000000;2.697607
3541.000000;2.711606
3540.000000;2.578842
3539.000000;2.506896
3538.000000;2.515669
3537.000000;2.559708
3536.000000;2.596223
3535.000000;2.620256
3534.000000;2.735091
3533.000000;2.767491
3532.000000;2.484866
3531.000000;2.320007
3530.000000;2.286166
3529.000000;2.328332
3528.000000;2.421422
3527.000000;2.582406
3526.000000;2.856412
3525.000000;3.535160
3524.000000;2.997367
3523.000000;2.703768
3522.000000;2.573867
3521.000000;2.599078
3520.000000;2.574107
3519.000000;2.300223
3518.000000;2.187144
3517.000000;2.238077
3516.000000;2.446643
3515.000000;2.744016
3514.000000;2.765752
3513.000000;2.711317
3512.000000;2.753104
3511.000000;3.128725
3510.000000;3.189881
3509.000000;2.755128
3508.000000;2.672260
3507.000000;2.794785
3506.000000;3.013852
3505.000000;2.908333
3504.000000;2.785634
3503.000000;2.743566
3502.000000;2.730852
3501.000000;2.722684
3500.000000;2.701747
3499.000000;2.730261
3498.000000;2.972598
3497.000000;3.775226
3496.000000;2.979071
3495.000000;2.807468
3494.000000;2.621792
3493.000000;2.536876
3492.000000;2.500178
3491.000000;2.452523
3490.000000;2.425864
3489.000000;2.417249
3488.000000;2.424196
3487.000000;2.493553
3486.000000;2.632158
3485.000000;2.716114
3484.000000;2.641942
3483.000000;2.578384
3482.000000;2.610933
3481.000000;2.866943
3480.000000;3.082640
3479.000000;2.691100
3478.000000;2.519959
3477.000000;2.553231
3476.000000;2.842582
3475.000000;2.792903
3474.000000;2.565429
3473.000000;2.537412
3472.000000;2.661339
3471.000000;2.858740
3470.000000;2.881063
3469.000000;2.863512
3468.000000;2.827020
3467.000000;2.816783
3466.000000;2.739531
3465.000000;2.613289
3464.000000;2.655143
3463.000000;2.773692
3462.000000;2.582712
3461.000000;2.408939
3460.000000;2.387752
3459.000000;2.565676
3458.000000;3.026141
3457.000000;2.789807
3456.000000;2.586824
3455.000000;2.655102
3454.000000;2.565085
3453.000000;2.404215
3452.000000;2.311202
3451.000000;2.323449
3450.000000;2.452730
3449.000000;2.943151
3448.000000;3.064583
3447.000000;2.786771
3446.000000;2.901968
3445.000000;3.511870
3444.000000;2.938130
3443.000000;2.930298
3442.000000;3.479026
3441.000000;2.970193
3440.000000;2.633427
3439.000000;2.431262
3438.000000;2.287758
3437.000000;2.233815
3436.000000;2.302302
3435.000000;2.544717
3434.000000;2.682386
3433.000000;2.492517
3432.000000;2.465196
3431.000000;2.552737
3430.000000;2.746184
3429.000000;3.123207
3428.000000;3.013059
3427.000000;2.759851
3426.000000;2.728186
3425.000000;2.673074
3424.000000;2.611248
3423.000000;2.570750
3422.000000;2.519931
3421.000000;2.507858
3420.000000;2.607799
3419.000000;2.832043
3418.000000;3.271580
3417.000000;3.002323
3416.000000;2.627591
3415.000000;2.487758
3414.000000;2.501718
3413.000000;2.740475
3412.000000;3.396958
3411.000000;2.793758
3410.000000;2.619442
3409.000000;2.577840
3408.000000;2.644150
3407.000000;2.859107
3406.000000;2.973058
3405.000000;2.862166
3404.000000;3.000003
3403.000000;3.394539
3402.000000;3.285789
3401.000000;2.986505
3400.000000;2.883314
3399.000000;2.897871
3398.000000;3.094738
3397.000000;3.294286
3396.000000;3.058848
3395.000000;2.731854
3394.000000;2.574244
3393.000000;2.605746
3392.000000;2.887136
3391.000000;3.122058
3390.000000;2.899751
3389.000000;3.237047
3388.000000;2.980696
3387.000000;2.626705
3386.000000;2.601910
3385.000000;2.820408
3384.000000;3.377904
3383.000000;3.122455
3382.000000;2.936615
3381.000000;3.274662
3380.000000;3.598050
3379.000000;2.840318
3378.000000;2.702905
3377.000000;2.669267
3376.000000;2.721196
3375.000000;2.760982
3374.000000;2.786404
3373.000000;2.854472
3372.000000;3.045307
3371.000000;3.355735
3370.000000;3.379902
3369.000000;3.178883
3368.000000;3.028447
3367.000000;3.016281
3366.000000;3.149851
3365.000000;3.646738
3364.000000;2.988120
3363.000000;2.719328
3362.000000;2.616590
3361.000000;2.577466
3360.000000;2.543533
3359.000000;2.504187
3358.000000;2.504405
3357.000000;2.532936
3356.000000;2.511187
3355.000000;2.493511
3354.000000;2.552373
3353.000000;2.680364
3352.000000;2.835281
3351.000000;2.964377
3350.000000;3.006946
3349.000000;3.044057
3348.000000;3.197836
3347.000000;3.941436
3346.000000;3.725487
3345.000000;3.134385
3344.000000;2.828461
3343.000000;2.641220
3342.000000;2.586519
3341.000000;2.639072
3340.000000;2.584827
3339.000000;2.442084
3338.000000;2.411138
3337.000000;2.509508
3336.000000;2.716205
3335.000000;2.975181
3334.000000;3.179575
3333.000000;3.395989
3332.000000;3.818161
3331.000000;3.294771
3330.000000;2.909386
3329.000000;2.766423
3328.000000;2.790899
3327.000000;3.200248
3326.000000;3.776219
3325.000000;3.161130
3324.000000;3.349017
3323.000000;3.125156
3322.000000;2.945975
3321.000000;2.992899
3320.000000;2.912799
3319.000000;2.702885
3318.000000;2.628773
3317.000000;2.720911
3316.000000;2.770742
3315.000000;2.608003
3314.000000;2.507862
3313.000000;2.499443
3312.000000;2.524706
3311.000000;2.571054
3310.000000;2.690409
3309.000000;2.905187
3308.000000;3.054329
3307.000000;3.052144
3306.000000;3.065274
3305.000000;3.125186
3304.000000;3.046056
3303.000000;2.970201
3302.000000;2.993943
3301.000000;2.848533
3300.000000;2.644175
3299.000000;2.574741
3298.000000;2.626949
3297.000000;2.749901
3296.000000;2.775520
3295.000000;2.733737
3294.000000;2.778466
3293.000000;2.890593
3292.000000;2.965085
3291.000000;2.975168
3290.000000;3.004365
3289.000000;3.116119
3288.000000;3.459782
3287.000000;3.802007
3286.000000;3.220735
3285.000000;2.863132
3284.000000;2.754484
3283.000000;2.928659
3282.000000;3.204105
3281.000000;2.757411
3280.000000;2.689658
3279.000000;2.840357
3278.000000;2.991001
3277.000000;2.790562
3276.000000;2.722177
3275.000000;3.003335
3274.000000;3.555432
3273.000000;2.791530
3272.000000;2.667145
3271.000000;2.640406
3270.000000;2.680383
3269.000000;2.714576
3268.000000;2.762641
3267.000000;2.843327
3266.000000;2.979888
3265.000000;3.123778
3264.000000;3.131718
3263.000000;2.960052
3262.000000;2.804029
3261.000000;2.767727
3260.000000;2.870756
3259.000000;2.914126
3258.000000;2.828110
3257.000000;2.884480
3256.000000;3.193460
3255.000000;4.033358
3254.000000;3.415741
3253.000000;3.365402
3252.000000;3.119711
3251.000000;2.966815
3250.000000;2.912438
3249.000000;2.927043
3248.000000;3.086063
3247.000000;2.987087
3246.000000;2.671864
3245.000000;2.576457
3244.000000;2.612717
3243.000000;2.811575
3242.000000;3.007504
3241.000000;2.816432
3240.000000;2.697042
3239.000000;2.765381
3238.000000;2.936642
3237.000000;2.919358
3236.000000;2.897286
3235.000000;2.879851
3234.000000;2.704991
3233.000000;2.617310
3232.000000;2.659351
3231.000000;2.801814
3230.000000;3.009864
3229.000000;3.184133
3228.000000;3.340778
3227.000000;3.871591
3226.000000;3.194120
3225.000000;3.180003
3224.000000;3.613352
3223.000000;2.853641
3222.000000;2.647469
3221.000000;2.641668
3220.000000;2.851316
3219.000000;3.293484
3218.000000;3.137914
3217.000000;2.947671
3216.000000;3.171710
3215.000000;3.167484
3214.000000;2.871940
3213.000000;2.765230
3212.000000;2.700991
3211.000000;2.615178
3210.000000;2.519159
3209.000000;2.469450
3208.000000;2.486836
3207.000000;2.590504
3206.000000;2.813225
3205.000000;3.262037
3204.000000;3.203523
3203.000000;3.160327
3202.000000;3.328808
3201.000000;3.248377
3200.000000;3.191006
3199.000000;3.294225
3198.000000;3.228600
3197.000000;3.056161
3196.000000;3.120062
3195.000000;3.327264
3194.000000;3.055365
3193.000000;2.823985
3192.000000;2.733836
3191.000000;2.761294
3190.000000;2.921368
3189.000000;3.400185
3188.000000;3.777747
3187.000000;3.288571
3186.000000;3.552189
3185.000000;3.496537
3184.000000;3.002522
3183.000000;2.849887
3182.000000;2.850501
3181.000000;2.810613
3180.000000;2.757038
3179.000000;2.759982
3178.000000;2.777056
3177.000000;2.796558
3176.000000;2.878446
3175.000000;3.027444
3174.000000;2.913448
3173.000000;2.783669
3172.000000;2.784758
3171.000000;2.816482
3170.000000;2.760864
3169.000000;2.687881
3168.000000;2.653993
3167.000000;2.689260
3166.000000;2.848215
3165.000000;3.030168
3164.000000;2.990653
3163.000000;3.014260
3162.000000;3.203707
3161.000000;3.340672
3160.000000;3.195800
3159.000000;3.008660
3158.000000;2.857602
3157.000000;2.754387
3156.000000;2.716002
3155.000000;2.727401
3154.000000;2.798311
3153.000000;2.995981
3152.000000;3.713151
3151.000000;3.006541
3150.000000;2.805203
3149.000000;2.767719
3148.000000;2.714205
3147.000000;2.682324
3146.000000;2.734529
3145.000000;2.881074
3144.000000;3.127128
3143.000000;3.587061
3142.000000;3.663308
3141.000000;3.159588
3140.000000;3.034150
3139.000000;2.976318
3138.000000;2.956229
3137.000000;2.995414
3136.000000;3.256478
3135.000000;3.620347
3134.000000;3.162057
3133.000000;2.863041
3132.000000;2.707023
3131.000000;2.638884
3130.000000;2.698850
3129.000000;2.916748
3128.000000;3.501498
3127.000000;3.144633
3126.000000;2.905705
3125.000000;2.879387
3124.000000;2.894710
3123.000000;2.940670
3122.000000;3.062805
3121.000000;3.081410
3120.000000;2.922891
3119.000000;2.913638
3118.000000;2.994636
3117.000000;2.876103
3116.000000;2.739195
3115.000000;2.720535
3114.000000;2.827800
3113.000000;3.039895
3112.000000;3.050878
3111.000000;2.987690
3110.000000;2.965269
3109.000000;2.731459
3108.000000;2.559577
3107.000000;2.525138
3106.000000;2.600688
3105.000000;2.745154
3104.000000;3.039047
3103.000000;3.409445
3102.000000;2.994792
3101.000000;2.766305
3100.000000;2.723231
3099.000000;2.803331
3098.000000;3.173626
3097.000000;2.798861
3096.000000;2.565432
3095.000000;2.537661
3094.000000;2.608259
3093.000000;2.739711
3092.000000;3.036751
3091.000000;3.062324
3090.000000;2.691092
3089.000000;2.562841
3088.000000;2.535287
3087.000000;2.552401
3086.000000;2.544183
3085.000000;2.537336
3084.000000;2.595520
3083.000000;2.680381
3082.000000;2.694279
3081.000000;2.732913
3080.000000;2.905709
3079.000000;3.285782
3078.000000;3.082115
3077.000000;2.756032
3076.000000;2.619942
3075.000000;2.568577
3074.000000;2.553525
3073.000000;2.530510
3072.000000;2.562613
3071.000000;2.697651
3070.000000;2.884561
3069.000000;2.886178
3068.000000;2.827904
3067.000000;2.857817
3066.000000;3.020026
3065.000000;3.492360
3064.000000;3.401987
3063.000000;3.030804
3062.000000;2.976985
3061.000000;3.233783
3060.000000;3.700461
3059.000000;3.073896
3058.000000;2.943652
3057.000000;2.916150
3056.000000;2.953429
3055.000000;2.971907
3054.000000;3.033513
3053.000000;3.299752
3052.000000;3.465776
3051.000000;3.162994
3050.000000;3.041534
3049.000000;3.095600
3048.000000;3.196476
3047.000000;3.289632
3046.000000;3.424165
3045.000000;3.627432
3044.000000;3.262728
3043.000000;2.889579
3042.000000;2.728030
3041.000000;2.681480
3040.000000;2.683208
3039.000000;2.688223
3038.000000;2.706783
3037.000000;2.844153
3036.000000;3.254531
3035.000000;2.976787
3034.000000;2.720368
3033.000000;2.693017
3032.000000;2.752183
3031.000000;2.808332
3030.000000;2.853074
3029.000000;3.014146
3028.000000;3.510017
3027.000000;3.237759
3026.000000;2.917258
3025.000000;2.922137
3024.000000;3.137963
3023.000000;2.916415
3022.000000;2.626817
3021.000000;2.571083
3020.000000;2.666908
3019.000000;3.005361
3018.000000;3.221589
3017.000000;2.968000
3016.000000;2.981724
3015.000000;3.161666
3014.000000;2.992713
3013.000000;2.866904
3012.000000;2.835066
3011.000000;2.744008
3010.000000;2.623560
3009.000000;2.586416
3008.000000;2.670136
3007.000000;3.018468
3006.000000;3.161772
3005.000000;2.693013
3004.000000;2.770529
3003.000000;3.116055
3002.000000;2.720074
3001.000000;2.437789
3000.000000;2.414237
2999.000000;2.521032
2998.000000;2.722541
2997.000000;2.705587
2996.000000;2.663400
2995.000000;2.808664
2994.000000;3.549008
2993.000000;3.207371
2992.000000;3.020563
2991.000000;3.514083
2990.000000;3.219888
2989.000000;2.903254
2988.000000;2.765119
2987.000000;2.715011
2986.000000;2.774385
2985.000000;2.922339
2984.000000;2.876739
2983.000000;2.691180
2982.000000;2.566462
2981.000000;2.522452
2980.000000;2.615470
2979.000000;2.827611
2978.000000;2.699660
2977.000000;2.521059
2976.000000;2.543083
2975.000000;2.707137
2974.000000;3.148175
2973.000000;3.300252
2972.000000;2.834900
2971.000000;2.631423
2970.000000;2.562629
2969.000000;2.644789
2968.000000;2.900345
2967.000000;3.172941
2966.000000;3.213722
2965.000000;3.112186
2964.000000;3.017537
2963.000000;3.123733
2962.000000;3.809727
2961.000000;3.586764
2960.000000;3.657431
2959.000000;3.368862
2958.000000;2.990659
2957.000000;2.859228
2956.000000;2.916638
2955.000000;2.937019
2954.000000;2.719252
2953.000000;2.642307
2952.000000;2.680724
2951.000000;2.651237
2950.000000;2.542010
2949.000000;2.513952
2948.000000;2.546465
2947.000000;2.560529
2946.000000;2.600853
2945.000000;2.781431
2944.000000;3.386623
2943.000000;3.044447
2942.000000;2.750786
2941.000000;2.756488
2940.000000;2.843351
2939.000000;2.989834
2938.000000;3.691432
2937.000000;3.166138
2936.000000;2.793782
2935.000000;2.701503
2934.000000;2.750476
2933.000000;2.944240
2932.000000;3.048473
2931.000000;2.759610
2930.000000;2.625186
2929.000000;2.616871
2928.000000;2.643527
2927.000000;2.665916
2926.000000;2.783685
2925.000000;2.886557
2924.000000;2.805556
2923.000000;2.751373
2922.000000;2.653281
2921.000000;2.554495
2920.000000;2.539791
2919.000000;2.606942
2918.000000;2.718696
2917.000000;2.825090
2916.000000;2.910742
2915.000000;3.008352
2914.000000;3.176108
2913.000000;3.494150
2912.000000;3.602412
2911.000000;3.359596
2910.000000;3.235199
2909.000000;3.248055
2908.000000;3.839015
2907.000000;3.283186
2906.000000;2.979778
2905.000000;2.941784
2904.000000;3.061915
2903.000000;3.055923
2902.000000;2.942483
2901.000000;2.977086
2900.000000;2.916201
2899.000000;2.772870
2898.000000;2.803230
2897.000000;2.952331
2896.000000;2.996274
2895.000000;2.983971
2894.000000;3.039228
2893.000000;3.035095
2892.000000;2.954779
2891.000000;2.887596
2890.000000;2.892513
2889.000000;3.056663
2888.000000;3.278714
2887.000000;2.984328
2886.000000;2.822881
2885.000000;2.867683
2884.000000;2.969166
2883.000000;2.993050
2882.000000;3.028842
2881.000000;3.287674
2880.000000;3.234920
2879.000000;2.904115
2878.000000;2.833865
2877.000000;2.951798
2876.000000;3.095748
2875.000000;3.040819
2874.000000;3.080949
2873.000000;3.305228
2872.000000;3.280817
2871.000000;3.034532
2870.000000;3.150643
2869.000000;3.401943
2868.000000;2.978828
2867.000000;2.768730
2866.000000;2.723708
2865.000000;2.688180
2864.000000;2.662409
2863.000000;2.740524
2862.000000;2.880506
2861.000000;2.822355
2860.000000;2.722299
2859.000000;2.764657
2858.000000;2.989188
2857.000000;3.644811
2856.000000;3.133236
2855.000000;2.920672
2854.000000;2.847600
2853.000000;2.858614
2852.000000;3.012212
2851.000000;2.991393
2850.000000;2.811858
2849.000000;2.777718
2848.000000;2.863990
2847.000000;2.869026
2846.000000;2.713231
2845.000000;2.629503
2844.000000;2.651382
2843.000000;2.796395
2842.000000;3.160123
2841.000000;3.104309
2840.000000;2.751351
2839.000000;2.638715
2838.000000;2.597694
2837.000000;2.655478
2836.000000;2.817393
2835.000000;3.266112
2834.000000;3.583540
2833.000000;3.278207
2832.000000;3.039868
2831.000000;2.818944
2830.000000;2.750908
2829.000000;2.847143
2828.000000;3.183966
2827.000000;3.264363
2826.000000;3.129924
2825.000000;3.275993
2824.000000;3.708447
2823.000000;3.315565
2822.000000;3.086258
2821.000000;2.964872
2820.000000;2.950804
2819.000000;3.052890
2818.000000;3.294587
2817.000000;3.239852
2816.000000;2.947661
2815.000000;2.826559
2814.000000;2.791889
2813.000000;2.827542
2812.000000;2.898909
2811.000000;2.847467
2810.000000;2.746859
2809.000000;2.761973
2808.000000;2.903029
2807.000000;3.082190
2806.000000;3.410157
2805.000000;3.526814
2804.000000;2.973864
2803.000000;2.756345
2802.000000;2.741059
2801.000000;2.883142
2800.000000;3.208307
2799.000000;3.166846
2798.000000;3.010113
2797.000000;2.985886
2796.000000;3.049136
2795.000000;3.194914
2794.000000;3.181406
2793.000000;3.061665
2792.000000;3.147373
2791.000000;3.573880
2790.000000;3.885832
2789.000000;3.443675
2788.000000;3.220796
2787.000000;2.951226
2786.000000;2.822291
2785.000000;2.829378
2784.000000;2.998728
2783.000000;3.385695
2782.000000;3.406595
2781.000000;3.114428
2780.000000;2.927532
2779.000000;2.795205
2778.000000;2.805729
2777.000000;2.964290
2776.000000;3.806419
2775.000000;3.081140
2774.000000;2.816923
2773.000000;2.772206
2772.000000;2.812322
2771.000000;2.975189
2770.000000;3.151377
2769.000000;2.902535
2768.000000;2.849104
2767.000000;2.970226
2766.000000;3.036881
2765.000000;2.924476
2764.000000;2.870261
2763.000000;2.862601
2762.000000;2.888847
2761.000000;2.975507
2760.000000;3.085539
2759.000000;3.071607
2758.000000;2.969242
2757.000000;2.893831
2756.000000;2.893061
2755.000000;2.958218
2754.000000;3.016792
2753.000000;2.986062
2752.000000;2.909781
2751.000000;2.883770
2750.000000;2.909141
2749.000000;2.886864
2748.000000;2.794275
2747.000000;2.735404
2746.000000;2.775178
2745.000000;2.974245
2744.000000;3.139866
2743.000000;2.827147
2742.000000;2.688223
2741.000000;2.676413
2740.000000;2.743654
2739.000000;2.793361
2738.000000;2.757957
2737.000000;2.739875
2736.000000;2.817486
2735.000000;2.987458
2734.000000;3.128345
2733.000000;3.124135
2732.000000;3.045907
2731.000000;3.002154
2730.000000;3.043628
2729.000000;3.391692
2728.000000;3.357269
2727.000000;3.017934
2726.000000;2.898279
2725.000000;2.833631
2724.000000;2.857346
2723.000000;2.986510
2722.000000;3.137635
2721.000000;3.000865
2720.000000;2.866741
2719.000000;2.882550
2718.000000;3.013218
2717.000000;3.020253
2716.000000;2.828651
2715.000000;2.662551
2714.000000;2.572484
2713.000000;2.569523
2712.000000;2.653916
2711.000000;2.893680
2710.000000;3.221714
2709.000000;2.886999
2708.000000;2.688741
2707.000000;2.652222
2706.000000;2.725421
2705.000000;2.814428
2704.000000;2.860460
2703.000000;2.944614
2702.000000;3.261752
2701.000000;3.180053
2700.000000;2.873168
2699.000000;2.779593
2698.000000;2.786287
2697.000000;2.886379
2696.000000;3.091307
2695.000000;3.305732
2694.000000;3.102011
2693.000000;2.914737
2692.000000;2.794418
2691.000000;2.752468
2690.000000;2.849157
2689.000000;3.197009
2688.000000;3.177910
2687.000000;2.883933
2686.000000;2.883499
2685.000000;3.131668
2684.000000;3.572026
2683.000000;3.484072
2682.000000;3.408468
2681.000000;3.158861
2680.000000;3.029625
2679.000000;3.326696
2678.000000;3.485650
2677.000000;2.870280
2676.000000;2.677154
2675.000000;2.627577
2674.000000;2.693937
2673.000000;2.818199
2672.000000;2.850491
2671.000000;2.802004
2670.000000;2.807335
2669.000000;2.887384
2668.000000;3.060238
2667.000000;3.333007
2666.000000;3.212068
2665.000000;3.130142
2664.000000;3.291466
2663.000000;3.558415
2662.000000;3.061896
2661.000000;2.893431
2660.000000;2.912955
2659.000000;3.102726
2658.000000;3.577774
2657.000000;3.602926
2656.000000;3.184102
2655.000000;3.164568
2654.000000;3.329416
2653.000000;3.575338
2652.000000;3.506129
2651.000000;3.252273
2650.000000;2.956711
2649.000000;2.833013
2648.000000;2.858076
2647.000000;3.034346
2646.000000;3.029754
2645.000000;2.862954
2644.000000;2.835558
2643.000000;2.943978
2642.000000;2.978286
2641.000000;2.855441
2640.000000;2.830438
2639.000000;2.969012
2638.000000;3.203312
2637.000000;3.028017
2636.000000;2.916000
2635.000000;2.969195
2634.000000;3.175274
2633.000000;3.508064
2632.000000;3.657233
2631.000000;3.481423
2630.000000;3.334291
2629.000000;3.325386
2628.000000;3.491920
2627.000000;3.492804
2626.000000;3.178627
2625.000000;2.948256
2624.000000;2.836268
2623.000000;2.870164
2622.000000;3.093329
2621.000000;3.052807
2620.000000;2.846279
2619.000000;2.827442
2618.000000;2.931516
2617.000000;3.010674
2616.000000;2.930828
2615.000000;2.832072
2614.000000;2.790421
2613.000000;2.825278
2612.000000;2.924777
2611.000000;3.061420
2610.000000;3.146949
2609.000000;3.117121
2608.000000;3.077595
2607.000000;2.998354
2606.000000;2.879841
2605.000000;2.832403
2604.000000;2.887885
2603.000000;3.044642
2602.000000;3.228678
2601.000000;3.228626
2600.000000;3.157650
2599.000000;3.019324
2598.000000;2.841616
2597.000000;2.735145
2596.000000;2.704144
2595.000000;2.750652
2594.000000;2.883203
2593.000000;3.017064
2592.000000;3.005392
2591.000000;2.957573
2590.000000;2.909994
2589.000000;2.863047
2588.000000;2.879277
2587.000000;2.939383
2586.000000;2.864021
2585.000000;2.781879
2584.000000;2.834223
2583.000000;3.049066
2582.000000;3.158806
2581.000000;3.053092
2580.000000;2.988968
2579.000000;2.838179
2578.000000;2.751094
2577.000000;2.813731
2576.000000;3.056880
2575.000000;3.091584
2574.000000;2.855293
2573.000000;2.820913
2572.000000;2.908214
2571.000000;3.253020
2570.000000;3.692836
2569.000000;3.220173
2568.000000;3.014555
2567.000000;2.932234
2566.000000;2.891911
2565.000000;2.895865
2564.000000;2.953252
2563.000000;3.053193
2562.000000;3.292626
2561.000000;3.676889
2560.000000;3.249454
2559.000000;3.170878
2558.000000;3.386747
2557.000000;3.955036
2556.000000;3.818382
2555.000000;3.692116
2554.000000;3.366937
2553.000000;3.024016
2552.000000;2.816868
2551.000000;2.755363
2550.000000;2.850322
2549.000000;3.089142
2548.000000;3.102453
2547.000000;2.914391
2546.000000;2.831225
2545.000000;2.773986
2544.000000;2.734083
2543.000000;2.747816
2542.000000;2.864371
2541.000000;3.107201
2540.000000;3.492776
2539.000000;3.749878
2538.000000;3.629207
2537.000000;3.482391
2536.000000;3.316852
2535.000000;3.178137
2534.000000;3.100139
2533.000000;3.060554
2532.000000;3.109907
2531.000000;3.351594
2530.000000;3.960145
2529.000000;3.170403
2528.000000;2.881546
2527.000000;2.730417
2526.000000;2.700890
2525.000000;2.808003
2524.000000;2.943574
2523.000000;2.787845
2522.000000;2.679998
2521.000000;2.733709
2520.000000;2.914453
2519.000000;2.888243
2518.000000;2.720444
2517.000000;2.668912
2516.000000;2.668463
2515.000000;2.677197
2514.000000;2.677446
2513.000000;2.692073
2512.000000;2.742004
2511.000000;2.830681
2510.000000;2.870119
2509.000000;2.795316
2508.000000;2.731000
2507.000000;2.743347
2506.000000;2.808409
2505.000000;2.808687
2504.000000;2.730917
2503.000000;2.688319
2502.000000;2.694929
2501.000000;2.730266
2500.000000;2.819158
2499.000000;3.004994
2498.000000;3.388557
2497.000000;4.131441
2496.000000;3.514905
2495.000000;3.688084
2494.000000;3.555870
2493.000000;3.177880
2492.000000;3.125868
2491.000000;3.336822
2490.000000;3.368328
2489.000000;3.004112
2488.000000;2.847507
2487.000000;2.810582
2486.000000;2.851920
2485.000000;2.818834
2484.000000;2.706872
2483.000000;2.641940
2482.000000;2.678128
2481.000000;2.839229
2480.000000;3.169169
2479.000000;3.004607
2478.000000;2.795772
2477.000000;2.717308
2476.000000;2.698408
2475.000000;2.717596
2474.000000;2.747858
2473.000000;2.760683
2472.000000;2.786764
2471.000000;2.881402
2470.000000;3.133183
2469.000000;3.704918
2468.000000;3.478596
2467.000000;3.195174
2466.000000;3.099366
2465.000000;3.042100
2464.000000;3.002086
2463.000000;2.924187
2462.000000;2.856401
2461.000000;2.854554
2460.000000;2.826248
2459.000000;2.751258
2458.000000;2.751691
2457.000000;2.919022
2456.000000;3.005228
2455.000000;2.917688
2454.000000;2.957731
2453.000000;3.434395
2452.000000;3.153284
2451.000000;2.816361
2450.000000;2.721532
2449.000000;2.772436
2448.000000;2.961123
2447.000000;3.089128
2446.000000;2.963959
2445.000000;2.917112
2444.000000;2.960101
2443.000000;3.049160
2442.000000;3.102822
2441.000000;3.121077
2440.000000;3.198848
2439.000000;3.390788
2438.000000;3.778379
2437.000000;3.507162
2436.000000;3.109072
2435.000000;2.968734
2434.000000;2.956360
2433.000000;3.058163
2432.000000;3.076893
2431.000000;2.943787
2430.000000;2.865158
2429.000000;2.895184
2428.000000;3.007727
2427.000000;2.992028
2426.000000;2.864879
2425.000000;2.793453
2424.000000;2.800017
2423.000000;2.900748
2422.000000;3.135836
2421.000000;3.472258
2420.000000;3.271155
2419.000000;3.185683
2418.000000;3.234669
2417.000000;3.260645
2416.000000;3.179144
2415.000000;3.144686
2414.000000;3.404360
2413.000000;3.552967
2412.000000;3.059260
2411.000000;3.015779
2410.000000;3.122502
2409.000000;3.629891
2408.000000;3.747833
2407.000000;3.220703
2406.000000;3.100140
2405.000000;3.109660
2404.000000;3.273647
2403.000000;3.545287
2402.000000;3.735747
2401.000000;3.308375
2400.000000;3.036586
2399.000000;2.953051
2398.000000;3.013301
2397.000000;3.149783
2396.000000;3.107454
2395.000000;3.039537
2394.000000;3.010200
2393.000000;2.957584
2392.000000;2.926780
2391.000000;2.884530
2390.000000;2.797338
2389.000000;2.714051
2388.000000;2.648535
2387.000000;2.618660
2386.000000;2.655793
2385.000000;2.778973
2384.000000;3.010598
2383.000000;3.055981
2382.000000;2.859490
2381.000000;2.836712
2380.000000;2.976234
2379.000000;3.045297
2378.000000;2.992492
2377.000000;3.192646
2376.000000;3.474602
2375.000000;3.086703
2374.000000;2.862588
2373.000000;2.777276
2372.000000;2.777566
2371.000000;2.887079
2370.000000;3.200822
2369.000000;3.588925
2368.000000;3.094975
2367.000000;3.008971
2366.000000;3.146882
2365.000000;3.692250
2364.000000;3.309205
2363.000000;3.050336
2362.000000;2.970931
2361.000000;2.861207
2360.000000;2.758285
2359.000000;2.742930
2358.000000;2.892430
2357.000000;3.138595
2356.000000;2.924265
2355.000000;2.746120
2354.000000;2.749750
2353.000000;2.858444
2352.000000;2.877145
2351.000000;2.767288
2350.000000;2.759505
2349.000000;2.854732
2348.000000;2.906467
2347.000000;2.911827
2346.000000;3.080507
2345.000000;3.240824
2344.000000;2.924076
2343.000000;2.780836
2342.000000;2.800117
2341.000000;2.960454
2340.000000;3.047640
2339.000000;2.844866
2338.000000;2.758681
2337.000000;2.781820
2336.000000;2.739363
2335.000000;2.633433
2334.000000;2.617423
2333.000000;2.814585
2332.000000;3.115698
2331.000000;2.754051
2330.000000;2.632425
2329.000000;2.750892
2328.000000;3.121861
2327.000000;3.017994
2326.000000;2.786115
2325.000000;2.759633
2324.000000;2.738008
2323.000000;2.721652
2322.000000;2.750767
2321.000000;2.901678
2320.000000;2.957344
2319.000000;2.769348
2318.000000;2.666831
2317.000000;2.686056
2316.000000;2.801882
2315.000000;2.933641
2314.000000;2.807106
2313.000000;2.657954
2312.000000;2.608685
2311.000000;2.649651
2310.000000;2.775134
2309.000000;2.998690
2308.000000;3.084916
2307.000000;2.966836
2306.000000;2.962408
2305.000000;3.029210
2304.000000;3.120366
2303.000000;3.143971
2302.000000;3.033169
2301.000000;2.872700
2300.000000;2.753550
2299.000000;2.719529
2298.000000;2.788252
2297.000000;2.912027
2296.000000;2.871135
2295.000000;2.781489
2294.000000;2.805138
2293.000000;2.981979
2292.000000;3.080529
2291.000000;2.856799
2290.000000;2.758678
2289.000000;2.832778
2288.000000;3.062759
2287.000000;3.151561
2286.000000;3.071615
2285.000000;3.111097
2284.000000;3.071160
2283.000000;2.851826
2282.000000;2.716059
2281.000000;2.705065
2280.000000;2.851978
2279.000000;3.105421
2278.000000;3.016918
2277.000000;2.886661
2276.000000;2.885897
2275.000000;2.893309
2274.000000;2.940691
2273.000000;3.054462
2272.000000;2.944045
2271.000000;2.797224
2270.000000;2.809516
2269.000000;2.960559
2268.000000;3.227527
2267.000000;3.461889
2266.000000;3.252025
2265.000000;3.002038
2264.000000;2.904334
2263.000000;2.936866
2262.000000;3.087474
2261.000000;3.218194
2260.000000;3.007377
2259.000000;2.903571
2258.000000;3.003547
2257.000000;3.229606
2256.000000;3.047744
2255.000000;2.904610
2254.000000;2.895667
2253.000000;2.963198
2252.000000;3.079395
2251.000000;3.164510
2250.000000;3.079499
2249.000000;3.011309
2248.000000;3.095197
2247.000000;3.336897
2246.000000;3.203847
2245.000000;2.952870
2244.000000;2.869393
2243.000000;2.889837
2242.000000;3.005039
2241.000000;2.946715
2240.000000;2.826563
2239.000000;2.845279
2238.000000;3.000851
2237.000000;2.991587
2236.000000;2.902799
2235.000000;2.995563
2234.000000;3.213515
2233.000000;3.001173
2232.000000;2.867248
2231.000000;2.882241
2230.000000;2.997001
2229.000000;3.088747
2228.000000;3.102859
2227.000000;3.135892
2226.000000;3.125717
2225.000000;3.111116
2224.000000;3.149195
2223.000000;3.129370
2222.000000;3.036503
2221.000000;2.992185
2220.000000;3.083778
2219.000000;3.147372
2218.000000;2.955363
2217.000000;2.853339
2216.000000;2.919197
2215.000000;3.199096
2214.000000;3.251672
2213.000000;3.071784
2212.000000;3.086173
2211.000000;3.303382
2210.000000;3.256393
2209.000000;3.148326
2208.000000;3.278721
2207.000000;4.120968
2206.000000;3.500847
2205.000000;3.303886
2204.000000;3.296673
2203.000000;3.303221
2202.000000;3.186376
2201.000000;3.076866
2200.000000;3.047533
2199.000000;3.088920
2198.000000;3.165692
2197.000000;3.250154
2196.000000;3.327147
2195.000000;3.364938
2194.000000;3.350998
2193.000000;3.154020
2192.000000;2.916471
2191.000000;2.780557
2190.000000;2.758129
2189.000000;2.846100
2188.000000;3.112344
2187.000000;3.188022
2186.000000;2.989791
2185.000000;2.949585
2184.000000;3.017864
2183.000000;3.084586
2182.000000;3.067319
2181.000000;3.033848
2180.000000;2.988136
2179.000000;2.920334
2178.000000;2.880676
2177.000000;2.878004
2176.000000;2.829489
2175.000000;2.740244
2174.000000;2.714685
2173.000000;2.814265
2172.000000;2.930334
2171.000000;2.733395
2170.000000;2.571983
2169.000000;2.564420
2168.000000;2.683237
2167.000000;2.729109
2166.000000;2.623601
2165.000000;2.591347
2164.000000;2.656410
2163.000000;2.787759
2162.000000;2.787650
2161.000000;2.681055
2160.000000;2.648998
2159.000000;2.672270
2158.000000;2.678724
2157.000000;2.690331
2156.000000;2.766263
2155.000000;2.873183
2154.000000;2.883716
2153.000000;2.828148
2152.000000;2.845731
2151.000000;3.045586
2150.000000;3.689759
2149.000000;3.285931
2148.000000;3.359694
2147.000000;3.431509
2146.000000;3.005098
2145.000000;2.901112
2144.000000;2.897291
2143.000000;2.857466
2142.000000;2.781998
2141.000000;2.793548
2140.000000;2.899630
2139.000000;2.953349
2138.000000;2.883936
2137.000000;2.835404
2136.000000;2.823112
2135.000000;2.826701
2134.000000;2.797196
2133.000000;2.756648
2132.000000;2.783996
2131.000000;2.881467
2130.000000;2.992305
2129.000000;3.290689
2128.000000;3.571340
2127.000000;3.099613
2126.000000;3.111187
2125.000000;4.016535
2124.000000;3.118703
2123.000000;2.898818
2122.000000;2.857373
2121.000000;2.867656
2120.000000;2.813682
2119.000000;2.741002
2118.000000;2.736892
2117.000000;2.836751
2116.000000;2.935466
2115.000000;2.824248
2114.000000;2.702118
2113.000000;2.694270
2112.000000;2.868762
2111.000000;3.267943
2110.000000;3.006713
2109.000000;2.830308
2108.000000;2.935762
2107.000000;3.329276
2106.000000;3.340531
2105.000000;3.051782
2104.000000;2.999232
2103.000000;3.052508
2102.000000;3.437794
2101.000000;3.238402
2100.000000;2.905847
2099.000000;2.845435
2098.000000;2.971986
2097.000000;3.182195
2096.000000;3.055427
2095.000000;2.977289
2094.000000;3.115274
2093.000000;3.343491
2092.000000;3.179527
2091.000000;3.185064
2090.000000;3.402157
2089.000000;3.721279
2088.000000;3.784750
2087.000000;3.654274
2086.000000;3.612585
2085.000000;3.796095
2084.000000;3.565742
2083.000000;3.166741
2082.000000;2.941263
2081.000000;2.824409
2080.000000;2.792656
2079.000000;2.819409
2078.000000;2.889977
2077.000000;2.948509
2076.000000;2.948869
2075.000000;2.989829
2074.000000;3.164829
2073.000000;3.213641
2072.000000;3.096982
2071.000000;3.098464
2070.000000;3.193029
2069.000000;3.398402
2068.000000;3.919305
2067.000000;3.633622
2066.000000;3.268572
2065.000000;3.122045
2064.000000;3.042206
2063.000000;3.032511
2062.000000;3.101326
2061.000000;3.326631
2060.000000;3.771128
2059.000000;3.452009
2058.000000;3.200967
2057.000000;3.397556
2056.000000;3.410942
2055.000000;3.042849
2054.000000;2.859838
2053.000000;2.814952
2052.000000;2.895167
2051.000000;3.217046
2050.000000;3.536946
2049.000000;3.203917
2048.000000;3.157237
2047.000000;3.299042
2046.000000;3.841043
2045.000000;3.498489
2044.000000;3.161260
2043.000000;3.062284
2042.000000;3.084144
2041.000000;3.301745
2040.000000;3.728352
2039.000000;3.340979
2038.000000;3.199638
2037.000000;3.136140
2036.000000;3.163549
2035.000000;3.257595
2034.000000;3.351035
2033.000000;3.364526
2032.000000;3.456773
2031.000000;3.786791
2030.000000;3.450747
2029.000000;3.210338
2028.000000;3.256938
2027.000000;3.215297
2026.000000;3.012059
2025.000000;2.846348
2024.000000;2.761420
2023.000000;2.759195
2022.000000;2.830373
2021.000000;2.852501
2020.000000;2.762880
2019.000000;2.701183
2018.000000;2.705650
2017.000000;2.745362
2016.000000;2.758535
2015.000000;2.723374
2014.000000;2.704999
2013.000000;2.747780
2012.000000;2.859000
2011.000000;3.040705
2010.000000;3.280090
2009.000000;3.598629
2008.000000;3.533480
2007.000000;3.129530
2006.000000;2.943384
2005.000000;2.847367
2004.000000;2.756445
2003.000000;2.656143
2002.000000;2.592317
2001.000000;2.571956
2000.000000;2.571167
1999.000000;2.559613
1998.000000;2.508685
1997.000000;2.433019
1996.000000;2.390922
1995.000000;2.417007
1994.000000;2.495084
1993.000000;2.514821
1992.000000;2.478470
1991.000000;2.515358
1990.000000;2.652361
1989.000000;2.771669
1988.000000;2.726643
1987.000000;2.700360
1986.000000;2.774960
1985.000000;2.950483
1984.000000;3.054586
1983.000000;2.948984
1982.000000;2.908815
1981.000000;2.997231
1980.000000;3.231052
1979.000000;3.588809
1978.000000;3.913631
1977.000000;3.830310
1976.000000;3.509879
1975.000000;3.220564
1974.000000;3.029680
1973.000000;2.952714
1972.000000;2.950685
1971.000000;2.912628
1970.000000;2.829077
1969.000000;2.762154
1968.000000;2.705708
1967.000000;2.690650
1966.000000;2.762623
1965.000000;2.857110
1964.000000;2.807604
1963.000000;2.738408
1962.000000;2.725030
1961.000000;2.744812
1960.000000;2.795541
1959.000000;2.856916
1958.000000;2.830699
1957.000000;2.751105
1956.000000;2.713934
1955.000000;2.701378
1954.000000;2.664934
1953.000000;2.642201
1952.000000;2.696425
1951.000000;2.856910
1950.000000;2.946321
1949.000000;2.840336
1948.000000;2.791142
1947.000000;2.831569
1946.000000;2.905722
1945.000000;2.902546
1944.000000;2.845022
1943.000000;2.861689
1942.000000;3.073995
1941.000000;3.132465
1940.000000;2.906988
1939.000000;2.882102
1938.000000;3.095698
1937.000000;3.700036
1936.000000;2.943261
1935.000000;2.767405
1934.000000;2.765048
1933.000000;2.900255
1932.000000;3.185096
1931.000000;3.517937
1930.000000;3.154915
1929.000000;2.976296
1928.000000;2.947995
1927.000000;3.031814
1926.000000;3.039597
1925.000000;2.895857
1924.000000;2.819136
1923.000000;2.896485
1922.000000;3.026920
1921.000000;2.882658
1920.000000;2.737173
1919.000000;2.719119
1918.000000;2.794205
1917.000000;2.842906
1916.000000;2.781516
1915.000000;2.736822
1914.000000;2.732612
1913.000000;2.740292
1912.000000;2.766124
1911.000000;2.851152
1910.000000;3.062550
1909.000000;2.990895
1908.000000;2.728911
1907.000000;2.645793
1906.000000;2.706749
1905.000000;2.913195
1904.000000;3.008208
1903.000000;2.788608
1902.000000;2.679846
1901.000000;2.679943
1900.000000;2.786063
1899.000000;2.912956
1898.000000;2.896012
1897.000000;2.834284
1896.000000;2.878741
1895.000000;3.025202
1894.000000;3.508714
1893.000000;3.604883
1892.000000;3.126998
1891.000000;2.900048
1890.000000;2.808344
1889.000000;2.883814
1888.000000;3.173101
1887.000000;2.986436
1886.000000;2.776270
1885.000000;2.726173
1884.000000;2.783046
1883.000000;2.934277
1882.000000;3.047812
1881.000000;2.909148
1880.000000;2.767845
1879.000000;2.705366
1878.000000;2.726474
1877.000000;2.830515
1876.000000;2.903307
1875.000000;2.808534
1874.000000;2.723946
1873.000000;2.712997
1872.000000;2.760409
1871.000000;2.796718
1870.000000;2.726617
1869.000000;2.653231
1868.000000;2.678716
1867.000000;2.761703
1866.000000;2.805051
1865.000000;2.843589
1864.000000;2.965400
1863.000000;3.083806
1862.000000;3.040907
1861.000000;3.012595
1860.000000;3.056361
1859.000000;3.054194
1858.000000;3.027560
1857.000000;3.103699
1856.000000;3.291421
1855.000000;3.109215
1854.000000;2.927078
1853.000000;2.887563
1852.000000;2.904720
1851.000000;2.849832
1850.000000;2.741158
1849.000000;2.669488
1848.000000;2.656437
1847.000000;2.690571
1846.000000;2.734607
1845.000000;2.762773
1844.000000;2.766475
1843.000000;2.705913
1842.000000;2.628489
1841.000000;2.616790
1840.000000;2.694216
1839.000000;2.829325
1838.000000;2.831061
1837.000000;2.750350
1836.000000;2.748266
1835.000000;2.822820
1834.000000;2.849194
1833.000000;2.783835
1832.000000;2.776150
1831.000000;2.832086
1830.000000;2.766331
1829.000000;2.681052
1828.000000;2.715453
1827.000000;2.888584
1826.000000;2.910581
1825.000000;2.692310
1824.000000;2.628676
1823.000000;2.681181
1822.000000;2.797653
1821.000000;2.890874
1820.000000;2.905338
1819.000000;2.863560
1818.000000;2.807365
1817.000000;2.783827
1816.000000;2.833195
1815.000000;2.975215
1814.000000;2.988878
1813.000000;2.855848
1812.000000;2.829792
1811.000000;2.936311
1810.000000;2.967107
1809.000000;2.842049
1808.000000;2.769896
1807.000000;2.762085
1806.000000;2.745113
1805.000000;2.691511
1804.000000;2.653694
1803.000000;2.675306
1802.000000;2.771013
1801.000000;2.910418
1800.000000;2.930874
1799.000000;2.787847
1798.000000;2.680749
1797.000000;2.667150
1796.000000;2.757227
1795.000000;2.952887
1794.000000;3.184461
1793.000000;3.196958
1792.000000;3.105430
1791.000000;3.058034
1790.000000;2.983537
1789.000000;2.871220
1788.000000;2.795598
1787.000000;2.804677
1786.000000;2.901321
1785.000000;2.869970
1784.000000;2.752820
1783.000000;2.753995
1782.000000;2.890253
1781.000000;3.097094
1780.000000;2.949833
1779.000000;2.818739
1778.000000;2.856475
1777.000000;3.085994
1776.000000;3.339352
1775.000000;3.051528
1774.000000;2.982953
1773.000000;2.948392
1772.000000;2.858052
1771.000000;2.821406
1770.000000;2.908580
1769.000000;3.154417
1768.000000;3.077160
1767.000000;2.868326
1766.000000;2.896467
1765.000000;3.099826
1764.000000;3.304389
1763.000000;3.161219
1762.000000;3.257195
1761.000000;3.404404
1760.000000;3.078164
1759.000000;2.928537
1758.000000;2.920607
1757.000000;2.873871
1756.000000;2.806112
1755.000000;2.807976
1754.000000;2.867914
1753.000000;3.004358
1752.000000;2.844026
1751.000000;2.602419
1750.000000;2.529811
1749.000000;2.596361
1748.000000;2.774893
1747.000000;2.901559
1746.000000;2.715163
1745.000000;2.577409
1744.000000;2.538005
1743.000000;2.575642
1742.000000;2.688130
1741.000000;2.863749
1740.000000;2.903511
1739.000000;2.843986
1738.000000;2.907514
1737.000000;3.202162
1736.000000;3.206949
1735.000000;2.880917
1734.000000;2.833769
1733.000000;2.953068
1732.000000;3.144843
1731.000000;3.110822
1730.000000;3.038216
1729.000000;3.215387
1728.000000;3.182573
1727.000000;2.877727
1726.000000;2.784179
1725.000000;2.905415
1724.000000;2.962252
1723.000000;2.707614
1722.000000;2.592217
1721.000000;2.578134
1720.000000;2.585402
1719.000000;2.576414
1718.000000;2.586285
1717.000000;2.640840
1716.000000;2.677154
1715.000000;2.648169
1714.000000;2.661819
1713.000000;2.771653
1712.000000;2.940243
1711.000000;3.134216
1710.000000;3.401105
1709.000000;3.897882
1708.000000;3.627201
1707.000000;3.272978
1706.000000;3.436211
1705.000000;3.282169
1704.000000;2.970010
1703.000000;2.882685
1702.000000;2.875505
1701.000000;2.820606
1700.000000;2.786368
1699.000000;2.790051
1698.000000;2.749331
1697.000000;2.720484
1696.000000;2.768619
1695.000000;2.922203
1694.000000;3.047903
1693.000000;2.853637
1692.000000;2.693123
1691.000000;2.634111
1690.000000;2.644945
1689.000000;2.682983
1688.000000;2.750680
1687.000000;2.797081
1686.000000;2.706293
1685.000000;2.615519
1684.000000;2.617888
1683.000000;2.699100
1682.000000;2.823815
1681.000000;2.772993
1680.000000;2.622595
1679.000000;2.577651
1678.000000;2.622199
1677.000000;2.706795
1676.000000;2.790795
1675.000000;2.919099
1674.000000;2.888838
1673.000000;2.700107
1672.000000;2.564896
1671.000000;2.490016
1670.000000;2.479915
1669.000000;2.560476
1668.000000;2.758168
1667.000000;2.939954
1666.000000;2.818198
1665.000000;2.694099
1664.000000;2.606613
1663.000000;2.552963
1662.000000;2.553583
1661.000000;2.628560
1660.000000;2.795393
1659.000000;2.970556
1658.000000;2.904517
1657.000000;2.788567
1656.000000;2.777087
1655.000000;2.878777
1654.000000;3.129813
1653.000000;3.205305
1652.000000;3.088953
1651.000000;3.066094
1650.000000;3.088673
1649.000000;3.136814
1648.000000;3.235854
1647.000000;3.409507
1646.000000;3.181049
1645.000000;2.996294
1644.000000;3.009807
1643.000000;3.257064
1642.000000;3.132429
1641.000000;2.882608
1640.000000;2.832050
1639.000000;2.938638
1638.000000;3.292211
1637.000000;3.605138
1636.000000;3.065710
1635.000000;2.943306
1634.000000;2.896395
1633.000000;2.889444
1632.000000;2.901522
1631.000000;2.974098
1630.000000;3.173281
1629.000000;3.335645
1628.000000;3.078086
1627.000000;2.950487
1626.000000;2.962474
1625.000000;3.424954
1624.000000;3.442367
1623.000000;3.020047
1622.000000;3.007515
1621.000000;3.181089
1620.000000;3.393482
1619.000000;3.407033
1618.000000;3.525548
1617.000000;3.133524
1616.000000;2.898531
1615.000000;2.846845
1614.000000;2.955570
1613.000000;3.007623
1612.000000;2.776064
1611.000000;2.662202
1610.000000;2.681239
1609.000000;2.919955
1608.000000;3.528678
1607.000000;3.043233
1606.000000;2.863856
1605.000000;2.825080
1604.000000;2.786409
1603.000000;2.760539
1602.000000;2.813677
1601.000000;3.029594
1600.000000;3.216779
1599.000000;3.029770
1598.000000;2.944847
1597.000000;3.005096
1596.000000;3.176999
1595.000000;3.537956
1594.000000;3.304433
1593.000000;3.019242
1592.000000;2.911464
1591.000000;2.930765
1590.000000;3.071312
1589.000000;3.141328
1588.000000;3.049154
1587.000000;2.980170
1586.000000;2.960312
1585.000000;2.933685
1584.000000;2.789480
1583.000000;2.641977
1582.000000;2.594909
1581.000000;2.659922
1580.000000;2.814327
1579.000000;2.948263
1578.000000;2.954334
1577.000000;2.976419
1576.000000;3.074291
1575.000000;3.392091
1574.000000;3.334140
1573.000000;2.921743
1572.000000;2.749126
1571.000000;2.678350
1570.000000;2.676387
1569.000000;2.697975
1568.000000;2.737290
1567.000000;2.788137
1566.000000;2.801783
1565.000000;2.746623
1564.000000;2.620685
1563.000000;2.487908
1562.000000;2.413589
1561.000000;2.406065
1560.000000;2.423678
1559.000000;2.415096
1558.000000;2.420892
1557.000000;2.491383
1556.000000;2.618221
1555.000000;2.661728
1554.000000;2.597663
1553.000000;2.585487
1552.000000;2.637927
1551.000000;2.699144
1550.000000;2.742036
1549.000000;2.856427
1548.000000;3.088955
1547.000000;3.303361
1546.000000;3.197481
1545.000000;2.991130
1544.000000;2.893090
1543.000000;2.928068
1542.000000;3.103165
1541.000000;3.301176
1540.000000;3.169294
1539.000000;2.976173
1538.000000;2.837360
1537.000000;2.745451
1536.000000;2.718566
1535.000000;2.786665
1534.000000;2.909528
1533.000000;2.806798
1532.000000;2.698284
1531.000000;2.692404
1530.000000;2.720906
1529.000000;2.741651
1528.000000;2.795945
1527.000000;2.903065
1526.000000;3.001339
1525.000000;3.021760
1524.000000;2.890036
1523.000000;2.721368
1522.000000;2.615900
1521.000000;2.584037
1520.000000;2.647998
1519.000000;2.812910
1518.000000;3.154282
1517.000000;3.599932
1516.000000;3.038931
1515.000000;2.780533
1514.000000;2.753976
1513.000000;3.026886
1512.000000;3.134471
1511.000000;2.623575
1510.000000;2.365304
1509.000000;2.248759
1508.000000;2.270909
1507.000000;2.437699
1506.000000;2.569548
1505.000000;2.589698
1504.000000;2.631720
1503.000000;2.676877
1502.000000;2.666304
1501.000000;2.638924
1500.000000;2.678281
1499.000000;2.879658
1498.000000;3.134814
1497.000000;2.903523
1496.000000;2.768190
1495.000000;2.802077
1494.000000;2.960488
1493.000000;3.385710
1492.000000;3.728362
1491.000000;3.890869
1490.000000;3.653246
1489.000000;3.147402
1488.000000;3.009306
1487.000000;2.928202
1486.000000;2.854335
1485.000000;2.797542
1484.000000;2.824810
1483.000000;2.964563
1482.000000;3.202312
1481.000000;3.438960
1480.000000;3.451596
1479.000000;3.449567
1478.000000;4.390142
1477.000000;3.123933
1476.000000;2.817515
1475.000000;2.689133
1474.000000;2.661385
1473.000000;2.689350
1472.000000;2.810743
1471.000000;3.016132
1470.000000;2.991854
1469.000000;2.895092
1468.000000;2.956138
1467.000000;3.176421
1466.000000;3.295015
1465.000000;3.469981
1464.000000;3.502317
1463.000000;2.977985
1462.000000;2.746570
1461.000000;2.670096
1460.000000;2.700518
1459.000000;2.908057
1458.000000;3.149753
1457.000000;2.707648
1456.000000;2.520637
1455.000000;2.479936
1454.000000;2.465521
1453.000000;2.429980
1452.000000;2.411813
1451.000000;2.543776
1450.000000;3.028548
1449.000000;2.425428
1448.000000;2.208909
1447.000000;2.225825
1446.000000;2.468282
1445.000000;2.734654
1444.000000;2.651343
1443.000000;2.736652
1442.000000;2.769576
1441.000000;2.568744
1440.000000;2.444605
1439.000000;2.413437
1438.000000;2.502375
1437.000000;2.649231
1436.000000;2.522166
1435.000000;2.465147
1434.000000;2.589501
1433.000000;2.770995
1432.000000;2.781801
1431.000000;2.718324
1430.000000;2.756416
1429.000000;2.920738
1428.000000;3.184777
1427.000000;3.050614
1426.000000;2.926582
1425.000000;2.972991
1424.000000;3.255874
1423.000000;3.625234
1422.000000;3.041188
1421.000000;2.852853
1420.000000;2.849188
1419.000000;3.109694
1418.000000;3.029099
1417.000000;2.812328
1416.000000;3.108858
1415.000000;3.506666
1414.000000;3.018163
1413.000000;2.902827
1412.000000;3.215761
1411.000000;3.336713
1410.000000;2.868035
1409.000000;2.780608
1408.000000;2.887168
1407.000000;2.980903
1406.000000;2.797662
1405.000000;2.670927
1404.000000;2.681362
1403.000000;2.830677
1402.000000;3.024080
1401.000000;2.778573
1400.000000;2.630090
1399.000000;2.685598
1398.000000;2.982326
1397.000000;3.090294
1396.000000;2.877657
1395.000000;2.923332
1394.000000;3.259392
1393.000000;4.252562
1392.000000;3.516414
1391.000000;2.937342
1390.000000;2.614759
1389.000000;2.481712
1388.000000;2.502284
1387.000000;2.751895
1386.000000;2.875279
1385.000000;2.655736
1384.000000;2.585848
1383.000000;2.593368
1382.000000;2.622724
1381.000000;2.647808
1380.000000;2.720098
1379.000000;3.029919
1378.000000;3.320339
1377.000000;2.828994
1376.000000;2.657269
1375.000000;2.659369
1374.000000;2.771478
1373.000000;2.924868
1372.000000;2.964751
1371.000000;2.994769
1370.000000;3.151197
1369.000000;3.483978
1368.000000;3.263205
1367.000000;3.084346
1366.000000;3.046836
1365.000000;3.010304
1364.000000;2.956051
1363.000000;3.194349
1362.000000;3.422322
1361.000000;2.901485
1360.000000;2.836009
1359.000000;2.933277
1358.000000;3.479953
1357.000000;3.530137
1356.000000;3.127189
1355.000000;3.153447
1354.000000;3.050956
1353.000000;2.874587
1352.000000;2.779903
1351.000000;2.824209
1350.000000;2.992793
1349.000000;3.649956
1348.000000;3.325599
1347.000000;3.060823
1346.000000;3.126299
1345.000000;3.457823
1344.000000;3.088017
1343.000000;2.970907
1342.000000;3.202966
1341.000000;3.138961
1340.000000;2.663498
1339.000000;2.550779
1338.000000;2.601797
1337.000000;2.839325
1336.000000;3.267347
1335.000000;3.220015
1334.000000;3.175996
1333.000000;3.533844
1332.000000;3.057807
1331.000000;2.718425
1330.000000;2.624458
1329.000000;2.655790
1328.000000;2.888043
1327.000000;2.868068
1326.000000;2.634918
1325.000000;2.567256
1324.000000;2.618635
1323.000000;2.631724
1322.000000;2.493596
1321.000000;2.413989
1320.000000;2.478031
1319.000000;2.748791
1318.000000;2.816075
1317.000000;2.557896
1316.000000;2.493156
1315.000000;2.546521
1314.000000;2.723249
1313.000000;3.025787
1312.000000;2.899702
1311.000000;2.683349
1310.000000;2.649058
1309.000000;2.734167
1308.000000;2.913787
1307.000000;2.944070
1306.000000;2.835499
1305.000000;2.927698
1304.000000;3.011589
1303.000000;2.758076
1302.000000;2.650841
1301.000000;2.749239
1300.000000;3.204541
1299.000000;3.456956
1298.000000;3.303276
1297.000000;3.556400
1296.000000;3.093805
1295.000000;2.922477
1294.000000;3.105747
1293.000000;3.155564
1292.000000;2.741132
1291.000000;2.628338
1290.000000;2.709292
1289.000000;2.836291
1288.000000;2.668135
1287.000000;2.551604
1286.000000;2.598913
1285.000000;2.760871
1284.000000;2.684559
1283.000000;2.548108
1282.000000;2.579731
1281.000000;2.803415
1280.000000;3.120620
1279.000000;2.957652
1278.000000;2.827678
1277.000000;2.867711
1276.000000;2.967770
1275.000000;2.985173
1274.000000;3.130156
1273.000000;3.506331
1272.000000;2.980161
1271.000000;2.785844
1270.000000;2.861442
1269.000000;3.215865
1268.000000;3.355965
1267.000000;3.093553
1266.000000;3.078224
1265.000000;3.178592
1264.000000;3.018490
1263.000000;2.857736
1262.000000;2.895156
1261.000000;3.156836
1260.000000;3.062714
1259.000000;2.825116
1258.000000;2.788084
1257.000000;2.873703
1256.000000;2.955914
1255.000000;2.824551
1254.000000;2.709320
1253.000000;2.699387
1252.000000;2.760288
1251.000000;2.801036
1250.000000;2.750024
1249.000000;2.693516
1248.000000;2.669412
1247.000000;2.614752
1246.000000;2.583341
1245.000000;2.653392
1244.000000;2.994010
1243.000000;3.254478
1242.000000;2.821649
1241.000000;2.704848
1240.000000;2.785365
1239.000000;3.055484
1238.000000;3.538478
1237.000000;3.158909
1236.000000;3.069272
1235.000000;3.201600
1234.000000;3.514130
1233.000000;3.424186
1232.000000;3.478163
1231.000000;3.869677
1230.000000;3.351170
1229.000000;3.049597
1228.000000;2.976608
1227.000000;3.129109
1226.000000;3.599148
1225.000000;3.333243
1224.000000;3.093682
1223.000000;3.315508
1222.000000;3.561476
1221.000000;3.209541
1220.000000;3.049449
1219.000000;3.014631
1218.000000;2.996615
1217.000000;3.060579
1216.000000;3.096154
1215.000000;3.020829
1214.000000;3.069052
1213.000000;3.351426
1212.000000;3.243211
1211.000000;3.166810
1210.000000;3.475426
1209.000000;3.537591
1208.000000;3.129613
1207.000000;3.182568
1206.000000;3.251841
1205.000000;2.855735
1204.000000;2.691455
1203.000000;2.694781
1202.000000;2.852785
1201.000000;3.269612
1200.000000;3.153413
