Criado como novo conjunto de dados;"0307_DANIEL.spp","49504.4 Secs"
cm-1;Abs
10000.000000;0.624954
9999.000000;0.623622
9998.000000;0.622314
9997.000000;0.621184
9996.000000;0.620267
9995.000000;0.619435
9994.000000;0.618515
9993.000000;0.617415
9992.000000;0.616220
9991.000000;0.615085
9990.000000;0.614061
9989.000000;0.613054
9988.000000;0.612001
9987.000000;0.610977
9986.000000;0.610080
9985.000000;0.609248
9984.000000;0.608274
9983.000000;0.607012
9982.000000;0.605539
9981.000000;0.604097
9980.000000;0.602895
9979.000000;0.601954
9978.000000;0.601101
9977.000000;0.600093
9976.000000;0.598772
9975.000000;0.597159
9974.000000;0.595454
9973.000000;0.593911
9972.000000;0.592683
9971.000000;0.591736
9970.000000;0.590934
9969.000000;0.590173
9968.000000;0.589402
9967.000000;0.588547
9966.000000;0.587519
9965.000000;0.586340
9964.000000;0.585147
9963.000000;0.584001
9962.000000;0.582777
9961.000000;0.581342
9960.000000;0.579798
9959.000000;0.578400
9958.000000;0.577246
9957.000000;0.576181
9956.000000;0.575025
9955.000000;0.573799
9954.000000;0.572683
9953.000000;0.571796
9952.000000;0.571048
9951.000000;0.570174
9950.000000;0.568928
9949.000000;0.567317
9948.000000;0.565638
9947.000000;0.564232
9946.000000;0.563201
9945.000000;0.562397
9944.000000;0.561627
9943.000000;0.560752
9942.000000;0.559636
9941.000000;0.558177
9940.000000;0.556476
9939.000000;0.554839
9938.000000;0.553518
9937.000000;0.552485
9936.000000;0.551512
9935.000000;0.550417
9934.000000;0.549163
9933.000000;0.547786
9932.000000;0.546332
9931.000000;0.544864
9930.000000;0.543483
9929.000000;0.542289
9928.000000;0.541305
9927.000000;0.540413
9926.000000;0.539403
9925.000000;0.538149
9924.000000;0.536736
9923.000000;0.535344
9922.000000;0.534033
9921.000000;0.532730
9920.000000;0.531417
9919.000000;0.530196
9918.000000;0.529113
9917.000000;0.528060
9916.000000;0.526948
9915.000000;0.525867
9914.000000;0.524938
9913.000000;0.524063
9912.000000;0.522978
9911.000000;0.521551
9910.000000;0.519908
9909.000000;0.518257
9908.000000;0.516687
9907.000000;0.515175
9906.000000;0.513707
9905.000000;0.512308
9904.000000;0.510992
9903.000000;0.509742
9902.000000;0.508541
9901.000000;0.507410
9900.000000;0.506377
9899.000000;0.505418
9898.000000;0.504428
9897.000000;0.503300
9896.000000;0.502022
9895.000000;0.500673
9894.000000;0.499296
9893.000000;0.497834
9892.000000;0.496219
9891.000000;0.494507
9890.000000;0.492871
9889.000000;0.491469
9888.000000;0.490339
9887.000000;0.489371
9886.000000;0.488364
9885.000000;0.487156
9884.000000;0.485755
9883.000000;0.484347
9882.000000;0.483113
9881.000000;0.482057
9880.000000;0.481016
9879.000000;0.479822
9878.000000;0.478408
9877.000000;0.476816
9876.000000;0.475171
9875.000000;0.473621
9874.000000;0.472220
9873.000000;0.470869
9872.000000;0.469423
9871.000000;0.467875
9870.000000;0.466353
9869.000000;0.464948
9868.000000;0.463626
9867.000000;0.462348
9866.000000;0.461159
9865.000000;0.460099
9864.000000;0.459073
9863.000000;0.457916
9862.000000;0.456553
9861.000000;0.455046
9860.000000;0.453486
9859.000000;0.451937
9858.000000;0.450466
9857.000000;0.449147
9856.000000;0.447976
9855.000000;0.446842
9854.000000;0.445607
9853.000000;0.444200
9852.000000;0.442618
9851.000000;0.440902
9850.000000;0.439143
9849.000000;0.437478
9848.000000;0.436008
9847.000000;0.434730
9846.000000;0.433586
9845.000000;0.432540
9844.000000;0.431557
9843.000000;0.430516
9842.000000;0.429238
9841.000000;0.427621
9840.000000;0.425735
9839.000000;0.423779
9838.000000;0.421964
9837.000000;0.420423
9836.000000;0.419149
9835.000000;0.418004
9834.000000;0.416826
9833.000000;0.415540
9832.000000;0.414150
9831.000000;0.412660
9830.000000;0.411085
9829.000000;0.409516
9828.000000;0.408091
9827.000000;0.406848
9826.000000;0.405670
9825.000000;0.404401
9824.000000;0.402945
9823.000000;0.401281
9822.000000;0.399474
9821.000000;0.397709
9820.000000;0.396169
9819.000000;0.394828
9818.000000;0.393450
9817.000000;0.391876
9816.000000;0.390223
9815.000000;0.388715
9814.000000;0.387417
9813.000000;0.386228
9812.000000;0.385028
9811.000000;0.383703
9810.000000;0.382121
9809.000000;0.380278
9808.000000;0.378414
9807.000000;0.376805
9806.000000;0.375454
9805.000000;0.374126
9804.000000;0.372690
9803.000000;0.371236
9802.000000;0.369845
9801.000000;0.368415
9800.000000;0.366812
9799.000000;0.365052
9798.000000;0.363261
9797.000000;0.361551
9796.000000;0.360010
9795.000000;0.358689
9794.000000;0.357502
9793.000000;0.356249
9792.000000;0.354810
9791.000000;0.353264
9790.000000;0.351728
9789.000000;0.350167
9788.000000;0.348466
9787.000000;0.346646
9786.000000;0.344887
9785.000000;0.343347
9784.000000;0.342020
9783.000000;0.340756
9782.000000;0.339351
9781.000000;0.337664
9780.000000;0.335734
9779.000000;0.333778
9778.000000;0.332000
9777.000000;0.330398
9776.000000;0.328828
9775.000000;0.327212
9774.000000;0.325605
9773.000000;0.324028
9772.000000;0.322365
9771.000000;0.320502
9770.000000;0.318518
9769.000000;0.316636
9768.000000;0.314989
9767.000000;0.313496
9766.000000;0.312023
9765.000000;0.310566
9764.000000;0.309196
9763.000000;0.307867
9762.000000;0.306418
9761.000000;0.304781
9760.000000;0.303093
9759.000000;0.301492
9758.000000;0.299919
9757.000000;0.298219
9756.000000;0.296399
9755.000000;0.294638
9754.000000;0.293031
9753.000000;0.291450
9752.000000;0.289715
9751.000000;0.287822
9750.000000;0.285947
9749.000000;0.284251
9748.000000;0.282736
9747.000000;0.281230
9746.000000;0.279523
9745.000000;0.277552
9744.000000;0.275481
9743.000000;0.273556
9742.000000;0.271881
9741.000000;0.270361
9740.000000;0.268859
9739.000000;0.267330
9738.000000;0.265749
9737.000000;0.264035
9736.000000;0.262103
9735.000000;0.260009
9734.000000;0.257951
9733.000000;0.256122
9732.000000;0.254565
9731.000000;0.253147
9730.000000;0.251665
9729.000000;0.249992
9728.000000;0.248168
9727.000000;0.246338
9726.000000;0.244614
9725.000000;0.242997
9724.000000;0.241395
9723.000000;0.239693
9722.000000;0.237819
9721.000000;0.235805
9720.000000;0.233778
9719.000000;0.231834
9718.000000;0.229952
9717.000000;0.228059
9716.000000;0.226157
9715.000000;0.224308
9714.000000;0.222523
9713.000000;0.220757
9712.000000;0.219010
9711.000000;0.217316
9710.000000;0.215623
9709.000000;0.213793
9708.000000;0.211775
9707.000000;0.209693
9706.000000;0.207718
9705.000000;0.205901
9704.000000;0.204182
9703.000000;0.202475
9702.000000;0.200713
9701.000000;0.198872
9700.000000;0.197019
9699.000000;0.195283
9698.000000;0.193702
9697.000000;0.192155
9696.000000;0.190469
9695.000000;0.188576
9694.000000;0.186527
9693.000000;0.184396
9692.000000;0.182207
9691.000000;0.179950
9690.000000;0.177632
9689.000000;0.175369
9688.000000;0.173391
9687.000000;0.171855
9686.000000;0.170603
9685.000000;0.169204
9684.000000;0.167334
9683.000000;0.165054
9682.000000;0.162686
9681.000000;0.160481
9680.000000;0.158481
9679.000000;0.156606
9678.000000;0.154753
9677.000000;0.152822
9676.000000;0.150761
9675.000000;0.148625
9674.000000;0.146544
9673.000000;0.144610
9672.000000;0.142797
9671.000000;0.140987
9670.000000;0.139068
9669.000000;0.137046
9668.000000;0.135066
9667.000000;0.133267
9666.000000;0.131592
9665.000000;0.129813
9664.000000;0.127764
9663.000000;0.125498
9662.000000;0.123171
9661.000000;0.120870
9660.000000;0.118622
9659.000000;0.116485
9658.000000;0.114516
9657.000000;0.112677
9656.000000;0.110846
9655.000000;0.108919
9654.000000;0.106860
9653.000000;0.104701
9652.000000;0.102534
9651.000000;0.100446
9650.000000;0.098420
9649.000000;0.096348
9648.000000;0.094218
9647.000000;0.092166
9646.000000;0.090259
9645.000000;0.088325
9644.000000;0.086145
9643.000000;0.083769
9642.000000;0.081460
9641.000000;0.079347
9640.000000;0.077312
9639.000000;0.075241
9638.000000;0.073193
9637.000000;0.071230
9636.000000;0.069253
9635.000000;0.067134
9634.000000;0.064929
9633.000000;0.062831
9632.000000;0.060930
9631.000000;0.059113
9630.000000;0.057164
9629.000000;0.054937
9628.000000;0.052439
9627.000000;0.049853
9626.000000;0.047438
9625.000000;0.045329
9624.000000;0.043429
9623.000000;0.041529
9622.000000;0.039520
9621.000000;0.037442
9620.000000;0.035334
9619.000000;0.033137
9618.000000;0.030770
9617.000000;0.028261
9616.000000;0.025754
9615.000000;0.023388
9614.000000;0.021203
9613.000000;0.019121
9612.000000;0.017007
9611.000000;0.014750
9610.000000;0.012351
9609.000000;0.009955
9608.000000;0.007758
9607.000000;0.005838
9606.000000;0.004071
9605.000000;0.002214
9604.000000;0.000080
9603.000000;-0.002377
9602.000000;-0.005069
9601.000000;-0.007824
9600.000000;-0.010442
9599.000000;-0.012797
9598.000000;-0.014935
9597.000000;-0.017032
9596.000000;-0.019222
9595.000000;-0.021496
9594.000000;-0.023780
9593.000000;-0.026060
9592.000000;-0.028361
9591.000000;-0.030644
9590.000000;-0.032828
9589.000000;-0.034895
9588.000000;-0.036926
9587.000000;-0.039010
9586.000000;-0.041157
9585.000000;-0.043321
9584.000000;-0.045462
9583.000000;-0.047587
9582.000000;-0.049743
9581.000000;-0.051984
9580.000000;-0.054307
9579.000000;-0.056628
9578.000000;-0.058875
9577.000000;-0.061089
9576.000000;-0.063360
9575.000000;-0.065674
9574.000000;-0.067909
9573.000000;-0.070027
9572.000000;-0.072170
9571.000000;-0.074485
9570.000000;-0.076920
9569.000000;-0.079307
9568.000000;-0.081609
9567.000000;-0.083940
9566.000000;-0.086356
9565.000000;-0.088735
9564.000000;-0.090946
9563.000000;-0.093042
9562.000000;-0.095199
9561.000000;-0.097520
9560.000000;-0.099965
9559.000000;-0.102433
9558.000000;-0.104830
9557.000000;-0.107080
9556.000000;-0.109176
9555.000000;-0.111233
9554.000000;-0.113413
9553.000000;-0.115755
9552.000000;-0.118122
9551.000000;-0.120358
9550.000000;-0.122440
9549.000000;-0.124464
9548.000000;-0.126517
9547.000000;-0.128631
9546.000000;-0.130806
9545.000000;-0.133035
9544.000000;-0.135293
9543.000000;-0.137543
9542.000000;-0.139764
9541.000000;-0.141953
9540.000000;-0.144117
9539.000000;-0.146269
9538.000000;-0.148432
9537.000000;-0.150634
9536.000000;-0.152888
9535.000000;-0.155185
9534.000000;-0.157470
9533.000000;-0.159645
9532.000000;-0.161642
9531.000000;-0.163517
9530.000000;-0.165416
9529.000000;-0.167413
9528.000000;-0.169438
9527.000000;-0.171395
9526.000000;-0.173297
9525.000000;-0.175206
9524.000000;-0.177119
9523.000000;-0.179001
9522.000000;-0.180900
9521.000000;-0.182912
9520.000000;-0.185021
9519.000000;-0.187088
9518.000000;-0.189015
9517.000000;-0.190831
9516.000000;-0.192593
9515.000000;-0.194305
9514.000000;-0.195977
9513.000000;-0.197676
9512.000000;-0.199440
9511.000000;-0.201210
9510.000000;-0.202907
9509.000000;-0.204551
9508.000000;-0.206209
9507.000000;-0.207902
9506.000000;-0.209628
9505.000000;-0.211437
9504.000000;-0.213376
9503.000000;-0.215358
9502.000000;-0.217187
9501.000000;-0.218766
9500.000000;-0.220223
9499.000000;-0.221783
9498.000000;-0.223527
9497.000000;-0.225318
9496.000000;-0.226967
9495.000000;-0.228454
9494.000000;-0.229938
9493.000000;-0.231558
9492.000000;-0.233234
9491.000000;-0.234733
9490.000000;-0.235928
9489.000000;-0.236934
9488.000000;-0.237936
9487.000000;-0.238985
9486.000000;-0.240017
9485.000000;-0.241031
9484.000000;-0.242117
9483.000000;-0.243327
9482.000000;-0.244609
9481.000000;-0.245884
9480.000000;-0.247098
9479.000000;-0.248185
9478.000000;-0.249074
9477.000000;-0.249812
9476.000000;-0.250584
9475.000000;-0.251529
9474.000000;-0.252574
9473.000000;-0.253523
9472.000000;-0.254309
9471.000000;-0.255057
9470.000000;-0.255913
9469.000000;-0.256881
9468.000000;-0.257875
9467.000000;-0.258846
9466.000000;-0.259781
9465.000000;-0.260615
9464.000000;-0.261240
9463.000000;-0.261637
9462.000000;-0.261961
9461.000000;-0.262416
9460.000000;-0.263055
9459.000000;-0.263723
9458.000000;-0.264248
9457.000000;-0.264650
9456.000000;-0.265132
9455.000000;-0.265853
9454.000000;-0.266725
9453.000000;-0.267450
9452.000000;-0.267766
9451.000000;-0.267679
9450.000000;-0.267458
9449.000000;-0.267385
9448.000000;-0.267496
9447.000000;-0.267593
9446.000000;-0.267513
9445.000000;-0.267329
9444.000000;-0.267232
9443.000000;-0.267291
9442.000000;-0.267418
9441.000000;-0.267534
9440.000000;-0.267669
9439.000000;-0.267847
9438.000000;-0.267983
9437.000000;-0.267964
9436.000000;-0.267776
9435.000000;-0.267499
9434.000000;-0.267205
9433.000000;-0.266936
9432.000000;-0.266724
9431.000000;-0.266569
9430.000000;-0.266392
9429.000000;-0.266081
9428.000000;-0.265605
9427.000000;-0.265061
9426.000000;-0.264569
9425.000000;-0.264172
9424.000000;-0.263838
9423.000000;-0.263516
9422.000000;-0.263163
9421.000000;-0.262713
9420.000000;-0.262079
9419.000000;-0.261204
9418.000000;-0.260178
9417.000000;-0.259251
9416.000000;-0.258678
9415.000000;-0.258474
9414.000000;-0.258356
9413.000000;-0.257994
9412.000000;-0.257296
9411.000000;-0.256428
9410.000000;-0.255567
9409.000000;-0.254740
9408.000000;-0.253913
9407.000000;-0.253141
9406.000000;-0.252509
9405.000000;-0.251972
9404.000000;-0.251347
9403.000000;-0.250515
9402.000000;-0.249551
9401.000000;-0.248620
9400.000000;-0.247777
9399.000000;-0.246941
9398.000000;-0.246025
9397.000000;-0.245045
9396.000000;-0.244069
9395.000000;-0.243137
9394.000000;-0.242238
9393.000000;-0.241343
9392.000000;-0.240404
9391.000000;-0.239371
9390.000000;-0.238247
9389.000000;-0.237129
9388.000000;-0.236114
9387.000000;-0.235170
9386.000000;-0.234139
9385.000000;-0.232902
9384.000000;-0.231505
9383.000000;-0.230119
9382.000000;-0.228892
9381.000000;-0.227857
9380.000000;-0.226938
9379.000000;-0.226006
9378.000000;-0.224940
9377.000000;-0.223682
9376.000000;-0.222287
9375.000000;-0.220919
9374.000000;-0.219755
9373.000000;-0.218849
9372.000000;-0.218059
9371.000000;-0.217140
9370.000000;-0.215951
9369.000000;-0.214584
9368.000000;-0.213249
9367.000000;-0.212058
9366.000000;-0.210948
9365.000000;-0.209806
9364.000000;-0.208601
9363.000000;-0.207364
9362.000000;-0.206125
9361.000000;-0.204928
9360.000000;-0.203845
9359.000000;-0.202887
9358.000000;-0.201911
9357.000000;-0.200708
9356.000000;-0.199215
9355.000000;-0.197588
9354.000000;-0.196050
9353.000000;-0.194735
9352.000000;-0.193649
9351.000000;-0.192717
9350.000000;-0.191811
9349.000000;-0.190789
9348.000000;-0.189594
9347.000000;-0.188286
9346.000000;-0.186947
9345.000000;-0.185581
9344.000000;-0.184155
9343.000000;-0.182713
9342.000000;-0.181348
9341.000000;-0.180079
9340.000000;-0.178831
9339.000000;-0.177554
9338.000000;-0.176288
9337.000000;-0.175094
9336.000000;-0.173980
9335.000000;-0.172935
9334.000000;-0.171960
9333.000000;-0.170984
9332.000000;-0.169851
9331.000000;-0.168471
9330.000000;-0.166972
9329.000000;-0.165592
9328.000000;-0.164419
9327.000000;-0.163320
9326.000000;-0.162137
9325.000000;-0.160862
9324.000000;-0.159568
9323.000000;-0.158290
9322.000000;-0.157032
9321.000000;-0.155840
9320.000000;-0.154777
9319.000000;-0.153816
9318.000000;-0.152838
9317.000000;-0.151725
9316.000000;-0.150434
9315.000000;-0.149012
9314.000000;-0.147579
9313.000000;-0.146288
9312.000000;-0.145227
9311.000000;-0.144312
9310.000000;-0.143338
9309.000000;-0.142155
9308.000000;-0.140799
9307.000000;-0.139435
9306.000000;-0.138186
9305.000000;-0.137015
9304.000000;-0.135784
9303.000000;-0.134399
9302.000000;-0.132934
9301.000000;-0.131584
9300.000000;-0.130487
9299.000000;-0.129592
9298.000000;-0.128696
9297.000000;-0.127633
9296.000000;-0.126399
9295.000000;-0.125128
9294.000000;-0.123946
9293.000000;-0.122865
9292.000000;-0.121792
9291.000000;-0.120620
9290.000000;-0.119342
9289.000000;-0.118054
9288.000000;-0.116856
9287.000000;-0.115754
9286.000000;-0.114660
9285.000000;-0.113506
9284.000000;-0.112322
9283.000000;-0.111192
9282.000000;-0.110149
9281.000000;-0.109134
9280.000000;-0.108081
9279.000000;-0.107003
9278.000000;-0.105974
9277.000000;-0.105031
9276.000000;-0.104113
9275.000000;-0.103124
9274.000000;-0.102032
9273.000000;-0.100877
9272.000000;-0.099710
9271.000000;-0.098566
9270.000000;-0.097477
9269.000000;-0.096463
9268.000000;-0.095493
9267.000000;-0.094489
9266.000000;-0.093416
9265.000000;-0.092340
9264.000000;-0.091364
9263.000000;-0.090498
9262.000000;-0.089623
9261.000000;-0.088599
9260.000000;-0.087412
9259.000000;-0.086217
9258.000000;-0.085220
9257.000000;-0.084473
9256.000000;-0.083797
9255.000000;-0.082940
9254.000000;-0.081823
9253.000000;-0.080606
9252.000000;-0.079505
9251.000000;-0.078584
9250.000000;-0.077758
9249.000000;-0.076928
9248.000000;-0.076061
9247.000000;-0.075143
9246.000000;-0.074151
9245.000000;-0.073092
9244.000000;-0.072036
9243.000000;-0.071063
9242.000000;-0.070188
9241.000000;-0.069344
9240.000000;-0.068439
9239.000000;-0.067424
9238.000000;-0.066322
9237.000000;-0.065208
9236.000000;-0.064172
9235.000000;-0.063268
9234.000000;-0.062496
9233.000000;-0.061798
9232.000000;-0.061083
9231.000000;-0.060276
9230.000000;-0.059368
9229.000000;-0.058408
9228.000000;-0.057459
9227.000000;-0.056561
9226.000000;-0.055736
9225.000000;-0.054981
9224.000000;-0.054239
9223.000000;-0.053410
9222.000000;-0.052449
9221.000000;-0.051425
9220.000000;-0.050456
9219.000000;-0.049586
9218.000000;-0.048752
9217.000000;-0.047875
9216.000000;-0.046949
9215.000000;-0.046038
9214.000000;-0.045200
9213.000000;-0.044442
9212.000000;-0.043730
9211.000000;-0.043020
9210.000000;-0.042275
9209.000000;-0.041480
9208.000000;-0.040658
9207.000000;-0.039881
9206.000000;-0.039231
9205.000000;-0.038720
9204.000000;-0.038252
9203.000000;-0.037693
9202.000000;-0.036979
9201.000000;-0.036146
9200.000000;-0.035267
9199.000000;-0.034403
9198.000000;-0.033618
9197.000000;-0.032968
9196.000000;-0.032407
9195.000000;-0.031757
9194.000000;-0.030851
9193.000000;-0.029723
9192.000000;-0.028601
9191.000000;-0.027704
9190.000000;-0.027050
9189.000000;-0.026500
9188.000000;-0.025928
9187.000000;-0.025311
9186.000000;-0.024674
9185.000000;-0.024012
9184.000000;-0.023296
9183.000000;-0.022534
9182.000000;-0.021768
9181.000000;-0.021007
9180.000000;-0.020198
9179.000000;-0.019307
9178.000000;-0.018408
9177.000000;-0.017658
9176.000000;-0.017133
9175.000000;-0.016745
9174.000000;-0.016307
9173.000000;-0.015686
9172.000000;-0.014873
9171.000000;-0.013948
9170.000000;-0.013027
9169.000000;-0.012227
9168.000000;-0.011611
9167.000000;-0.011142
9166.000000;-0.010713
9165.000000;-0.010232
9164.000000;-0.009682
9163.000000;-0.009080
9162.000000;-0.008419
9161.000000;-0.007687
9160.000000;-0.006928
9159.000000;-0.006233
9158.000000;-0.005627
9157.000000;-0.005007
9156.000000;-0.004243
9155.000000;-0.003357
9154.000000;-0.002555
9153.000000;-0.002022
9152.000000;-0.001726
9151.000000;-0.001444
9150.000000;-0.000985
9149.000000;-0.000338
9148.000000;0.000380
9147.000000;0.001056
9146.000000;0.001645
9145.000000;0.002161
9144.000000;0.002667
9143.000000;0.003234
9142.000000;0.003872
9141.000000;0.004497
9140.000000;0.005012
9139.000000;0.005422
9138.000000;0.005838
9137.000000;0.006338
9136.000000;0.006873
9135.000000;0.007336
9134.000000;0.007708
9133.000000;0.008099
9132.000000;0.008626
9131.000000;0.009285
9130.000000;0.009974
9129.000000;0.010628
9128.000000;0.011275
9127.000000;0.011946
9126.000000;0.012585
9125.000000;0.013105
9124.000000;0.013506
9123.000000;0.013881
9122.000000;0.014317
9121.000000;0.014809
9120.000000;0.015293
9119.000000;0.015694
9118.000000;0.015973
9117.000000;0.016167
9116.000000;0.016413
9115.000000;0.016861
9114.000000;0.017540
9113.000000;0.018324
9112.000000;0.019072
9111.000000;0.019742
9110.000000;0.020356
9109.000000;0.020904
9108.000000;0.021365
9107.000000;0.021782
9106.000000;0.022224
9105.000000;0.022686
9104.000000;0.023084
9103.000000;0.023393
9102.000000;0.023701
9101.000000;0.024105
9100.000000;0.024591
9099.000000;0.025079
9098.000000;0.025532
9097.000000;0.025974
9096.000000;0.026412
9095.000000;0.026810
9094.000000;0.027150
9093.000000;0.027478
9092.000000;0.027844
9091.000000;0.028251
9090.000000;0.028693
9089.000000;0.029211
9088.000000;0.029829
9087.000000;0.030459
9086.000000;0.030923
9085.000000;0.031141
9084.000000;0.031243
9083.000000;0.031446
9082.000000;0.031838
9081.000000;0.032327
9080.000000;0.032766
9079.000000;0.033100
9078.000000;0.033376
9077.000000;0.033683
9076.000000;0.034084
9075.000000;0.034575
9074.000000;0.035075
9073.000000;0.035489
9072.000000;0.035787
9071.000000;0.036023
9070.000000;0.036273
9069.000000;0.036585
9068.000000;0.036974
9067.000000;0.037418
9066.000000;0.037845
9065.000000;0.038183
9064.000000;0.038444
9063.000000;0.038725
9062.000000;0.039101
9061.000000;0.039536
9060.000000;0.039942
9059.000000;0.040292
9058.000000;0.040631
9057.000000;0.041000
9056.000000;0.041401
9055.000000;0.041822
9054.000000;0.042250
9053.000000;0.042642
9052.000000;0.042930
9051.000000;0.043074
9050.000000;0.043100
9049.000000;0.043084
9048.000000;0.043114
9047.000000;0.043264
9046.000000;0.043573
9045.000000;0.044007
9044.000000;0.044465
9043.000000;0.044838
9042.000000;0.045091
9041.000000;0.045274
9040.000000;0.045472
9039.000000;0.045751
9038.000000;0.046139
9037.000000;0.046619
9036.000000;0.047122
9035.000000;0.047547
9034.000000;0.047827
9033.000000;0.047998
9032.000000;0.048166
9031.000000;0.048406
9030.000000;0.048699
9029.000000;0.048982
9028.000000;0.049240
9027.000000;0.049508
9026.000000;0.049816
9025.000000;0.050162
9024.000000;0.050519
9023.000000;0.050851
9022.000000;0.051126
9021.000000;0.051354
9020.000000;0.051585
9019.000000;0.051854
9018.000000;0.052119
9017.000000;0.052307
9016.000000;0.052414
9015.000000;0.052524
9014.000000;0.052707
9013.000000;0.052951
9012.000000;0.053206
9011.000000;0.053469
9010.000000;0.053777
9009.000000;0.054146
9008.000000;0.054535
9007.000000;0.054862
9006.000000;0.055063
9005.000000;0.055143
9004.000000;0.055179
9003.000000;0.055236
9002.000000;0.055298
9001.000000;0.055309
9000.000000;0.055303
8999.000000;0.055437
8998.000000;0.055830
8997.000000;0.056388
8996.000000;0.056849
8995.000000;0.057010
8994.000000;0.056908
8993.000000;0.056762
8992.000000;0.056773
8991.000000;0.056988
8990.000000;0.057337
8989.000000;0.057735
8988.000000;0.058133
8987.000000;0.058474
8986.000000;0.058675
8985.000000;0.058683
8984.000000;0.058554
8983.000000;0.058432
8982.000000;0.058452
8981.000000;0.058650
8980.000000;0.058958
8979.000000;0.059250
8978.000000;0.059423
8977.000000;0.059479
8976.000000;0.059539
8975.000000;0.059725
8974.000000;0.060035
8973.000000;0.060339
8972.000000;0.060537
8971.000000;0.060655
8970.000000;0.060793
8969.000000;0.060992
8968.000000;0.061217
8967.000000;0.061415
8966.000000;0.061578
8965.000000;0.061731
8964.000000;0.061881
8963.000000;0.062004
8962.000000;0.062080
8961.000000;0.062138
8960.000000;0.062245
8959.000000;0.062432
8958.000000;0.062648
8957.000000;0.062810
8956.000000;0.062893
8955.000000;0.062947
8954.000000;0.063025
8953.000000;0.063148
8952.000000;0.063308
8951.000000;0.063473
8950.000000;0.063586
8949.000000;0.063611
8948.000000;0.063594
8947.000000;0.063630
8946.000000;0.063768
8945.000000;0.063972
8944.000000;0.064178
8943.000000;0.064329
8942.000000;0.064363
8941.000000;0.064252
8940.000000;0.064076
8939.000000;0.064002
8938.000000;0.064131
8937.000000;0.064411
8936.000000;0.064743
8935.000000;0.065090
8934.000000;0.065423
8933.000000;0.065630
8932.000000;0.065588
8931.000000;0.065334
8930.000000;0.065079
8929.000000;0.065038
8928.000000;0.065276
8927.000000;0.065706
8926.000000;0.066163
8925.000000;0.066468
8924.000000;0.066507
8923.000000;0.066308
8922.000000;0.066043
8921.000000;0.065903
8920.000000;0.065969
8919.000000;0.066178
8918.000000;0.066403
8917.000000;0.066546
8916.000000;0.066595
8915.000000;0.066612
8914.000000;0.066662
8913.000000;0.066756
8912.000000;0.066838
8911.000000;0.066846
8910.000000;0.066777
8909.000000;0.066707
8908.000000;0.066726
8907.000000;0.066853
8906.000000;0.067002
8905.000000;0.067066
8904.000000;0.067022
8903.000000;0.066959
8902.000000;0.066985
8901.000000;0.067129
8900.000000;0.067329
8899.000000;0.067486
8898.000000;0.067525
8897.000000;0.067432
8896.000000;0.067260
8895.000000;0.067105
8894.000000;0.067058
8893.000000;0.067160
8892.000000;0.067386
8891.000000;0.067649
8890.000000;0.067844
8889.000000;0.067928
8888.000000;0.067961
8887.000000;0.068049
8886.000000;0.068227
8885.000000;0.068415
8884.000000;0.068508
8883.000000;0.068481
8882.000000;0.068413
8881.000000;0.068403
8880.000000;0.068472
8879.000000;0.068525
8878.000000;0.068450
8877.000000;0.068239
8876.000000;0.068001
8875.000000;0.067834
8874.000000;0.067734
8873.000000;0.067652
8872.000000;0.067614
8871.000000;0.067686
8870.000000;0.067878
8869.000000;0.068135
8868.000000;0.068414
8867.000000;0.068671
8866.000000;0.068779
8865.000000;0.068613
8864.000000;0.068234
8863.000000;0.067898
8862.000000;0.067807
8861.000000;0.067928
8860.000000;0.068114
8859.000000;0.068295
8858.000000;0.068451
8857.000000;0.068507
8856.000000;0.068395
8855.000000;0.068201
8854.000000;0.068125
8853.000000;0.068261
8852.000000;0.068503
8851.000000;0.068671
8850.000000;0.068673
8849.000000;0.068539
8848.000000;0.068360
8847.000000;0.068227
8846.000000;0.068178
8845.000000;0.068181
8844.000000;0.068188
8843.000000;0.068202
8842.000000;0.068253
8841.000000;0.068323
8840.000000;0.068337
8839.000000;0.068265
8838.000000;0.068175
8837.000000;0.068165
8836.000000;0.068257
8835.000000;0.068390
8834.000000;0.068487
8833.000000;0.068538
8832.000000;0.068594
8831.000000;0.068701
8830.000000;0.068843
8829.000000;0.068962
8828.000000;0.069030
8827.000000;0.069078
8826.000000;0.069143
8825.000000;0.069217
8824.000000;0.069271
8823.000000;0.069295
8822.000000;0.069284
8821.000000;0.069236
8820.000000;0.069182
8819.000000;0.069195
8818.000000;0.069309
8817.000000;0.069471
8816.000000;0.069615
8815.000000;0.069779
8814.000000;0.070050
8813.000000;0.070395
8812.000000;0.070625
8811.000000;0.070580
8810.000000;0.070316
8809.000000;0.070049
8808.000000;0.069937
8807.000000;0.069953
8806.000000;0.069969
8805.000000;0.069933
8804.000000;0.069916
8803.000000;0.069980
8802.000000;0.070062
8801.000000;0.070027
8800.000000;0.069848
8799.000000;0.069652
8798.000000;0.069575
8797.000000;0.069613
8796.000000;0.069680
8795.000000;0.069736
8794.000000;0.069816
8793.000000;0.069933
8792.000000;0.070042
8791.000000;0.070109
8790.000000;0.070160
8789.000000;0.070248
8788.000000;0.070389
8787.000000;0.070537
8786.000000;0.070624
8785.000000;0.070619
8784.000000;0.070563
8783.000000;0.070534
8782.000000;0.070572
8781.000000;0.070658
8780.000000;0.070780
8779.000000;0.070953
8778.000000;0.071146
8777.000000;0.071254
8776.000000;0.071216
8775.000000;0.071118
8774.000000;0.071115
8773.000000;0.071257
8772.000000;0.071459
8771.000000;0.071638
8770.000000;0.071784
8769.000000;0.071909
8768.000000;0.072005
8767.000000;0.072082
8766.000000;0.072165
8765.000000;0.072244
8764.000000;0.072276
8763.000000;0.072257
8762.000000;0.072244
8761.000000;0.072275
8760.000000;0.072320
8759.000000;0.072338
8758.000000;0.072330
8757.000000;0.072313
8756.000000;0.072292
8755.000000;0.072293
8754.000000;0.072388
8753.000000;0.072613
8752.000000;0.072909
8751.000000;0.073171
8750.000000;0.073341
8749.000000;0.073417
8748.000000;0.073409
8747.000000;0.073341
8746.000000;0.073266
8745.000000;0.073239
8744.000000;0.073249
8743.000000;0.073252
8742.000000;0.073256
8741.000000;0.073325
8740.000000;0.073502
8739.000000;0.073748
8738.000000;0.073989
8737.000000;0.074190
8736.000000;0.074343
8735.000000;0.074402
8734.000000;0.074304
8733.000000;0.074052
8732.000000;0.073782
8731.000000;0.073674
8730.000000;0.073783
8729.000000;0.073981
8728.000000;0.074090
8727.000000;0.074052
8726.000000;0.073955
8725.000000;0.073905
8724.000000;0.073926
8723.000000;0.073997
8722.000000;0.074129
8721.000000;0.074350
8720.000000;0.074620
8719.000000;0.074799
8718.000000;0.074757
8717.000000;0.074519
8716.000000;0.074281
8715.000000;0.074243
8714.000000;0.074411
8713.000000;0.074611
8712.000000;0.074689
8711.000000;0.074661
8710.000000;0.074635
8709.000000;0.074641
8708.000000;0.074630
8707.000000;0.074585
8706.000000;0.074561
8705.000000;0.074563
8704.000000;0.074508
8703.000000;0.074344
8702.000000;0.074153
8701.000000;0.074054
8700.000000;0.074073
8699.000000;0.074157
8698.000000;0.074274
8697.000000;0.074415
8696.000000;0.074514
8695.000000;0.074469
8694.000000;0.074269
8693.000000;0.074031
8692.000000;0.073879
8691.000000;0.073830
8690.000000;0.073814
8689.000000;0.073776
8688.000000;0.073712
8687.000000;0.073659
8686.000000;0.073655
8685.000000;0.073709
8684.000000;0.073767
8683.000000;0.073740
8682.000000;0.073587
8681.000000;0.073365
8680.000000;0.073175
8679.000000;0.073071
8678.000000;0.073046
8677.000000;0.073059
8676.000000;0.073046
8675.000000;0.072924
8674.000000;0.072646
8673.000000;0.072268
8672.000000;0.071913
8671.000000;0.071663
8670.000000;0.071507
8669.000000;0.071411
8668.000000;0.071368
8667.000000;0.071369
8666.000000;0.071358
8665.000000;0.071261
8664.000000;0.071062
8663.000000;0.070814
8662.000000;0.070597
8661.000000;0.070468
8660.000000;0.070426
8659.000000;0.070411
8658.000000;0.070325
8657.000000;0.070115
8656.000000;0.069824
8655.000000;0.069562
8654.000000;0.069412
8653.000000;0.069370
8652.000000;0.069359
8651.000000;0.069282
8650.000000;0.069089
8649.000000;0.068812
8648.000000;0.068543
8647.000000;0.068359
8646.000000;0.068255
8645.000000;0.068163
8644.000000;0.068017
8643.000000;0.067785
8642.000000;0.067464
8641.000000;0.067089
8640.000000;0.066752
8639.000000;0.066540
8638.000000;0.066442
8637.000000;0.066334
8636.000000;0.066088
8635.000000;0.065708
8634.000000;0.065320
8633.000000;0.065060
8632.000000;0.064952
8631.000000;0.064913
8630.000000;0.064830
8629.000000;0.064647
8628.000000;0.064379
8627.000000;0.064073
8626.000000;0.063778
8625.000000;0.063541
8624.000000;0.063389
8623.000000;0.063270
8622.000000;0.063082
8621.000000;0.062785
8620.000000;0.062473
8619.000000;0.062263
8618.000000;0.062132
8617.000000;0.061934
8616.000000;0.061584
8615.000000;0.061142
8614.000000;0.060707
8613.000000;0.060305
8612.000000;0.059929
8611.000000;0.059608
8610.000000;0.059375
8609.000000;0.059187
8608.000000;0.058971
8607.000000;0.058721
8606.000000;0.058505
8605.000000;0.058374
8604.000000;0.058312
8603.000000;0.058262
8602.000000;0.058160
8601.000000;0.057940
8600.000000;0.057576
8599.000000;0.057115
8598.000000;0.056659
8597.000000;0.056285
8596.000000;0.056008
8595.000000;0.055791
8594.000000;0.055573
8593.000000;0.055299
8592.000000;0.054972
8591.000000;0.054671
8590.000000;0.054472
8589.000000;0.054343
8588.000000;0.054165
8587.000000;0.053868
8586.000000;0.053504
8585.000000;0.053159
8584.000000;0.052843
8583.000000;0.052514
8582.000000;0.052174
8581.000000;0.051877
8580.000000;0.051646
8579.000000;0.051435
8578.000000;0.051194
8577.000000;0.050946
8576.000000;0.050753
8575.000000;0.050602
8574.000000;0.050389
8573.000000;0.050030
8572.000000;0.049571
8571.000000;0.049146
8570.000000;0.048831
8569.000000;0.048582
8568.000000;0.048312
8567.000000;0.047999
8566.000000;0.047681
8565.000000;0.047382
8564.000000;0.047081
8563.000000;0.046771
8562.000000;0.046487
8561.000000;0.046271
8560.000000;0.046095
8559.000000;0.045860
8558.000000;0.045482
8557.000000;0.045001
8556.000000;0.044579
8555.000000;0.044348
8554.000000;0.044274
8553.000000;0.044188
8552.000000;0.043964
8551.000000;0.043634
8550.000000;0.043304
8549.000000;0.043018
8548.000000;0.042736
8547.000000;0.042414
8546.000000;0.042057
8545.000000;0.041694
8544.000000;0.041350
8543.000000;0.041055
8542.000000;0.040820
8541.000000;0.040607
8540.000000;0.040350
8539.000000;0.040026
8538.000000;0.039687
8537.000000;0.039397
8536.000000;0.039144
8535.000000;0.038849
8534.000000;0.038469
8533.000000;0.038059
8532.000000;0.037740
8531.000000;0.037581
8530.000000;0.037536
8529.000000;0.037471
8528.000000;0.037279
8527.000000;0.036954
8526.000000;0.036561
8525.000000;0.036169
8524.000000;0.035800
8523.000000;0.035439
8522.000000;0.035056
8521.000000;0.034636
8520.000000;0.034204
8519.000000;0.033829
8518.000000;0.033575
8517.000000;0.033455
8516.000000;0.033414
8515.000000;0.033357
8514.000000;0.033193
8513.000000;0.032881
8512.000000;0.032450
8511.000000;0.031988
8510.000000;0.031588
8509.000000;0.031300
8508.000000;0.031107
8507.000000;0.030946
8506.000000;0.030735
8505.000000;0.030412
8504.000000;0.029980
8503.000000;0.029505
8502.000000;0.029075
8501.000000;0.028745
8500.000000;0.028529
8499.000000;0.028402
8498.000000;0.028302
8497.000000;0.028147
8496.000000;0.027898
8495.000000;0.027598
8494.000000;0.027317
8493.000000;0.027078
8492.000000;0.026839
8491.000000;0.026546
8490.000000;0.026192
8489.000000;0.025819
8488.000000;0.025498
8487.000000;0.025281
8486.000000;0.025157
8485.000000;0.025039
8484.000000;0.024832
8483.000000;0.024525
8482.000000;0.024194
8481.000000;0.023899
8480.000000;0.023616
8479.000000;0.023275
8478.000000;0.022872
8477.000000;0.022505
8476.000000;0.022279
8475.000000;0.022186
8474.000000;0.022079
8473.000000;0.021797
8472.000000;0.021328
8471.000000;0.020832
8470.000000;0.020494
8469.000000;0.020354
8468.000000;0.020300
8467.000000;0.020197
8466.000000;0.019993
8465.000000;0.019707
8464.000000;0.019370
8463.000000;0.019023
8462.000000;0.018723
8461.000000;0.018504
8460.000000;0.018331
8459.000000;0.018122
8458.000000;0.017834
8457.000000;0.017509
8456.000000;0.017209
8455.000000;0.016937
8454.000000;0.016639
8453.000000;0.016301
8452.000000;0.015990
8451.000000;0.015776
8450.000000;0.015625
8449.000000;0.015423
8448.000000;0.015115
8447.000000;0.014766
8446.000000;0.014480
8445.000000;0.014291
8444.000000;0.014154
8443.000000;0.014021
8442.000000;0.013868
8441.000000;0.013664
8440.000000;0.013388
8439.000000;0.013078
8438.000000;0.012816
8437.000000;0.012636
8436.000000;0.012468
8435.000000;0.012203
8434.000000;0.011809
8433.000000;0.011368
8432.000000;0.010998
8431.000000;0.010756
8430.000000;0.010599
8429.000000;0.010438
8428.000000;0.010213
8427.000000;0.009926
8426.000000;0.009619
8425.000000;0.009321
8424.000000;0.009033
8423.000000;0.008757
8422.000000;0.008511
8421.000000;0.008315
8420.000000;0.008175
8419.000000;0.008064
8418.000000;0.007933
8417.000000;0.007726
8416.000000;0.007427
8415.000000;0.007077
8414.000000;0.006749
8413.000000;0.006497
8412.000000;0.006325
8411.000000;0.006195
8410.000000;0.006052
8409.000000;0.005854
8408.000000;0.005597
8407.000000;0.005338
8406.000000;0.005151
8405.000000;0.005055
8404.000000;0.004987
8403.000000;0.004870
8402.000000;0.004694
8401.000000;0.004508
8400.000000;0.004333
8399.000000;0.004115
8398.000000;0.003791
8397.000000;0.003381
8396.000000;0.002999
8395.000000;0.002748
8394.000000;0.002629
8393.000000;0.002557
8392.000000;0.002447
8391.000000;0.002277
8390.000000;0.002064
8389.000000;0.001818
8388.000000;0.001551
8387.000000;0.001290
8386.000000;0.001065
8385.000000;0.000874
8384.000000;0.000674
8383.000000;0.000426
8382.000000;0.000137
8381.000000;-0.000153
8380.000000;-0.000408
8379.000000;-0.000623
8378.000000;-0.000818
8377.000000;-0.001012
8376.000000;-0.001206
8375.000000;-0.001391
8374.000000;-0.001570
8373.000000;-0.001763
8372.000000;-0.001983
8371.000000;-0.002215
8370.000000;-0.002426
8369.000000;-0.002609
8368.000000;-0.002796
8367.000000;-0.003035
8366.000000;-0.003344
8365.000000;-0.003690
8364.000000;-0.004028
8363.000000;-0.004348
8362.000000;-0.004675
8361.000000;-0.005012
8360.000000;-0.005313
8359.000000;-0.005528
8358.000000;-0.005668
8357.000000;-0.005790
8356.000000;-0.005915
8355.000000;-0.006011
8354.000000;-0.006046
8353.000000;-0.006056
8352.000000;-0.006120
8351.000000;-0.006298
8350.000000;-0.006601
8349.000000;-0.006992
8348.000000;-0.007404
8347.000000;-0.007778
8346.000000;-0.008096
8345.000000;-0.008370
8344.000000;-0.008582
8343.000000;-0.008671
8342.000000;-0.008612
8341.000000;-0.008489
8340.000000;-0.008443
8339.000000;-0.008545
8338.000000;-0.008751
8337.000000;-0.008981
8336.000000;-0.009203
8335.000000;-0.009449
8334.000000;-0.009766
8333.000000;-0.010148
8332.000000;-0.010517
8331.000000;-0.010773
8330.000000;-0.010878
8329.000000;-0.010905
8328.000000;-0.010968
8327.000000;-0.011135
8326.000000;-0.011401
8325.000000;-0.011751
8324.000000;-0.012158
8323.000000;-0.012555
8322.000000;-0.012845
8321.000000;-0.012996
8320.000000;-0.013076
8319.000000;-0.013162
8318.000000;-0.013249
8317.000000;-0.013294
8316.000000;-0.013324
8315.000000;-0.013441
8314.000000;-0.013705
8313.000000;-0.014054
8312.000000;-0.014362
8311.000000;-0.014557
8310.000000;-0.014666
8309.000000;-0.014764
8308.000000;-0.014892
8307.000000;-0.015041
8306.000000;-0.015175
8305.000000;-0.015292
8304.000000;-0.015426
8303.000000;-0.015612
8302.000000;-0.015841
8301.000000;-0.016069
8300.000000;-0.016252
8299.000000;-0.016375
8298.000000;-0.016453
8297.000000;-0.016527
8296.000000;-0.016659
8295.000000;-0.016892
8294.000000;-0.017193
8293.000000;-0.017453
8292.000000;-0.017583
8291.000000;-0.017607
8290.000000;-0.017642
8289.000000;-0.017796
8288.000000;-0.018090
8287.000000;-0.018474
8286.000000;-0.018865
8285.000000;-0.019176
8284.000000;-0.019352
8283.000000;-0.019415
8282.000000;-0.019461
8281.000000;-0.019563
8280.000000;-0.019695
8279.000000;-0.019780
8278.000000;-0.019803
8277.000000;-0.019836
8276.000000;-0.019968
8275.000000;-0.020221
8274.000000;-0.020553
8273.000000;-0.020892
8272.000000;-0.021160
8271.000000;-0.021309
8270.000000;-0.021353
8269.000000;-0.021367
8268.000000;-0.021421
8267.000000;-0.021524
8266.000000;-0.021631
8265.000000;-0.021706
8264.000000;-0.021759
8263.000000;-0.021835
8262.000000;-0.021978
8261.000000;-0.022191
8260.000000;-0.022418
8259.000000;-0.022602
8258.000000;-0.022749
8257.000000;-0.022917
8256.000000;-0.023132
8255.000000;-0.023347
8254.000000;-0.023515
8253.000000;-0.023662
8252.000000;-0.023838
8251.000000;-0.024032
8250.000000;-0.024159
8249.000000;-0.024162
8248.000000;-0.024089
8247.000000;-0.024042
8246.000000;-0.024097
8245.000000;-0.024250
8244.000000;-0.024453
8243.000000;-0.024653
8242.000000;-0.024830
8241.000000;-0.024983
8240.000000;-0.025102
8239.000000;-0.025169
8238.000000;-0.025194
8237.000000;-0.025242
8236.000000;-0.025374
8235.000000;-0.025578
8234.000000;-0.025776
8233.000000;-0.025910
8232.000000;-0.025993
8231.000000;-0.026072
8230.000000;-0.026163
8229.000000;-0.026251
8228.000000;-0.026331
8227.000000;-0.026418
8226.000000;-0.026517
8225.000000;-0.026604
8224.000000;-0.026658
8223.000000;-0.026707
8222.000000;-0.026818
8221.000000;-0.027033
8220.000000;-0.027307
8219.000000;-0.027530
8218.000000;-0.027626
8217.000000;-0.027626
8216.000000;-0.027632
8215.000000;-0.027714
8214.000000;-0.027862
8213.000000;-0.028018
8212.000000;-0.028141
8211.000000;-0.028221
8210.000000;-0.028262
8209.000000;-0.028275
8208.000000;-0.028287
8207.000000;-0.028335
8206.000000;-0.028432
8205.000000;-0.028548
8204.000000;-0.028637
8203.000000;-0.028693
8202.000000;-0.028759
8201.000000;-0.028873
8200.000000;-0.029006
8199.000000;-0.029090
8198.000000;-0.029109
8197.000000;-0.029132
8196.000000;-0.029238
8195.000000;-0.029425
8194.000000;-0.029613
8193.000000;-0.029735
8192.000000;-0.029802
8191.000000;-0.029869
8190.000000;-0.029962
8189.000000;-0.030039
8188.000000;-0.030046
8187.000000;-0.029989
8186.000000;-0.029957
8185.000000;-0.030051
8184.000000;-0.030272
8183.000000;-0.030499
8182.000000;-0.030597
8181.000000;-0.030532
8180.000000;-0.030384
8179.000000;-0.030266
8178.000000;-0.030245
8177.000000;-0.030321
8176.000000;-0.030446
8175.000000;-0.030556
8174.000000;-0.030630
8173.000000;-0.030715
8172.000000;-0.030872
8171.000000;-0.031093
8170.000000;-0.031292
8169.000000;-0.031395
8168.000000;-0.031418
8167.000000;-0.031432
8166.000000;-0.031490
8165.000000;-0.031596
8164.000000;-0.031731
8163.000000;-0.031866
8162.000000;-0.031953
8161.000000;-0.031943
8160.000000;-0.031833
8159.000000;-0.031699
8158.000000;-0.031637
8157.000000;-0.031683
8156.000000;-0.031781
8155.000000;-0.031850
8154.000000;-0.031866
8153.000000;-0.031862
8152.000000;-0.031859
8151.000000;-0.031847
8150.000000;-0.031836
8149.000000;-0.031883
8148.000000;-0.032025
8147.000000;-0.032205
8146.000000;-0.032318
8145.000000;-0.032326
8144.000000;-0.032291
8143.000000;-0.032301
8142.000000;-0.032381
8141.000000;-0.032502
8140.000000;-0.032619
8139.000000;-0.032695
8138.000000;-0.032713
8137.000000;-0.032699
8136.000000;-0.032709
8135.000000;-0.032771
8134.000000;-0.032848
8133.000000;-0.032890
8132.000000;-0.032903
8131.000000;-0.032928
8130.000000;-0.032966
8129.000000;-0.032970
8128.000000;-0.032911
8127.000000;-0.032821
8126.000000;-0.032755
8125.000000;-0.032734
8124.000000;-0.032742
8123.000000;-0.032764
8122.000000;-0.032804
8121.000000;-0.032872
8120.000000;-0.032971
8119.000000;-0.033082
8118.000000;-0.033166
8117.000000;-0.033175
8116.000000;-0.033102
8115.000000;-0.033008
8114.000000;-0.032974
8113.000000;-0.033029
8112.000000;-0.033123
8111.000000;-0.033199
8110.000000;-0.033247
8109.000000;-0.033298
8108.000000;-0.033373
8107.000000;-0.033456
8106.000000;-0.033522
8105.000000;-0.033545
8104.000000;-0.033502
8103.000000;-0.033381
8102.000000;-0.033229
8101.000000;-0.033133
8100.000000;-0.033152
8099.000000;-0.033250
8098.000000;-0.033330
8097.000000;-0.033332
8096.000000;-0.033279
8095.000000;-0.033248
8094.000000;-0.033298
8093.000000;-0.033417
8092.000000;-0.033526
8091.000000;-0.033546
8090.000000;-0.033473
8089.000000;-0.033398
8088.000000;-0.033408
8087.000000;-0.033474
8086.000000;-0.033486
8085.000000;-0.033390
8084.000000;-0.033256
8083.000000;-0.033192
8082.000000;-0.033226
8081.000000;-0.033286
8080.000000;-0.033297
8079.000000;-0.033243
8078.000000;-0.033165
8077.000000;-0.033109
8076.000000;-0.033108
8075.000000;-0.033161
8074.000000;-0.033241
8073.000000;-0.033315
8072.000000;-0.033368
8071.000000;-0.033396
8070.000000;-0.033391
8069.000000;-0.033349
8068.000000;-0.033292
8067.000000;-0.033263
8066.000000;-0.033282
8065.000000;-0.033328
8064.000000;-0.033359
8063.000000;-0.033362
8062.000000;-0.033347
8061.000000;-0.033331
8060.000000;-0.033325
8059.000000;-0.033345
8058.000000;-0.033398
8057.000000;-0.033469
8056.000000;-0.033528
8055.000000;-0.033556
8054.000000;-0.033559
8053.000000;-0.033547
8052.000000;-0.033507
8051.000000;-0.033420
8050.000000;-0.033305
8049.000000;-0.033211
8048.000000;-0.033175
8047.000000;-0.033177
8046.000000;-0.033169
8045.000000;-0.033142
8044.000000;-0.033134
8043.000000;-0.033173
8042.000000;-0.033238
8041.000000;-0.033280
8040.000000;-0.033269
8039.000000;-0.033211
8038.000000;-0.033129
8037.000000;-0.033057
8036.000000;-0.033033
8035.000000;-0.033071
8034.000000;-0.033149
8033.000000;-0.033222
8032.000000;-0.033253
8031.000000;-0.033229
8030.000000;-0.033144
8029.000000;-0.033012
8028.000000;-0.032866
8027.000000;-0.032749
8026.000000;-0.032681
8025.000000;-0.032659
8024.000000;-0.032679
8023.000000;-0.032730
8022.000000;-0.032770
8021.000000;-0.032743
8020.000000;-0.032645
8019.000000;-0.032535
8018.000000;-0.032466
8017.000000;-0.032420
8016.000000;-0.032352
8015.000000;-0.032263
8014.000000;-0.032196
8013.000000;-0.032168
8012.000000;-0.032153
8011.000000;-0.032138
8010.000000;-0.032141
8009.000000;-0.032172
8008.000000;-0.032205
8007.000000;-0.032218
8006.000000;-0.032230
8005.000000;-0.032278
8004.000000;-0.032355
8003.000000;-0.032416
8002.000000;-0.032415
8001.000000;-0.032337
8000.000000;-0.032207
7999.000000;-0.032068
7998.000000;-0.031951
7997.000000;-0.031848
7996.000000;-0.031731
7995.000000;-0.031610
7994.000000;-0.031545
7993.000000;-0.031578
7992.000000;-0.031679
7991.000000;-0.031778
7990.000000;-0.031834
7989.000000;-0.031847
7988.000000;-0.031822
7987.000000;-0.031768
7986.000000;-0.031705
7985.000000;-0.031657
7984.000000;-0.031625
7983.000000;-0.031599
7982.000000;-0.031578
7981.000000;-0.031550
7980.000000;-0.031470
7979.000000;-0.031307
7978.000000;-0.031115
7977.000000;-0.031005
7976.000000;-0.031022
7975.000000;-0.031098
7974.000000;-0.031133
7973.000000;-0.031098
7972.000000;-0.031034
7971.000000;-0.030988
7970.000000;-0.030972
7969.000000;-0.030975
7968.000000;-0.030979
7967.000000;-0.030970
7966.000000;-0.030946
7965.000000;-0.030908
7964.000000;-0.030837
7963.000000;-0.030699
7962.000000;-0.030498
7961.000000;-0.030292
7960.000000;-0.030147
7959.000000;-0.030083
7958.000000;-0.030085
7957.000000;-0.030141
7956.000000;-0.030222
7955.000000;-0.030258
7954.000000;-0.030186
7953.000000;-0.030029
7952.000000;-0.029897
7951.000000;-0.029871
7950.000000;-0.029917
7949.000000;-0.029934
7948.000000;-0.029871
7947.000000;-0.029772
7946.000000;-0.029717
7945.000000;-0.029729
7944.000000;-0.029753
7943.000000;-0.029732
7942.000000;-0.029670
7941.000000;-0.029619
7940.000000;-0.029606
7939.000000;-0.029601
7938.000000;-0.029564
7937.000000;-0.029484
7936.000000;-0.029375
7935.000000;-0.029247
7934.000000;-0.029110
7933.000000;-0.028985
7932.000000;-0.028902
7931.000000;-0.028868
7930.000000;-0.028866
7929.000000;-0.028862
7928.000000;-0.028824
7927.000000;-0.028739
7926.000000;-0.028642
7925.000000;-0.028586
7924.000000;-0.028579
7923.000000;-0.028558
7922.000000;-0.028461
7921.000000;-0.028300
7920.000000;-0.028154
7919.000000;-0.028084
7918.000000;-0.028092
7917.000000;-0.028146
7916.000000;-0.028200
7915.000000;-0.028203
7914.000000;-0.028125
7913.000000;-0.027995
7912.000000;-0.027889
7911.000000;-0.027853
7910.000000;-0.027852
7909.000000;-0.027808
7908.000000;-0.027685
7907.000000;-0.027516
7906.000000;-0.027357
7905.000000;-0.027230
7904.000000;-0.027124
7903.000000;-0.027039
7902.000000;-0.026994
7901.000000;-0.026990
7900.000000;-0.026989
7899.000000;-0.026952
7898.000000;-0.026887
7897.000000;-0.026828
7896.000000;-0.026764
7895.000000;-0.026646
7894.000000;-0.026466
7893.000000;-0.026295
7892.000000;-0.026204
7891.000000;-0.026176
7890.000000;-0.026148
7889.000000;-0.026100
7888.000000;-0.026057
7887.000000;-0.026030
7886.000000;-0.025995
7885.000000;-0.025944
7884.000000;-0.025895
7883.000000;-0.025853
7882.000000;-0.025803
7881.000000;-0.025751
7880.000000;-0.025726
7879.000000;-0.025714
7878.000000;-0.025653
7877.000000;-0.025506
7876.000000;-0.025325
7875.000000;-0.025191
7874.000000;-0.025122
7873.000000;-0.025071
7872.000000;-0.024992
7871.000000;-0.024878
7870.000000;-0.024742
7869.000000;-0.024602
7868.000000;-0.024480
7867.000000;-0.024399
7866.000000;-0.024354
7865.000000;-0.024324
7864.000000;-0.024293
7863.000000;-0.024256
7862.000000;-0.024196
7861.000000;-0.024100
7860.000000;-0.023980
7859.000000;-0.023873
7858.000000;-0.023798
7857.000000;-0.023738
7856.000000;-0.023665
7855.000000;-0.023573
7854.000000;-0.023481
7853.000000;-0.023411
7852.000000;-0.023363
7851.000000;-0.023310
7850.000000;-0.023216
7849.000000;-0.023065
7848.000000;-0.022887
7847.000000;-0.022743
7846.000000;-0.022679
7845.000000;-0.022684
7844.000000;-0.022704
7843.000000;-0.022681
7842.000000;-0.022575
7841.000000;-0.022382
7840.000000;-0.022139
7839.000000;-0.021915
7838.000000;-0.021767
7837.000000;-0.021688
7836.000000;-0.021614
7835.000000;-0.021501
7834.000000;-0.021378
7833.000000;-0.021303
7832.000000;-0.021277
7831.000000;-0.021248
7830.000000;-0.021181
7829.000000;-0.021102
7828.000000;-0.021043
7827.000000;-0.020981
7826.000000;-0.020866
7825.000000;-0.020697
7824.000000;-0.020530
7823.000000;-0.020408
7822.000000;-0.020312
7821.000000;-0.020197
7820.000000;-0.020048
7819.000000;-0.019898
7818.000000;-0.019780
7817.000000;-0.019692
7816.000000;-0.019614
7815.000000;-0.019546
7814.000000;-0.019506
7813.000000;-0.019489
7812.000000;-0.019448
7811.000000;-0.019325
7810.000000;-0.019121
7809.000000;-0.018904
7808.000000;-0.018752
7807.000000;-0.018694
7806.000000;-0.018716
7805.000000;-0.018777
7804.000000;-0.018823
7803.000000;-0.018792
7802.000000;-0.018645
7801.000000;-0.018414
7800.000000;-0.018178
7799.000000;-0.017990
7798.000000;-0.017843
7797.000000;-0.017687
7796.000000;-0.017500
7795.000000;-0.017308
7794.000000;-0.017161
7793.000000;-0.017086
7792.000000;-0.017065
7791.000000;-0.017052
7790.000000;-0.017013
7789.000000;-0.016934
7788.000000;-0.016806
7787.000000;-0.016625
7786.000000;-0.016423
7785.000000;-0.016269
7784.000000;-0.016210
7783.000000;-0.016215
7782.000000;-0.016194
7781.000000;-0.016086
7780.000000;-0.015901
7779.000000;-0.015694
7778.000000;-0.015515
7777.000000;-0.015378
7776.000000;-0.015271
7775.000000;-0.015164
7774.000000;-0.015034
7773.000000;-0.014882
7772.000000;-0.014729
7771.000000;-0.014586
7770.000000;-0.014448
7769.000000;-0.014305
7768.000000;-0.014151
7767.000000;-0.013983
7766.000000;-0.013798
7765.000000;-0.013606
7764.000000;-0.013427
7763.000000;-0.013270
7762.000000;-0.013125
7761.000000;-0.012982
7760.000000;-0.012849
7759.000000;-0.012744
7758.000000;-0.012674
7757.000000;-0.012619
7756.000000;-0.012543
7755.000000;-0.012412
7754.000000;-0.012213
7753.000000;-0.011959
7752.000000;-0.011676
7751.000000;-0.011394
7750.000000;-0.011139
7749.000000;-0.010936
7748.000000;-0.010800
7747.000000;-0.010718
7746.000000;-0.010661
7745.000000;-0.010605
7744.000000;-0.010534
7743.000000;-0.010447
7742.000000;-0.010341
7741.000000;-0.010218
7740.000000;-0.010082
7739.000000;-0.009943
7738.000000;-0.009809
7737.000000;-0.009686
7736.000000;-0.009573
7735.000000;-0.009465
7734.000000;-0.009355
7733.000000;-0.009221
7732.000000;-0.009027
7731.000000;-0.008754
7730.000000;-0.008435
7729.000000;-0.008147
7728.000000;-0.007950
7727.000000;-0.007840
7726.000000;-0.007771
7725.000000;-0.007693
7724.000000;-0.007573
7723.000000;-0.007408
7722.000000;-0.007224
7721.000000;-0.007061
7720.000000;-0.006929
7719.000000;-0.006793
7718.000000;-0.006621
7717.000000;-0.006427
7716.000000;-0.006252
7715.000000;-0.006107
7714.000000;-0.005971
7713.000000;-0.005824
7712.000000;-0.005662
7711.000000;-0.005496
7710.000000;-0.005331
7709.000000;-0.005176
7708.000000;-0.005023
7707.000000;-0.004850
7706.000000;-0.004640
7705.000000;-0.004403
7704.000000;-0.004163
7703.000000;-0.003931
7702.000000;-0.003718
7701.000000;-0.003545
7700.000000;-0.003418
7699.000000;-0.003297
7698.000000;-0.003126
7697.000000;-0.002904
7696.000000;-0.002694
7695.000000;-0.002545
7694.000000;-0.002441
7693.000000;-0.002327
7692.000000;-0.002162
7691.000000;-0.001944
7690.000000;-0.001698
7689.000000;-0.001472
7688.000000;-0.001307
7687.000000;-0.001205
7686.000000;-0.001110
7685.000000;-0.000961
7684.000000;-0.000742
7683.000000;-0.000485
7682.000000;-0.000232
7681.000000;0.000004
7680.000000;0.000234
7679.000000;0.000459
7678.000000;0.000660
7677.000000;0.000824
7676.000000;0.000978
7675.000000;0.001176
7674.000000;0.001439
7673.000000;0.001725
7672.000000;0.001971
7671.000000;0.002167
7670.000000;0.002349
7669.000000;0.002547
7668.000000;0.002760
7667.000000;0.002971
7666.000000;0.003166
7665.000000;0.003335
7664.000000;0.003486
7663.000000;0.003646
7662.000000;0.003847
7661.000000;0.004083
7660.000000;0.004323
7659.000000;0.004539
7658.000000;0.004728
7657.000000;0.004894
7656.000000;0.005063
7655.000000;0.005274
7654.000000;0.005548
7653.000000;0.005841
7652.000000;0.006085
7651.000000;0.006262
7650.000000;0.006425
7649.000000;0.006623
7648.000000;0.006847
7647.000000;0.007077
7646.000000;0.007325
7645.000000;0.007619
7644.000000;0.007950
7643.000000;0.008271
7642.000000;0.008558
7641.000000;0.008831
7640.000000;0.009131
7639.000000;0.009464
7638.000000;0.009796
7637.000000;0.010072
7636.000000;0.010273
7635.000000;0.010429
7634.000000;0.010591
7633.000000;0.010776
7632.000000;0.010969
7631.000000;0.011153
7630.000000;0.011332
7629.000000;0.011531
7628.000000;0.011777
7627.000000;0.012081
7626.000000;0.012411
7625.000000;0.012707
7624.000000;0.012924
7623.000000;0.013086
7622.000000;0.013262
7621.000000;0.013513
7620.000000;0.013847
7619.000000;0.014219
7618.000000;0.014550
7617.000000;0.014786
7616.000000;0.014950
7615.000000;0.015137
7614.000000;0.015414
7613.000000;0.015752
7612.000000;0.016077
7611.000000;0.016368
7610.000000;0.016660
7609.000000;0.016965
7608.000000;0.017245
7607.000000;0.017476
7606.000000;0.017694
7605.000000;0.017943
7604.000000;0.018230
7603.000000;0.018535
7602.000000;0.018850
7601.000000;0.019177
7600.000000;0.019523
7599.000000;0.019893
7598.000000;0.020278
7597.000000;0.020650
7596.000000;0.020977
7595.000000;0.021265
7594.000000;0.021549
7593.000000;0.021848
7592.000000;0.022154
7591.000000;0.022469
7590.000000;0.022808
7589.000000;0.023160
7588.000000;0.023492
7587.000000;0.023791
7586.000000;0.024078
7585.000000;0.024366
7584.000000;0.024648
7583.000000;0.024926
7582.000000;0.025230
7581.000000;0.025568
7580.000000;0.025910
7579.000000;0.026229
7578.000000;0.026543
7577.000000;0.026872
7576.000000;0.027216
7575.000000;0.027562
7574.000000;0.027917
7573.000000;0.028278
7572.000000;0.028623
7571.000000;0.028945
7570.000000;0.029266
7569.000000;0.029604
7568.000000;0.029943
7567.000000;0.030260
7566.000000;0.030563
7565.000000;0.030873
7564.000000;0.031205
7563.000000;0.031570
7562.000000;0.031978
7561.000000;0.032421
7560.000000;0.032859
7559.000000;0.033255
7558.000000;0.033602
7557.000000;0.033915
7556.000000;0.034212
7555.000000;0.034518
7554.000000;0.034865
7553.000000;0.035269
7552.000000;0.035717
7551.000000;0.036187
7550.000000;0.036659
7549.000000;0.037091
7548.000000;0.037446
7547.000000;0.037739
7546.000000;0.038034
7545.000000;0.038372
7544.000000;0.038732
7543.000000;0.039072
7542.000000;0.039380
7541.000000;0.039669
7540.000000;0.039953
7539.000000;0.040270
7538.000000;0.040675
7537.000000;0.041191
7536.000000;0.041753
7535.000000;0.042268
7534.000000;0.042692
7533.000000;0.043057
7532.000000;0.043422
7531.000000;0.043817
7530.000000;0.044229
7529.000000;0.044619
7528.000000;0.044974
7527.000000;0.045335
7526.000000;0.045749
7525.000000;0.046198
7524.000000;0.046610
7523.000000;0.046955
7522.000000;0.047295
7521.000000;0.047701
7520.000000;0.048173
7519.000000;0.048655
7518.000000;0.049108
7517.000000;0.049524
7516.000000;0.049903
7515.000000;0.050258
7514.000000;0.050622
7513.000000;0.051025
7512.000000;0.051463
7511.000000;0.051917
7510.000000;0.052378
7509.000000;0.052836
7508.000000;0.053275
7507.000000;0.053694
7506.000000;0.054114
7505.000000;0.054536
7504.000000;0.054922
7503.000000;0.055249
7502.000000;0.055568
7501.000000;0.055956
7500.000000;0.056421
7499.000000;0.056906
7498.000000;0.057365
7497.000000;0.057804
7496.000000;0.058257
7495.000000;0.058739
7494.000000;0.059228
7493.000000;0.059684
7492.000000;0.060078
7491.000000;0.060419
7490.000000;0.060756
7489.000000;0.061137
7488.000000;0.061572
7487.000000;0.062046
7486.000000;0.062545
7485.000000;0.063052
7484.000000;0.063542
7483.000000;0.063987
7482.000000;0.064391
7481.000000;0.064794
7480.000000;0.065248
7479.000000;0.065772
7478.000000;0.066336
7477.000000;0.066877
7476.000000;0.067356
7475.000000;0.067786
7474.000000;0.068208
7473.000000;0.068637
7472.000000;0.069067
7471.000000;0.069500
7470.000000;0.069948
7469.000000;0.070392
7468.000000;0.070797
7467.000000;0.071161
7466.000000;0.071527
7465.000000;0.071934
7464.000000;0.072394
7463.000000;0.072904
7462.000000;0.073449
7461.000000;0.073982
7460.000000;0.074449
7459.000000;0.074860
7458.000000;0.075278
7457.000000;0.075745
7456.000000;0.076234
7455.000000;0.076696
7454.000000;0.077101
7453.000000;0.077442
7452.000000;0.077745
7451.000000;0.078077
7450.000000;0.078506
7449.000000;0.079021
7448.000000;0.079555
7447.000000;0.080060
7446.000000;0.080550
7445.000000;0.081044
7444.000000;0.081546
7443.000000;0.082060
7442.000000;0.082579
7441.000000;0.083068
7440.000000;0.083495
7439.000000;0.083894
7438.000000;0.084324
7437.000000;0.084775
7436.000000;0.085182
7435.000000;0.085529
7434.000000;0.085867
7433.000000;0.086221
7432.000000;0.086577
7431.000000;0.086966
7430.000000;0.087446
7429.000000;0.087987
7428.000000;0.088484
7427.000000;0.088910
7426.000000;0.089347
7425.000000;0.089847
7424.000000;0.090358
7423.000000;0.090833
7422.000000;0.091291
7421.000000;0.091758
7420.000000;0.092198
7419.000000;0.092583
7418.000000;0.092943
7417.000000;0.093311
7416.000000;0.093689
7415.000000;0.094083
7414.000000;0.094520
7413.000000;0.094985
7412.000000;0.095417
7411.000000;0.095823
7410.000000;0.096289
7409.000000;0.096810
7408.000000;0.097247
7407.000000;0.097529
7406.000000;0.097788
7405.000000;0.098213
7404.000000;0.098818
7403.000000;0.099440
7402.000000;0.099959
7401.000000;0.100395
7400.000000;0.100791
7399.000000;0.101177
7398.000000;0.101600
7397.000000;0.102038
7396.000000;0.102400
7395.000000;0.102709
7394.000000;0.103070
7393.000000;0.103421
7392.000000;0.103534
7391.000000;0.103401
7390.000000;0.103405
7389.000000;0.103884
7388.000000;0.104710
7387.000000;0.105533
7386.000000;0.106217
7385.000000;0.106805
7384.000000;0.107292
7383.000000;0.107651
7382.000000;0.107985
7381.000000;0.108492
7380.000000;0.109212
7379.000000;0.109966
7378.000000;0.110530
7377.000000;0.110817
7376.000000;0.110968
7375.000000;0.111252
7374.000000;0.111811
7373.000000;0.112512
7372.000000;0.113065
7371.000000;0.113297
7370.000000;0.113332
7369.000000;0.113410
7368.000000;0.113634
7367.000000;0.114085
7366.000000;0.114882
7365.000000;0.115850
7364.000000;0.116509
7363.000000;0.116628
7362.000000;0.116508
7361.000000;0.116672
7360.000000;0.117346
7359.000000;0.118281
7358.000000;0.119004
7357.000000;0.119259
7356.000000;0.119239
7355.000000;0.119419
7354.000000;0.120149
7353.000000;0.121308
7352.000000;0.122385
7351.000000;0.122946
7350.000000;0.123039
7349.000000;0.123104
7348.000000;0.123477
7347.000000;0.124056
7346.000000;0.124476
7345.000000;0.124594
7344.000000;0.124694
7343.000000;0.125223
7342.000000;0.126301
7341.000000;0.127568
7340.000000;0.128531
7339.000000;0.129031
7338.000000;0.129314
7337.000000;0.129609
7336.000000;0.129921
7335.000000;0.130234
7334.000000;0.130665
7333.000000;0.131362
7332.000000;0.132278
7331.000000;0.133065
7330.000000;0.133363
7329.000000;0.133304
7328.000000;0.133526
7327.000000;0.134365
7326.000000;0.135381
7325.000000;0.135990
7324.000000;0.136149
7323.000000;0.136298
7322.000000;0.136841
7321.000000;0.137799
7320.000000;0.138865
7319.000000;0.139774
7318.000000;0.140641
7317.000000;0.141723
7316.000000;0.142939
7315.000000;0.143879
7314.000000;0.144280
7313.000000;0.144476
7312.000000;0.145168
7311.000000;0.146572
7310.000000;0.148033
7309.000000;0.148728
7308.000000;0.148596
7307.000000;0.148329
7306.000000;0.148591
7305.000000;0.149581
7304.000000;0.151060
7303.000000;0.152426
7302.000000;0.153115
7301.000000;0.153125
7300.000000;0.153123
7299.000000;0.153879
7298.000000;0.155453
7297.000000;0.157120
7296.000000;0.158144
7295.000000;0.158625
7294.000000;0.159304
7293.000000;0.160612
7292.000000;0.162313
7291.000000;0.163938
7290.000000;0.165291
7289.000000;0.166530
7288.000000;0.167875
7287.000000;0.169262
7286.000000;0.170379
7285.000000;0.171131
7284.000000;0.171820
7283.000000;0.172732
7282.000000;0.173876
7281.000000;0.175109
7280.000000;0.176364
7279.000000;0.177698
7278.000000;0.179109
7277.000000;0.180513
7276.000000;0.181908
7275.000000;0.183352
7274.000000;0.184833
7273.000000;0.186320
7272.000000;0.187846
7271.000000;0.189411
7270.000000;0.190904
7269.000000;0.192265
7268.000000;0.193622
7267.000000;0.195154
7266.000000;0.196876
7265.000000;0.198690
7264.000000;0.200572
7263.000000;0.202535
7262.000000;0.204468
7261.000000;0.206218
7260.000000;0.207782
7259.000000;0.209308
7258.000000;0.210932
7257.000000;0.212704
7256.000000;0.214597
7255.000000;0.216559
7254.000000;0.218609
7253.000000;0.220803
7252.000000;0.223042
7251.000000;0.225161
7250.000000;0.227102
7249.000000;0.228983
7248.000000;0.231112
7247.000000;0.233648
7246.000000;0.236264
7245.000000;0.238453
7244.000000;0.240256
7243.000000;0.242327
7242.000000;0.245085
7241.000000;0.248147
7240.000000;0.250865
7239.000000;0.253053
7238.000000;0.255089
7237.000000;0.257513
7236.000000;0.260456
7235.000000;0.263486
7234.000000;0.266179
7233.000000;0.268594
7232.000000;0.271049
7231.000000;0.273759
7230.000000;0.276631
7229.000000;0.279399
7228.000000;0.282032
7227.000000;0.284756
7226.000000;0.287688
7225.000000;0.290723
7224.000000;0.293777
7223.000000;0.296840
7222.000000;0.299824
7221.000000;0.302708
7220.000000;0.305730
7219.000000;0.309108
7218.000000;0.312701
7217.000000;0.316209
7216.000000;0.319540
7215.000000;0.322785
7214.000000;0.326043
7213.000000;0.329388
7212.000000;0.332906
7211.000000;0.336653
7210.000000;0.340562
7209.000000;0.344512
7208.000000;0.348503
7207.000000;0.352599
7206.000000;0.356750
7205.000000;0.360869
7204.000000;0.364973
7203.000000;0.369092
7202.000000;0.373130
7201.000000;0.377030
7200.000000;0.380926
7199.000000;0.384946
7198.000000;0.389036
7197.000000;0.393135
7196.000000;0.397361
7195.000000;0.401844
7194.000000;0.406494
7193.000000;0.411161
7192.000000;0.415867
7191.000000;0.420698
7190.000000;0.425548
7189.000000;0.430268
7188.000000;0.434931
7187.000000;0.439742
7186.000000;0.444735
7185.000000;0.449635
7184.000000;0.454136
7183.000000;0.458278
7182.000000;0.462514
7181.000000;0.467323
7180.000000;0.472800
7179.000000;0.478598
7178.000000;0.484228
7177.000000;0.489520
7176.000000;0.494718
7175.000000;0.500077
7174.000000;0.505558
7173.000000;0.511044
7172.000000;0.516599
7171.000000;0.522346
7170.000000;0.528202
7169.000000;0.533959
7168.000000;0.539429
7167.000000;0.544566
7166.000000;0.549628
7165.000000;0.554942
7164.000000;0.560449
7163.000000;0.565716
7162.000000;0.570588
7161.000000;0.575574
7160.000000;0.581280
7159.000000;0.587645
7158.000000;0.593999
7157.000000;0.599878
7156.000000;0.605467
7155.000000;0.611099
7154.000000;0.616758
7153.000000;0.622301
7152.000000;0.627753
7151.000000;0.633293
7150.000000;0.639089
7149.000000;0.645124
7148.000000;0.651103
7147.000000;0.656711
7146.000000;0.661972
7145.000000;0.667294
7144.000000;0.673069
7143.000000;0.679180
7142.000000;0.685083
7141.000000;0.690435
7140.000000;0.695510
7139.000000;0.700845
7138.000000;0.706582
7137.000000;0.712383
7136.000000;0.717919
7135.000000;0.723222
7134.000000;0.728565
7133.000000;0.734166
7132.000000;0.739953
7131.000000;0.745646
7130.000000;0.751078
7129.000000;0.756348
7128.000000;0.761652
7127.000000;0.767019
7126.000000;0.772334
7125.000000;0.777581
7124.000000;0.782919
7123.000000;0.788472
7122.000000;0.794113
7121.000000;0.799468
7120.000000;0.804212
7119.000000;0.808410
7118.000000;0.812587
7117.000000;0.817329
7116.000000;0.822703
7115.000000;0.828201
7114.000000;0.833344
7113.000000;0.838215
7112.000000;0.843218
7111.000000;0.848417
7110.000000;0.853446
7109.000000;0.858098
7108.000000;0.862569
7107.000000;0.866987
7106.000000;0.871233
7105.000000;0.875286
7104.000000;0.879340
7103.000000;0.883573
7102.000000;0.887978
7101.000000;0.892499
7100.000000;0.897179
7099.000000;0.901937
7098.000000;0.906382
7097.000000;0.910174
7096.000000;0.913492
7095.000000;0.916875
7094.000000;0.920627
7093.000000;0.924598
7092.000000;0.928514
7091.000000;0.932295
7090.000000;0.936012
7089.000000;0.939715
7088.000000;0.943349
7087.000000;0.946803
7086.000000;0.950075
7085.000000;0.953317
7084.000000;0.956618
7083.000000;0.959825
7082.000000;0.962753
7081.000000;0.965519
7080.000000;0.968524
7079.000000;0.971986
7078.000000;0.975656
7077.000000;0.979193
7076.000000;0.982572
7075.000000;0.985889
7074.000000;0.989028
7073.000000;0.991818
7072.000000;0.994347
7071.000000;0.996849
7070.000000;0.999396
7069.000000;1.001975
7068.000000;1.004695
7067.000000;1.007619
7066.000000;1.010543
7065.000000;1.013194
7064.000000;1.015547
7063.000000;1.017803
7062.000000;1.020131
7061.000000;1.022542
7060.000000;1.024951
7059.000000;1.027260
7058.000000;1.029400
7057.000000;1.031455
7056.000000;1.033642
7055.000000;1.035997
7054.000000;1.038281
7053.000000;1.040337
7052.000000;1.042279
7051.000000;1.044187
7050.000000;1.045937
7049.000000;1.047554
7048.000000;1.049402
7047.000000;1.051710
7046.000000;1.054172
7045.000000;1.056323
7044.000000;1.058089
7043.000000;1.059650
7042.000000;1.061022
7041.000000;1.062130
7040.000000;1.063141
7039.000000;1.064337
7038.000000;1.065749
7037.000000;1.067251
7036.000000;1.068898
7035.000000;1.070807
7034.000000;1.072781
7033.000000;1.074410
7032.000000;1.075528
7031.000000;1.076333
7030.000000;1.077119
7029.000000;1.078135
7028.000000;1.079561
7027.000000;1.081342
7026.000000;1.083104
7025.000000;1.084504
7024.000000;1.085629
7023.000000;1.086815
7022.000000;1.088187
7021.000000;1.089610
7020.000000;1.090959
7019.000000;1.092181
7018.000000;1.093209
7017.000000;1.094122
7016.000000;1.095187
7015.000000;1.096475
7014.000000;1.097604
7013.000000;1.098176
7012.000000;1.098335
7011.000000;1.098540
7010.000000;1.098943
7009.000000;1.099382
7008.000000;1.099863
7007.000000;1.100572
7006.000000;1.101428
7005.000000;1.102056
7004.000000;1.102301
7003.000000;1.102447
7002.000000;1.102862
7001.000000;1.103704
7000.000000;1.104962
6999.000000;1.106485
6998.000000;1.107926
6997.000000;1.108976
6996.000000;1.109726
6995.000000;1.110546
6994.000000;1.111534
6993.000000;1.112366
6992.000000;1.112765
6991.000000;1.112829
6990.000000;1.112827
6989.000000;1.112932
6988.000000;1.113238
6987.000000;1.113800
6986.000000;1.114515
6985.000000;1.115108
6984.000000;1.115376
6983.000000;1.115381
6982.000000;1.115316
6981.000000;1.115307
6980.000000;1.115388
6979.000000;1.115570
6978.000000;1.115877
6977.000000;1.116343
6976.000000;1.116987
6975.000000;1.117729
6974.000000;1.118385
6973.000000;1.118868
6972.000000;1.119307
6971.000000;1.119815
6970.000000;1.120222
6969.000000;1.120234
6968.000000;1.119797
6967.000000;1.119118
6966.000000;1.118428
6965.000000;1.117905
6964.000000;1.117766
6963.000000;1.118161
6962.000000;1.118894
6961.000000;1.119486
6960.000000;1.119655
6959.000000;1.119569
6958.000000;1.119542
6957.000000;1.119615
6956.000000;1.119581
6955.000000;1.119315
6954.000000;1.118961
6953.000000;1.118771
6952.000000;1.118836
6951.000000;1.118998
6950.000000;1.119022
6949.000000;1.118851
6948.000000;1.118642
6947.000000;1.118552
6946.000000;1.118594
6945.000000;1.118682
6944.000000;1.118692
6943.000000;1.118470
6942.000000;1.117961
6941.000000;1.117417
6940.000000;1.117276
6939.000000;1.117653
6938.000000;1.118094
6937.000000;1.118023
6936.000000;1.117380
6935.000000;1.116630
6934.000000;1.116173
6933.000000;1.115943
6932.000000;1.115643
6931.000000;1.115187
6930.000000;1.114786
6929.000000;1.114663
6928.000000;1.114765
6927.000000;1.114792
6926.000000;1.114524
6925.000000;1.114053
6924.000000;1.113612
6923.000000;1.113246
6922.000000;1.112815
6921.000000;1.112271
6920.000000;1.111732
6919.000000;1.111298
6918.000000;1.110950
6917.000000;1.110664
6916.000000;1.110446
6915.000000;1.110211
6914.000000;1.109803
6913.000000;1.109272
6912.000000;1.108944
6911.000000;1.109075
6910.000000;1.109497
6909.000000;1.109741
6908.000000;1.109434
6907.000000;1.108536
6906.000000;1.107313
6905.000000;1.106181
6904.000000;1.105469
6903.000000;1.105220
6902.000000;1.105278
6901.000000;1.105472
6900.000000;1.105601
6899.000000;1.105384
6898.000000;1.104683
6897.000000;1.103797
6896.000000;1.103215
6895.000000;1.103042
6894.000000;1.102913
6893.000000;1.102569
6892.000000;1.102204
6891.000000;1.102088
6890.000000;1.102126
6889.000000;1.101995
6888.000000;1.101518
6887.000000;1.100695
6886.000000;1.099588
6885.000000;1.098408
6884.000000;1.097517
6883.000000;1.097078
6882.000000;1.096832
6881.000000;1.096442
6880.000000;1.095948
6879.000000;1.095665
6878.000000;1.095721
6877.000000;1.095925
6876.000000;1.096014
6875.000000;1.095814
6874.000000;1.095222
6873.000000;1.094283
6872.000000;1.093301
6871.000000;1.092653
6870.000000;1.092436
6869.000000;1.092380
6868.000000;1.092103
6867.000000;1.091398
6866.000000;1.090343
6865.000000;1.089268
6864.000000;1.088560
6863.000000;1.088358
6862.000000;1.088470
6861.000000;1.088592
6860.000000;1.088508
6859.000000;1.088073
6858.000000;1.087180
6857.000000;1.085932
6856.000000;1.084663
6855.000000;1.083603
6854.000000;1.082629
6853.000000;1.081524
6852.000000;1.080321
6851.000000;1.079230
6850.000000;1.078331
6849.000000;1.077562
6848.000000;1.076882
6847.000000;1.076223
6846.000000;1.075386
6845.000000;1.074219
6844.000000;1.072869
6843.000000;1.071659
6842.000000;1.070724
6841.000000;1.069912
6840.000000;1.068994
6839.000000;1.067865
6838.000000;1.066590
6837.000000;1.065392
6836.000000;1.064505
6835.000000;1.063871
6834.000000;1.063057
6833.000000;1.061703
6832.000000;1.059971
6831.000000;1.058339
6830.000000;1.057000
6829.000000;1.055703
6828.000000;1.054194
6827.000000;1.052570
6826.000000;1.051110
6825.000000;1.049925
6824.000000;1.048888
6823.000000;1.047817
6822.000000;1.046628
6821.000000;1.045332
6820.000000;1.043971
6819.000000;1.042562
6818.000000;1.041098
6817.000000;1.039567
6816.000000;1.037954
6815.000000;1.036226
6814.000000;1.034383
6813.000000;1.032515
6812.000000;1.030746
6811.000000;1.029076
6810.000000;1.027404
6809.000000;1.025710
6808.000000;1.024084
6807.000000;1.022531
6806.000000;1.020861
6805.000000;1.018879
6804.000000;1.016601
6803.000000;1.014230
6802.000000;1.011970
6801.000000;1.009917
6800.000000;1.008029
6799.000000;1.006155
6798.000000;1.004190
6797.000000;1.002243
6796.000000;1.000525
6795.000000;0.999011
6794.000000;0.997387
6793.000000;0.995411
6792.000000;0.993195
6791.000000;0.991003
6790.000000;0.988926
6789.000000;0.986888
6788.000000;0.984848
6787.000000;0.982839
6786.000000;0.980857
6785.000000;0.978843
6784.000000;0.976733
6783.000000;0.974491
6782.000000;0.972147
6781.000000;0.969859
6780.000000;0.967807
6779.000000;0.965956
6778.000000;0.964050
6777.000000;0.961926
6776.000000;0.959699
6775.000000;0.957532
6774.000000;0.955382
6773.000000;0.953123
6772.000000;0.950777
6771.000000;0.948472
6770.000000;0.946283
6769.000000;0.944247
6768.000000;0.942448
6767.000000;0.940864
6766.000000;0.939213
6765.000000;0.937159
6764.000000;0.934683
6763.000000;0.932111
6762.000000;0.929748
6761.000000;0.927632
6760.000000;0.925638
6759.000000;0.923643
6758.000000;0.921568
6757.000000;0.919370
6756.000000;0.917060
6755.000000;0.914692
6754.000000;0.912329
6753.000000;0.910037
6752.000000;0.907888
6751.000000;0.905883
6750.000000;0.903892
6749.000000;0.901761
6748.000000;0.899445
6747.000000;0.897008
6746.000000;0.894527
6745.000000;0.892075
6744.000000;0.889755
6743.000000;0.887628
6742.000000;0.885614
6741.000000;0.883553
6740.000000;0.881387
6739.000000;0.879183
6738.000000;0.876995
6737.000000;0.874791
6736.000000;0.872530
6735.000000;0.870233
6734.000000;0.867941
6733.000000;0.865657
6732.000000;0.863360
6731.000000;0.861075
6730.000000;0.858884
6729.000000;0.856840
6728.000000;0.854871
6727.000000;0.852821
6726.000000;0.850600
6725.000000;0.848292
6724.000000;0.846040
6723.000000;0.843850
6722.000000;0.841607
6721.000000;0.839261
6720.000000;0.836899
6719.000000;0.834611
6718.000000;0.832376
6717.000000;0.830165
6716.000000;0.827984
6715.000000;0.825845
6714.000000;0.823672
6713.000000;0.821367
6712.000000;0.818949
6711.000000;0.816537
6710.000000;0.814207
6709.000000;0.812031
6708.000000;0.809973
6707.000000;0.807877
6706.000000;0.805674
6705.000000;0.803439
6704.000000;0.801340
6703.000000;0.799415
6702.000000;0.797514
6701.000000;0.795497
6700.000000;0.793402
6699.000000;0.791331
6698.000000;0.789265
6697.000000;0.787102
6696.000000;0.784830
6695.000000;0.782551
6694.000000;0.780360
6693.000000;0.778263
6692.000000;0.776198
6691.000000;0.774061
6690.000000;0.771768
6689.000000;0.769357
6688.000000;0.767002
6687.000000;0.764837
6686.000000;0.762811
6685.000000;0.760768
6684.000000;0.758637
6683.000000;0.756489
6682.000000;0.754421
6681.000000;0.752460
6680.000000;0.750544
6679.000000;0.748560
6678.000000;0.746407
6677.000000;0.744107
6676.000000;0.741825
6675.000000;0.739720
6674.000000;0.737795
6673.000000;0.735938
6672.000000;0.734052
6671.000000;0.732104
6670.000000;0.730065
6669.000000;0.727904
6668.000000;0.725657
6667.000000;0.723426
6666.000000;0.721299
6665.000000;0.719279
6664.000000;0.717294
6663.000000;0.715238
6662.000000;0.713048
6661.000000;0.710767
6660.000000;0.708549
6659.000000;0.706535
6658.000000;0.704736
6657.000000;0.703028
6656.000000;0.701252
6655.000000;0.699321
6654.000000;0.697269
6653.000000;0.695236
6652.000000;0.693351
6651.000000;0.691610
6650.000000;0.689872
6649.000000;0.688000
6648.000000;0.685970
6647.000000;0.683848
6646.000000;0.681719
6645.000000;0.679661
6644.000000;0.677741
6643.000000;0.675965
6642.000000;0.674244
6641.000000;0.672468
6640.000000;0.670591
6639.000000;0.668638
6638.000000;0.666644
6637.000000;0.664633
6636.000000;0.662618
6635.000000;0.660606
6634.000000;0.658608
6633.000000;0.656655
6632.000000;0.654769
6631.000000;0.652920
6630.000000;0.651047
6629.000000;0.649145
6628.000000;0.647273
6627.000000;0.645471
6626.000000;0.643710
6625.000000;0.641968
6624.000000;0.640264
6623.000000;0.638595
6622.000000;0.636874
6621.000000;0.635014
6620.000000;0.633032
6619.000000;0.631033
6618.000000;0.629100
6617.000000;0.627240
6616.000000;0.625431
6615.000000;0.623673
6614.000000;0.621997
6613.000000;0.620416
6612.000000;0.618867
6611.000000;0.617235
6610.000000;0.615472
6609.000000;0.613673
6608.000000;0.611964
6607.000000;0.610331
6606.000000;0.608634
6605.000000;0.606800
6604.000000;0.604897
6603.000000;0.603007
6602.000000;0.601130
6601.000000;0.599265
6600.000000;0.597493
6599.000000;0.595888
6598.000000;0.594406
6597.000000;0.592926
6596.000000;0.591369
6595.000000;0.589719
6594.000000;0.587990
6593.000000;0.586231
6592.000000;0.584512
6591.000000;0.582853
6590.000000;0.581200
6589.000000;0.579520
6588.000000;0.577872
6587.000000;0.576309
6586.000000;0.574783
6585.000000;0.573191
6584.000000;0.571503
6583.000000;0.569755
6582.000000;0.567975
6581.000000;0.566185
6580.000000;0.564451
6579.000000;0.562844
6578.000000;0.561365
6577.000000;0.559946
6576.000000;0.558518
6575.000000;0.557049
6574.000000;0.555523
6573.000000;0.553954
6572.000000;0.552391
6571.000000;0.550875
6570.000000;0.549396
6569.000000;0.547922
6568.000000;0.546438
6567.000000;0.544940
6566.000000;0.543410
6565.000000;0.541850
6564.000000;0.540302
6563.000000;0.538797
6562.000000;0.537313
6561.000000;0.535815
6560.000000;0.534307
6559.000000;0.532797
6558.000000;0.531274
6557.000000;0.529746
6556.000000;0.528267
6555.000000;0.526860
6554.000000;0.525448
6553.000000;0.523945
6552.000000;0.522382
6551.000000;0.520878
6550.000000;0.519494
6549.000000;0.518171
6548.000000;0.516815
6547.000000;0.515382
6546.000000;0.513890
6545.000000;0.512406
6544.000000;0.510999
6543.000000;0.509683
6542.000000;0.508396
6541.000000;0.507074
6540.000000;0.505719
6539.000000;0.504362
6538.000000;0.502991
6537.000000;0.501580
6536.000000;0.500150
6535.000000;0.498747
6534.000000;0.497376
6533.000000;0.496009
6532.000000;0.494640
6531.000000;0.493292
6530.000000;0.491968
6529.000000;0.490663
6528.000000;0.489404
6527.000000;0.488208
6526.000000;0.487021
6525.000000;0.485738
6524.000000;0.484321
6523.000000;0.482839
6522.000000;0.481406
6521.000000;0.480090
6520.000000;0.478888
6519.000000;0.477736
6518.000000;0.476548
6517.000000;0.475289
6516.000000;0.473993
6515.000000;0.472715
6514.000000;0.471459
6513.000000;0.470193
6512.000000;0.468914
6511.000000;0.467642
6510.000000;0.466377
6509.000000;0.465111
6508.000000;0.463871
6507.000000;0.462699
6506.000000;0.461576
6505.000000;0.460431
6504.000000;0.459223
6503.000000;0.457980
6502.000000;0.456754
6501.000000;0.455572
6500.000000;0.454432
6499.000000;0.453308
6498.000000;0.452157
6497.000000;0.450947
6496.000000;0.449699
6495.000000;0.448455
6494.000000;0.447226
6493.000000;0.445997
6492.000000;0.444778
6491.000000;0.443608
6490.000000;0.442503
6489.000000;0.441437
6488.000000;0.440377
6487.000000;0.439314
6486.000000;0.438251
6485.000000;0.437187
6484.000000;0.436118
6483.000000;0.435034
6482.000000;0.433913
6481.000000;0.432747
6480.000000;0.431570
6479.000000;0.430436
6478.000000;0.429367
6477.000000;0.428338
6476.000000;0.427312
6475.000000;0.426262
6474.000000;0.425178
6473.000000;0.424074
6472.000000;0.422984
6471.000000;0.421930
6470.000000;0.420899
6469.000000;0.419867
6468.000000;0.418833
6467.000000;0.417804
6466.000000;0.416771
6465.000000;0.415726
6464.000000;0.414690
6463.000000;0.413679
6462.000000;0.412675
6461.000000;0.411650
6460.000000;0.410630
6459.000000;0.409665
6458.000000;0.408743
6457.000000;0.407791
6456.000000;0.406762
6455.000000;0.405700
6454.000000;0.404681
6453.000000;0.403732
6452.000000;0.402822
6451.000000;0.401902
6450.000000;0.400949
6449.000000;0.399966
6448.000000;0.398974
6447.000000;0.397989
6446.000000;0.397007
6445.000000;0.396012
6444.000000;0.395005
6443.000000;0.394001
6442.000000;0.393013
6441.000000;0.392050
6440.000000;0.391120
6439.000000;0.390219
6438.000000;0.389328
6437.000000;0.388439
6436.000000;0.387575
6435.000000;0.386741
6434.000000;0.385893
6433.000000;0.384969
6432.000000;0.383966
6431.000000;0.382943
6430.000000;0.381961
6429.000000;0.381035
6428.000000;0.380156
6427.000000;0.379314
6426.000000;0.378481
6425.000000;0.377615
6424.000000;0.376699
6423.000000;0.375763
6422.000000;0.374860
6421.000000;0.374018
6420.000000;0.373225
6419.000000;0.372451
6418.000000;0.371665
6417.000000;0.370843
6416.000000;0.369976
6415.000000;0.369085
6414.000000;0.368214
6413.000000;0.367400
6412.000000;0.366635
6411.000000;0.365864
6410.000000;0.365036
6409.000000;0.364151
6408.000000;0.363254
6407.000000;0.362383
6406.000000;0.361548
6405.000000;0.360765
6404.000000;0.360048
6403.000000;0.359378
6402.000000;0.358681
6401.000000;0.357897
6400.000000;0.357042
6399.000000;0.356182
6398.000000;0.355367
6397.000000;0.354609
6396.000000;0.353900
6395.000000;0.353224
6394.000000;0.352551
6393.000000;0.351844
6392.000000;0.351076
6391.000000;0.350231
6390.000000;0.349320
6389.000000;0.348395
6388.000000;0.347538
6387.000000;0.346802
6386.000000;0.346161
6385.000000;0.345541
6384.000000;0.344889
6383.000000;0.344185
6382.000000;0.343436
6381.000000;0.342662
6380.000000;0.341904
6379.000000;0.341186
6378.000000;0.340490
6377.000000;0.339784
6376.000000;0.339068
6375.000000;0.338371
6374.000000;0.337694
6373.000000;0.337008
6372.000000;0.336294
6371.000000;0.335566
6370.000000;0.334848
6369.000000;0.334147
6368.000000;0.333465
6367.000000;0.332797
6366.000000;0.332139
6365.000000;0.331495
6364.000000;0.330876
6363.000000;0.330280
6362.000000;0.329666
6361.000000;0.328984
6360.000000;0.328237
6359.000000;0.327485
6358.000000;0.326786
6357.000000;0.326146
6356.000000;0.325528
6355.000000;0.324902
6354.000000;0.324272
6353.000000;0.323674
6352.000000;0.323133
6351.000000;0.322634
6350.000000;0.322124
6349.000000;0.321563
6348.000000;0.320958
6347.000000;0.320340
6346.000000;0.319718
6345.000000;0.319081
6344.000000;0.318429
6343.000000;0.317793
6342.000000;0.317206
6341.000000;0.316668
6340.000000;0.316139
6339.000000;0.315569
6338.000000;0.314938
6337.000000;0.314280
6336.000000;0.313645
6335.000000;0.313043
6334.000000;0.312442
6333.000000;0.311827
6332.000000;0.311227
6331.000000;0.310674
6330.000000;0.310152
6329.000000;0.309619
6328.000000;0.309057
6327.000000;0.308481
6326.000000;0.307900
6325.000000;0.307320
6324.000000;0.306748
6323.000000;0.306190
6322.000000;0.305633
6321.000000;0.305064
6320.000000;0.304492
6319.000000;0.303932
6318.000000;0.303377
6317.000000;0.302811
6316.000000;0.302236
6315.000000;0.301675
6314.000000;0.301138
6313.000000;0.300627
6312.000000;0.300145
6311.000000;0.299691
6310.000000;0.299246
6309.000000;0.298786
6308.000000;0.298306
6307.000000;0.297808
6306.000000;0.297289
6305.000000;0.296742
6304.000000;0.296184
6303.000000;0.295649
6302.000000;0.295149
6301.000000;0.294662
6300.000000;0.294162
6299.000000;0.293647
6298.000000;0.293133
6297.000000;0.292642
6296.000000;0.292189
6295.000000;0.291770
6294.000000;0.291355
6293.000000;0.290918
6292.000000;0.290455
6291.000000;0.289972
6290.000000;0.289474
6289.000000;0.288977
6288.000000;0.288503
6287.000000;0.288057
6286.000000;0.287605
6285.000000;0.287124
6284.000000;0.286642
6283.000000;0.286202
6282.000000;0.285805
6281.000000;0.285412
6280.000000;0.285006
6279.000000;0.284597
6278.000000;0.284191
6277.000000;0.283762
6276.000000;0.283294
6275.000000;0.282797
6274.000000;0.282301
6273.000000;0.281832
6272.000000;0.281403
6271.000000;0.281002
6270.000000;0.280602
6269.000000;0.280188
6268.000000;0.279770
6267.000000;0.279364
6266.000000;0.278959
6265.000000;0.278536
6264.000000;0.278103
6263.000000;0.277693
6262.000000;0.277316
6261.000000;0.276942
6260.000000;0.276537
6259.000000;0.276093
6258.000000;0.275629
6257.000000;0.275177
6256.000000;0.274764
6255.000000;0.274400
6254.000000;0.274060
6253.000000;0.273709
6252.000000;0.273334
6251.000000;0.272951
6250.000000;0.272577
6249.000000;0.272216
6248.000000;0.271863
6247.000000;0.271507
6246.000000;0.271140
6245.000000;0.270766
6244.000000;0.270398
6243.000000;0.270032
6242.000000;0.269647
6241.000000;0.269238
6240.000000;0.268844
6239.000000;0.268502
6238.000000;0.268190
6237.000000;0.267842
6236.000000;0.267421
6235.000000;0.266954
6234.000000;0.266499
6233.000000;0.266096
6232.000000;0.265758
6231.000000;0.265475
6230.000000;0.265218
6229.000000;0.264945
6228.000000;0.264622
6227.000000;0.264246
6226.000000;0.263834
6225.000000;0.263419
6224.000000;0.263026
6223.000000;0.262660
6222.000000;0.262299
6221.000000;0.261927
6220.000000;0.261554
6219.000000;0.261198
6218.000000;0.260860
6217.000000;0.260529
6216.000000;0.260206
6215.000000;0.259898
6214.000000;0.259598
6213.000000;0.259289
6212.000000;0.258972
6211.000000;0.258672
6210.000000;0.258391
6209.000000;0.258098
6208.000000;0.257762
6207.000000;0.257390
6206.000000;0.257031
6205.000000;0.256729
6204.000000;0.256487
6203.000000;0.256256
6202.000000;0.255977
6201.000000;0.255632
6200.000000;0.255262
6199.000000;0.254927
6198.000000;0.254649
6197.000000;0.254407
6196.000000;0.254169
6195.000000;0.253909
6194.000000;0.253601
6193.000000;0.253233
6192.000000;0.252828
6191.000000;0.252430
6190.000000;0.252074
6189.000000;0.251762
6188.000000;0.251479
6187.000000;0.251215
6186.000000;0.250967
6185.000000;0.250734
6184.000000;0.250513
6183.000000;0.250294
6182.000000;0.250069
6181.000000;0.249836
6180.000000;0.249602
6179.000000;0.249366
6178.000000;0.249114
6177.000000;0.248835
6176.000000;0.248523
6175.000000;0.248183
6174.000000;0.247830
6173.000000;0.247498
6172.000000;0.247216
6171.000000;0.246985
6170.000000;0.246780
6169.000000;0.246580
6168.000000;0.246374
6167.000000;0.246128
6166.000000;0.245803
6165.000000;0.245406
6164.000000;0.245012
6163.000000;0.244693
6162.000000;0.244452
6161.000000;0.244236
6160.000000;0.244003
6159.000000;0.243746
6158.000000;0.243478
6157.000000;0.243219
6156.000000;0.242988
6155.000000;0.242794
6154.000000;0.242618
6153.000000;0.242439
6152.000000;0.242250
6151.000000;0.242054
6150.000000;0.241843
6149.000000;0.241604
6148.000000;0.241346
6147.000000;0.241079
6146.000000;0.240807
6145.000000;0.240542
6144.000000;0.240311
6143.000000;0.240123
6142.000000;0.239946
6141.000000;0.239742
6140.000000;0.239515
6139.000000;0.239294
6138.000000;0.239079
6137.000000;0.238845
6136.000000;0.238589
6135.000000;0.238335
6134.000000;0.238100
6133.000000;0.237882
6132.000000;0.237681
6131.000000;0.237505
6130.000000;0.237343
6129.000000;0.237171
6128.000000;0.236981
6127.000000;0.236778
6126.000000;0.236560
6125.000000;0.236320
6124.000000;0.236078
6123.000000;0.235859
6122.000000;0.235662
6121.000000;0.235458
6120.000000;0.235238
6119.000000;0.235029
6118.000000;0.234851
6117.000000;0.234691
6116.000000;0.234528
6115.000000;0.234355
6114.000000;0.234172
6113.000000;0.233975
6112.000000;0.233761
6111.000000;0.233534
6110.000000;0.233299
6109.000000;0.233068
6108.000000;0.232858
6107.000000;0.232678
6106.000000;0.232516
6105.000000;0.232355
6104.000000;0.232195
6103.000000;0.232050
6102.000000;0.231917
6101.000000;0.231771
6100.000000;0.231611
6099.000000;0.231456
6098.000000;0.231312
6097.000000;0.231157
6096.000000;0.230971
6095.000000;0.230761
6094.000000;0.230545
6093.000000;0.230333
6092.000000;0.230126
6091.000000;0.229927
6090.000000;0.229741
6089.000000;0.229569
6088.000000;0.229419
6087.000000;0.229299
6086.000000;0.229203
6085.000000;0.229105
6084.000000;0.228984
6083.000000;0.228836
6082.000000;0.228663
6081.000000;0.228465
6080.000000;0.228253
6079.000000;0.228045
6078.000000;0.227851
6077.000000;0.227669
6076.000000;0.227499
6075.000000;0.227358
6074.000000;0.227259
6073.000000;0.227198
6072.000000;0.227152
6071.000000;0.227089
6070.000000;0.226979
6069.000000;0.226811
6068.000000;0.226610
6067.000000;0.226422
6066.000000;0.226284
6065.000000;0.226196
6064.000000;0.226130
6063.000000;0.226053
6062.000000;0.225944
6061.000000;0.225805
6060.000000;0.225663
6059.000000;0.225552
6058.000000;0.225474
6057.000000;0.225395
6056.000000;0.225285
6055.000000;0.225145
6054.000000;0.224996
6053.000000;0.224845
6052.000000;0.224689
6051.000000;0.224533
6050.000000;0.224407
6049.000000;0.224334
6048.000000;0.224297
6047.000000;0.224249
6046.000000;0.224162
6045.000000;0.224054
6044.000000;0.223967
6043.000000;0.223909
6042.000000;0.223847
6041.000000;0.223747
6040.000000;0.223603
6039.000000;0.223431
6038.000000;0.223251
6037.000000;0.223077
6036.000000;0.222919
6035.000000;0.222775
6034.000000;0.222642
6033.000000;0.222528
6032.000000;0.222452
6031.000000;0.222417
6030.000000;0.222399
6029.000000;0.222373
6028.000000;0.222330
6027.000000;0.222267
6026.000000;0.222179
6025.000000;0.222067
6024.000000;0.221950
6023.000000;0.221848
6022.000000;0.221761
6021.000000;0.221676
6020.000000;0.221586
6019.000000;0.221492
6018.000000;0.221397
6017.000000;0.221321
6016.000000;0.221292
6015.000000;0.221314
6014.000000;0.221348
6013.000000;0.221340
6012.000000;0.221260
6011.000000;0.221115
6010.000000;0.220945
6009.000000;0.220808
6008.000000;0.220745
6007.000000;0.220748
6006.000000;0.220766
6005.000000;0.220764
6004.000000;0.220759
6003.000000;0.220773
6002.000000;0.220785
6001.000000;0.220759
6000.000000;0.220689
5999.000000;0.220613
5998.000000;0.220556
5997.000000;0.220518
5996.000000;0.220480
5995.000000;0.220431
5994.000000;0.220370
5993.000000;0.220315
5992.000000;0.220294
5991.000000;0.220313
5990.000000;0.220342
5989.000000;0.220357
5988.000000;0.220364
5987.000000;0.220375
5986.000000;0.220372
5985.000000;0.220334
5984.000000;0.220269
5983.000000;0.220202
5982.000000;0.220128
5981.000000;0.220033
5980.000000;0.219932
5979.000000;0.219867
5978.000000;0.219856
5977.000000;0.219884
5976.000000;0.219935
5975.000000;0.220006
5974.000000;0.220087
5973.000000;0.220158
5972.000000;0.220207
5971.000000;0.220248
5970.000000;0.220295
5969.000000;0.220349
5968.000000;0.220407
5967.000000;0.220460
5966.000000;0.220489
5965.000000;0.220488
5964.000000;0.220479
5963.000000;0.220494
5962.000000;0.220539
5961.000000;0.220590
5960.000000;0.220630
5959.000000;0.220665
5958.000000;0.220710
5957.000000;0.220774
5956.000000;0.220858
5955.000000;0.220940
5954.000000;0.220983
5953.000000;0.220966
5952.000000;0.220925
5951.000000;0.220918
5950.000000;0.220968
5949.000000;0.221051
5948.000000;0.221135
5947.000000;0.221214
5946.000000;0.221284
5945.000000;0.221339
5944.000000;0.221379
5943.000000;0.221420
5942.000000;0.221472
5941.000000;0.221535
5940.000000;0.221611
5939.000000;0.221704
5938.000000;0.221806
5937.000000;0.221897
5936.000000;0.221964
5935.000000;0.222019
5934.000000;0.222076
5933.000000;0.222147
5932.000000;0.222238
5931.000000;0.222345
5930.000000;0.222454
5929.000000;0.222552
5928.000000;0.222638
5927.000000;0.222721
5926.000000;0.222805
5925.000000;0.222893
5924.000000;0.222991
5923.000000;0.223097
5922.000000;0.223195
5921.000000;0.223273
5920.000000;0.223344
5919.000000;0.223428
5918.000000;0.223520
5917.000000;0.223596
5916.000000;0.223647
5915.000000;0.223684
5914.000000;0.223720
5913.000000;0.223757
5912.000000;0.223805
5911.000000;0.223878
5910.000000;0.223979
5909.000000;0.224101
5908.000000;0.224234
5907.000000;0.224370
5906.000000;0.224489
5905.000000;0.224572
5904.000000;0.224616
5903.000000;0.224630
5902.000000;0.224624
5901.000000;0.224611
5900.000000;0.224620
5899.000000;0.224680
5898.000000;0.224793
5897.000000;0.224940
5896.000000;0.225107
5895.000000;0.225278
5894.000000;0.225420
5893.000000;0.225510
5892.000000;0.225566
5891.000000;0.225632
5890.000000;0.225727
5889.000000;0.225840
5888.000000;0.225970
5887.000000;0.226129
5886.000000;0.226308
5885.000000;0.226473
5884.000000;0.226604
5883.000000;0.226717
5882.000000;0.226829
5881.000000;0.226935
5880.000000;0.227031
5879.000000;0.227131
5878.000000;0.227251
5877.000000;0.227389
5876.000000;0.227537
5875.000000;0.227701
5874.000000;0.227890
5873.000000;0.228096
5872.000000;0.228304
5871.000000;0.228504
5870.000000;0.228697
5869.000000;0.228888
5868.000000;0.229079
5867.000000;0.229270
5866.000000;0.229455
5865.000000;0.229622
5864.000000;0.229770
5863.000000;0.229905
5862.000000;0.230035
5861.000000;0.230175
5860.000000;0.230336
5859.000000;0.230519
5858.000000;0.230703
5857.000000;0.230875
5856.000000;0.231052
5855.000000;0.231259
5854.000000;0.231497
5853.000000;0.231737
5852.000000;0.231964
5851.000000;0.232185
5850.000000;0.232414
5849.000000;0.232658
5848.000000;0.232915
5847.000000;0.233184
5846.000000;0.233448
5845.000000;0.233697
5844.000000;0.233942
5843.000000;0.234205
5842.000000;0.234483
5841.000000;0.234749
5840.000000;0.234989
5839.000000;0.235230
5838.000000;0.235504
5837.000000;0.235807
5836.000000;0.236103
5835.000000;0.236357
5834.000000;0.236569
5833.000000;0.236770
5832.000000;0.236995
5831.000000;0.237257
5830.000000;0.237546
5829.000000;0.237853
5828.000000;0.238181
5827.000000;0.238528
5826.000000;0.238875
5825.000000;0.239201
5824.000000;0.239497
5823.000000;0.239769
5822.000000;0.240027
5821.000000;0.240286
5820.000000;0.240571
5819.000000;0.240897
5818.000000;0.241247
5817.000000;0.241591
5816.000000;0.241922
5815.000000;0.242251
5814.000000;0.242597
5813.000000;0.242966
5812.000000;0.243357
5811.000000;0.243760
5810.000000;0.244155
5809.000000;0.244533
5808.000000;0.244904
5807.000000;0.245277
5806.000000;0.245645
5805.000000;0.245994
5804.000000;0.246324
5803.000000;0.246642
5802.000000;0.246948
5801.000000;0.247245
5800.000000;0.247553
5799.000000;0.247899
5798.000000;0.248290
5797.000000;0.248711
5796.000000;0.249143
5795.000000;0.249562
5794.000000;0.249940
5793.000000;0.250276
5792.000000;0.250601
5791.000000;0.250949
5790.000000;0.251316
5789.000000;0.251673
5788.000000;0.252012
5787.000000;0.252359
5786.000000;0.252745
5785.000000;0.253180
5784.000000;0.253656
5783.000000;0.254148
5782.000000;0.254621
5781.000000;0.255053
5780.000000;0.255447
5779.000000;0.255818
5778.000000;0.256174
5777.000000;0.256535
5776.000000;0.256946
5775.000000;0.257448
5774.000000;0.258028
5773.000000;0.258626
5772.000000;0.259183
5771.000000;0.259673
5770.000000;0.260103
5769.000000;0.260506
5768.000000;0.260925
5767.000000;0.261379
5766.000000;0.261842
5765.000000;0.262277
5764.000000;0.262690
5763.000000;0.263126
5762.000000;0.263622
5761.000000;0.264177
5760.000000;0.264762
5759.000000;0.265338
5758.000000;0.265868
5757.000000;0.266334
5756.000000;0.266757
5755.000000;0.267172
5754.000000;0.267606
5753.000000;0.268072
5752.000000;0.268579
5751.000000;0.269120
5750.000000;0.269671
5749.000000;0.270202
5748.000000;0.270704
5747.000000;0.271187
5746.000000;0.271678
5745.000000;0.272212
5744.000000;0.272819
5743.000000;0.273480
5742.000000;0.274128
5741.000000;0.274708
5740.000000;0.275227
5739.000000;0.275726
5738.000000;0.276227
5737.000000;0.276746
5736.000000;0.277310
5735.000000;0.277941
5734.000000;0.278613
5733.000000;0.279282
5732.000000;0.279925
5731.000000;0.280545
5730.000000;0.281144
5729.000000;0.281734
5728.000000;0.282352
5727.000000;0.283025
5726.000000;0.283725
5725.000000;0.284397
5724.000000;0.285026
5723.000000;0.285634
5722.000000;0.286241
5721.000000;0.286857
5720.000000;0.287494
5719.000000;0.288152
5718.000000;0.288801
5717.000000;0.289414
5716.000000;0.290017
5715.000000;0.290661
5714.000000;0.291348
5713.000000;0.292040
5712.000000;0.292722
5711.000000;0.293412
5710.000000;0.294117
5709.000000;0.294813
5708.000000;0.295480
5707.000000;0.296121
5706.000000;0.296736
5705.000000;0.297326
5704.000000;0.297922
5703.000000;0.298573
5702.000000;0.299300
5701.000000;0.300085
5700.000000;0.300902
5699.000000;0.301730
5698.000000;0.302543
5697.000000;0.303300
5696.000000;0.303998
5695.000000;0.304665
5694.000000;0.305331
5693.000000;0.306000
5692.000000;0.306677
5691.000000;0.307366
5690.000000;0.308060
5689.000000;0.308747
5688.000000;0.309446
5687.000000;0.310191
5686.000000;0.310987
5685.000000;0.311797
5684.000000;0.312580
5683.000000;0.313324
5682.000000;0.314033
5681.000000;0.314712
5680.000000;0.315378
5679.000000;0.316052
5678.000000;0.316733
5677.000000;0.317409
5676.000000;0.318086
5675.000000;0.318784
5674.000000;0.319505
5673.000000;0.320233
5672.000000;0.320949
5671.000000;0.321652
5670.000000;0.322342
5669.000000;0.323029
5668.000000;0.323740
5667.000000;0.324500
5666.000000;0.325285
5665.000000;0.326047
5664.000000;0.326769
5663.000000;0.327475
5662.000000;0.328184
5661.000000;0.328885
5660.000000;0.329566
5659.000000;0.330232
5658.000000;0.330890
5657.000000;0.331543
5656.000000;0.332189
5655.000000;0.332826
5654.000000;0.333439
5653.000000;0.334020
5652.000000;0.334581
5651.000000;0.335142
5650.000000;0.335710
5649.000000;0.336281
5648.000000;0.336869
5647.000000;0.337487
5646.000000;0.338118
5645.000000;0.338749
5644.000000;0.339395
5643.000000;0.340073
5642.000000;0.340757
5641.000000;0.341398
5640.000000;0.341986
5639.000000;0.342554
5638.000000;0.343124
5637.000000;0.343699
5636.000000;0.344279
5635.000000;0.344864
5634.000000;0.345429
5633.000000;0.345951
5632.000000;0.346447
5631.000000;0.346944
5630.000000;0.347435
5629.000000;0.347904
5628.000000;0.348379
5627.000000;0.348912
5626.000000;0.349490
5625.000000;0.350042
5624.000000;0.350522
5623.000000;0.350959
5622.000000;0.351399
5621.000000;0.351844
5620.000000;0.352265
5619.000000;0.352640
5618.000000;0.352975
5617.000000;0.353286
5616.000000;0.353597
5615.000000;0.353919
5614.000000;0.354249
5613.000000;0.354589
5612.000000;0.354959
5611.000000;0.355371
5610.000000;0.355797
5609.000000;0.356190
5608.000000;0.356530
5607.000000;0.356834
5606.000000;0.357123
5605.000000;0.357421
5604.000000;0.357756
5603.000000;0.358125
5602.000000;0.358471
5601.000000;0.358746
5600.000000;0.358969
5599.000000;0.359197
5598.000000;0.359438
5597.000000;0.359673
5596.000000;0.359913
5595.000000;0.360189
5594.000000;0.360483
5593.000000;0.360751
5592.000000;0.360991
5591.000000;0.361237
5590.000000;0.361475
5589.000000;0.361652
5588.000000;0.361769
5587.000000;0.361889
5586.000000;0.362040
5585.000000;0.362189
5584.000000;0.362314
5583.000000;0.362433
5582.000000;0.362548
5581.000000;0.362633
5580.000000;0.362700
5579.000000;0.362803
5578.000000;0.362954
5577.000000;0.363094
5576.000000;0.363175
5575.000000;0.363215
5574.000000;0.363246
5573.000000;0.363269
5572.000000;0.363287
5571.000000;0.363318
5570.000000;0.363368
5569.000000;0.363416
5568.000000;0.363451
5567.000000;0.363492
5566.000000;0.363547
5565.000000;0.363602
5564.000000;0.363655
5563.000000;0.363722
5562.000000;0.363779
5561.000000;0.363783
5560.000000;0.363742
5559.000000;0.363709
5558.000000;0.363694
5557.000000;0.363652
5556.000000;0.363577
5555.000000;0.363527
5554.000000;0.363536
5553.000000;0.363571
5552.000000;0.363585
5551.000000;0.363570
5550.000000;0.363531
5549.000000;0.363475
5548.000000;0.363435
5547.000000;0.363446
5546.000000;0.363489
5545.000000;0.363502
5544.000000;0.363472
5543.000000;0.363433
5542.000000;0.363392
5541.000000;0.363329
5540.000000;0.363247
5539.000000;0.363176
5538.000000;0.363127
5537.000000;0.363102
5536.000000;0.363116
5535.000000;0.363157
5534.000000;0.363160
5533.000000;0.363082
5532.000000;0.362966
5531.000000;0.362874
5530.000000;0.362790
5529.000000;0.362679
5528.000000;0.362579
5527.000000;0.362564
5526.000000;0.362624
5525.000000;0.362654
5524.000000;0.362609
5523.000000;0.362545
5522.000000;0.362514
5521.000000;0.362516
5520.000000;0.362523
5519.000000;0.362511
5518.000000;0.362460
5517.000000;0.362370
5516.000000;0.362286
5515.000000;0.362249
5514.000000;0.362231
5513.000000;0.362215
5512.000000;0.362260
5511.000000;0.362401
5510.000000;0.362539
5509.000000;0.362565
5508.000000;0.362516
5507.000000;0.362511
5506.000000;0.362550
5505.000000;0.362525
5504.000000;0.362437
5503.000000;0.362412
5502.000000;0.362497
5501.000000;0.362638
5500.000000;0.362771
5499.000000;0.362891
5498.000000;0.363072
5497.000000;0.363364
5496.000000;0.363719
5495.000000;0.364007
5494.000000;0.364152
5493.000000;0.364233
5492.000000;0.364352
5491.000000;0.364493
5490.000000;0.364548
5489.000000;0.364472
5488.000000;0.364342
5487.000000;0.364239
5486.000000;0.364183
5485.000000;0.364164
5484.000000;0.364248
5483.000000;0.364498
5482.000000;0.364780
5481.000000;0.364981
5480.000000;0.365246
5479.000000;0.365719
5478.000000;0.366261
5477.000000;0.366621
5476.000000;0.366812
5475.000000;0.367007
5474.000000;0.367189
5473.000000;0.367270
5472.000000;0.367341
5471.000000;0.367520
5470.000000;0.367742
5469.000000;0.367971
5468.000000;0.368310
5467.000000;0.368772
5466.000000;0.369227
5465.000000;0.369629
5464.000000;0.370119
5463.000000;0.370738
5462.000000;0.371235
5461.000000;0.371495
5460.000000;0.371784
5459.000000;0.372252
5458.000000;0.372668
5457.000000;0.372889
5456.000000;0.373142
5455.000000;0.373631
5454.000000;0.374293
5453.000000;0.375004
5452.000000;0.375753
5451.000000;0.376528
5450.000000;0.377264
5449.000000;0.378048
5448.000000;0.378934
5447.000000;0.379702
5446.000000;0.380239
5445.000000;0.380798
5444.000000;0.381583
5443.000000;0.382413
5442.000000;0.383002
5441.000000;0.383427
5440.000000;0.384058
5439.000000;0.385048
5438.000000;0.386182
5437.000000;0.387236
5436.000000;0.388197
5435.000000;0.389094
5434.000000;0.389998
5433.000000;0.391109
5432.000000;0.392447
5431.000000;0.393691
5430.000000;0.394671
5429.000000;0.395639
5428.000000;0.396748
5427.000000;0.397808
5426.000000;0.398701
5425.000000;0.399591
5424.000000;0.400702
5423.000000;0.402086
5422.000000;0.403675
5421.000000;0.405341
5420.000000;0.407000
5419.000000;0.408742
5418.000000;0.410670
5417.000000;0.412708
5416.000000;0.414641
5415.000000;0.416407
5414.000000;0.418185
5413.000000;0.420059
5412.000000;0.421890
5411.000000;0.423559
5410.000000;0.425144
5409.000000;0.426842
5408.000000;0.428757
5407.000000;0.430829
5406.000000;0.432921
5405.000000;0.435036
5404.000000;0.437310
5403.000000;0.439729
5402.000000;0.442279
5401.000000;0.444989
5400.000000;0.447748
5399.000000;0.450546
5398.000000;0.453480
5397.000000;0.456538
5396.000000;0.459616
5395.000000;0.462705
5394.000000;0.465951
5393.000000;0.469331
5392.000000;0.472657
5391.000000;0.475963
5390.000000;0.479447
5389.000000;0.483116
5388.000000;0.486812
5387.000000;0.490525
5386.000000;0.494429
5385.000000;0.498643
5384.000000;0.503008
5383.000000;0.507294
5382.000000;0.511659
5381.000000;0.516375
5380.000000;0.521326
5379.000000;0.526240
5378.000000;0.531157
5377.000000;0.536292
5376.000000;0.541600
5375.000000;0.546922
5374.000000;0.552382
5373.000000;0.558137
5372.000000;0.564072
5371.000000;0.570053
5370.000000;0.576158
5369.000000;0.582520
5368.000000;0.589148
5367.000000;0.596012
5366.000000;0.603098
5365.000000;0.610395
5364.000000;0.617816
5363.000000;0.625342
5362.000000;0.633180
5361.000000;0.641386
5360.000000;0.649723
5359.000000;0.658128
5358.000000;0.666900
5357.000000;0.676200
5356.000000;0.685745
5355.000000;0.695347
5354.000000;0.705307
5353.000000;0.715864
5352.000000;0.726608
5351.000000;0.737021
5350.000000;0.747344
5349.000000;0.758263
5348.000000;0.769932
5347.000000;0.781948
5346.000000;0.794113
5345.000000;0.806610
5344.000000;0.819464
5343.000000;0.832437
5342.000000;0.845480
5341.000000;0.858617
5340.000000;0.871850
5339.000000;0.885553
5338.000000;0.900212
5337.000000;0.915723
5336.000000;0.931423
5335.000000;0.946861
5334.000000;0.962220
5333.000000;0.977987
5332.000000;0.994296
5331.000000;1.010848
5330.000000;1.027561
5329.000000;1.044679
5328.000000;1.062322
5327.000000;1.080428
5326.000000;1.098872
5325.000000;1.117354
5324.000000;1.135530
5323.000000;1.153466
5322.000000;1.171735
5321.000000;1.190710
5320.000000;1.210001
5319.000000;1.229028
5318.000000;1.247865
5317.000000;1.266946
5316.000000;1.286223
5315.000000;1.305295
5314.000000;1.324071
5313.000000;1.342830
5312.000000;1.361655
5311.000000;1.380293
5310.000000;1.398642
5309.000000;1.416843
5308.000000;1.434811
5307.000000;1.452086
5306.000000;1.468286
5305.000000;1.483403
5304.000000;1.497650
5303.000000;1.511427
5302.000000;1.525205
5301.000000;1.538924
5300.000000;1.551861
5299.000000;1.563636
5298.000000;1.574816
5297.000000;1.585886
5296.000000;1.596455
5295.000000;1.606084
5294.000000;1.614993
5293.000000;1.623420
5292.000000;1.631136
5291.000000;1.638246
5290.000000;1.645517
5289.000000;1.652992
5288.000000;1.659421
5287.000000;1.664004
5286.000000;1.667730
5285.000000;1.671998
5284.000000;1.676735
5283.000000;1.681041
5282.000000;1.684815
5281.000000;1.688409
5280.000000;1.691497
5279.000000;1.693694
5278.000000;1.695591
5277.000000;1.697837
5276.000000;1.699901
5275.000000;1.701068
5274.000000;1.701886
5273.000000;1.703369
5272.000000;1.705448
5271.000000;1.707255
5270.000000;1.708577
5269.000000;1.709914
5268.000000;1.711374
5267.000000;1.712688
5266.000000;1.713989
5265.000000;1.715608
5264.000000;1.717349
5263.000000;1.718834
5262.000000;1.720110
5261.000000;1.721188
5260.000000;1.721694
5259.000000;1.721685
5258.000000;1.721948
5257.000000;1.722808
5256.000000;1.723473
5255.000000;1.723283
5254.000000;1.722947
5253.000000;1.723605
5252.000000;1.725351
5251.000000;1.727497
5250.000000;1.729841
5249.000000;1.732548
5248.000000;1.734852
5247.000000;1.735633
5246.000000;1.735249
5245.000000;1.735172
5244.000000;1.735966
5243.000000;1.736920
5242.000000;1.737423
5241.000000;1.737557
5240.000000;1.737408
5239.000000;1.736810
5238.000000;1.735912
5237.000000;1.735292
5236.000000;1.735297
5235.000000;1.735621
5234.000000;1.735770
5233.000000;1.735553
5232.000000;1.735016
5231.000000;1.734472
5230.000000;1.734608
5229.000000;1.735957
5228.000000;1.738201
5227.000000;1.740473
5226.000000;1.742102
5225.000000;1.742644
5224.000000;1.741851
5223.000000;1.740263
5222.000000;1.739174
5221.000000;1.739344
5220.000000;1.740145
5219.000000;1.740463
5218.000000;1.740051
5217.000000;1.739510
5216.000000;1.739228
5215.000000;1.739167
5214.000000;1.739495
5213.000000;1.740448
5212.000000;1.741785
5211.000000;1.743084
5210.000000;1.744235
5209.000000;1.745122
5208.000000;1.745296
5207.000000;1.744528
5206.000000;1.743301
5205.000000;1.742264
5204.000000;1.741610
5203.000000;1.741375
5202.000000;1.741824
5201.000000;1.742972
5200.000000;1.744171
5199.000000;1.744801
5198.000000;1.745068
5197.000000;1.745521
5196.000000;1.746008
5195.000000;1.745809
5194.000000;1.744620
5193.000000;1.742736
5192.000000;1.740703
5191.000000;1.739320
5190.000000;1.739401
5189.000000;1.740932
5188.000000;1.742834
5187.000000;1.744092
5186.000000;1.744752
5185.000000;1.745330
5184.000000;1.745763
5183.000000;1.745658
5182.000000;1.745160
5181.000000;1.744823
5180.000000;1.744874
5179.000000;1.745144
5178.000000;1.745407
5177.000000;1.745430
5176.000000;1.745008
5175.000000;1.744225
5174.000000;1.743295
5173.000000;1.742076
5172.000000;1.740343
5171.000000;1.738690
5170.000000;1.738268
5169.000000;1.739196
5168.000000;1.740067
5167.000000;1.739618
5166.000000;1.738189
5165.000000;1.736918
5164.000000;1.736292
5163.000000;1.736213
5162.000000;1.736745
5161.000000;1.737885
5160.000000;1.739058
5159.000000;1.739644
5158.000000;1.739696
5157.000000;1.739552
5156.000000;1.739209
5155.000000;1.738604
5154.000000;1.737987
5153.000000;1.737441
5152.000000;1.736619
5151.000000;1.735479
5150.000000;1.734667
5149.000000;1.734543
5148.000000;1.734459
5147.000000;1.733764
5146.000000;1.732873
5145.000000;1.732493
5144.000000;1.732372
5143.000000;1.731863
5142.000000;1.731278
5141.000000;1.731495
5140.000000;1.732402
5139.000000;1.732842
5138.000000;1.732255
5137.000000;1.731372
5136.000000;1.731061
5135.000000;1.731308
5134.000000;1.731590
5133.000000;1.731611
5132.000000;1.731408
5131.000000;1.731139
5130.000000;1.730979
5129.000000;1.730877
5128.000000;1.730450
5127.000000;1.729452
5126.000000;1.728220
5125.000000;1.727278
5124.000000;1.726659
5123.000000;1.726070
5122.000000;1.725570
5121.000000;1.725474
5120.000000;1.725622
5119.000000;1.725366
5118.000000;1.724514
5117.000000;1.723727
5116.000000;1.723659
5115.000000;1.724062
5114.000000;1.724111
5113.000000;1.723433
5112.000000;1.722459
5111.000000;1.721746
5110.000000;1.721247
5109.000000;1.720457
5108.000000;1.719178
5107.000000;1.717809
5106.000000;1.716764
5105.000000;1.715961
5104.000000;1.715158
5103.000000;1.714569
5102.000000;1.714680
5101.000000;1.715438
5100.000000;1.716090
5099.000000;1.715978
5098.000000;1.715181
5097.000000;1.714256
5096.000000;1.713660
5095.000000;1.713589
5094.000000;1.714003
5093.000000;1.714620
5092.000000;1.715084
5091.000000;1.715217
5090.000000;1.714912
5089.000000;1.713891
5088.000000;1.712037
5087.000000;1.709974
5086.000000;1.708782
5085.000000;1.708898
5084.000000;1.709709
5083.000000;1.710345
5082.000000;1.710440
5081.000000;1.709924
5080.000000;1.708643
5079.000000;1.706644
5078.000000;1.704492
5077.000000;1.702809
5076.000000;1.701664
5075.000000;1.700661
5074.000000;1.699508
5073.000000;1.698314
5072.000000;1.697470
5071.000000;1.697358
5070.000000;1.697962
5069.000000;1.698690
5068.000000;1.698861
5067.000000;1.698462
5066.000000;1.698150
5065.000000;1.698464
5064.000000;1.699317
5063.000000;1.700247
5062.000000;1.700740
5061.000000;1.700314
5060.000000;1.698816
5059.000000;1.696792
5058.000000;1.695047
5057.000000;1.693732
5056.000000;1.692360
5055.000000;1.690821
5054.000000;1.689690
5053.000000;1.689264
5052.000000;1.688983
5051.000000;1.688277
5050.000000;1.687459
5049.000000;1.687219
5048.000000;1.687603
5047.000000;1.688080
5046.000000;1.688307
5045.000000;1.688251
5044.000000;1.687739
5043.000000;1.686465
5042.000000;1.684472
5041.000000;1.682219
5040.000000;1.680233
5039.000000;1.678968
5038.000000;1.678781
5037.000000;1.679598
5036.000000;1.680606
5035.000000;1.680689
5034.000000;1.679337
5033.000000;1.676982
5032.000000;1.674497
5031.000000;1.672573
5030.000000;1.671486
5029.000000;1.671092
5028.000000;1.670859
5027.000000;1.670130
5026.000000;1.668614
5025.000000;1.666716
5024.000000;1.665236
5023.000000;1.664586
5022.000000;1.664321
5021.000000;1.663618
5020.000000;1.662283
5019.000000;1.661005
5018.000000;1.660434
5017.000000;1.660314
5016.000000;1.659860
5015.000000;1.658769
5014.000000;1.657411
5013.000000;1.656140
5012.000000;1.654924
5011.000000;1.653665
5010.000000;1.652469
5009.000000;1.651513
5008.000000;1.650899
5007.000000;1.650553
5006.000000;1.649881
5005.000000;1.647865
5004.000000;1.644094
5003.000000;1.639775
5002.000000;1.636990
5001.000000;1.636557
5000.000000;1.637258
4999.000000;1.637211
4998.000000;1.635717
4997.000000;1.633479
4996.000000;1.631502
4995.000000;1.630213
4994.000000;1.629367
4993.000000;1.628422
4992.000000;1.627075
4991.000000;1.625583
4990.000000;1.624411
4989.000000;1.623571
4988.000000;1.622659
4987.000000;1.621505
4986.000000;1.620349
4985.000000;1.619230
4984.000000;1.617677
4983.000000;1.615299
4982.000000;1.612300
4981.000000;1.609213
4980.000000;1.606439
4979.000000;1.604237
4978.000000;1.602789
4977.000000;1.601884
4976.000000;1.600858
4975.000000;1.599162
4974.000000;1.596865
4973.000000;1.594388
4972.000000;1.591953
4971.000000;1.589589
4970.000000;1.587408
4969.000000;1.585544
4968.000000;1.583879
4967.000000;1.582105
4966.000000;1.580071
4965.000000;1.577956
4964.000000;1.576122
4963.000000;1.574807
4962.000000;1.573828
4961.000000;1.572601
4960.000000;1.570645
4959.000000;1.568106
4958.000000;1.565576
4957.000000;1.563326
4956.000000;1.561067
4955.000000;1.558497
4954.000000;1.555809
4953.000000;1.553455
4952.000000;1.551579
4951.000000;1.549900
4950.000000;1.547994
4949.000000;1.545628
4948.000000;1.542911
4947.000000;1.540244
4946.000000;1.537947
4945.000000;1.535920
4944.000000;1.533794
4943.000000;1.531389
4942.000000;1.528821
4941.000000;1.526214
4940.000000;1.523585
4939.000000;1.520977
4938.000000;1.518379
4937.000000;1.515557
4936.000000;1.512324
4935.000000;1.509027
4934.000000;1.506350
4933.000000;1.504519
4932.000000;1.503016
4931.000000;1.501189
4930.000000;1.498804
4929.000000;1.495899
4928.000000;1.492562
4927.000000;1.489111
4926.000000;1.486108
4925.000000;1.483808
4924.000000;1.481812
4923.000000;1.479550
4922.000000;1.476957
4921.000000;1.474408
4920.000000;1.472134
4919.000000;1.469978
4918.000000;1.467579
4917.000000;1.464612
4916.000000;1.460982
4915.000000;1.457052
4914.000000;1.453544
4913.000000;1.450954
4912.000000;1.449057
4911.000000;1.447159
4910.000000;1.444807
4909.000000;1.442121
4908.000000;1.439464
4907.000000;1.436977
4906.000000;1.434460
4905.000000;1.431615
4904.000000;1.428365
4903.000000;1.424914
4902.000000;1.421491
4901.000000;1.418141
4900.000000;1.414834
4899.000000;1.411655
4898.000000;1.408695
4897.000000;1.405825
4896.000000;1.402870
4895.000000;1.399951
4894.000000;1.397319
4893.000000;1.394813
4892.000000;1.391872
4891.000000;1.388289
4890.000000;1.384639
4889.000000;1.381644
4888.000000;1.379351
4887.000000;1.377157
4886.000000;1.374508
4885.000000;1.371342
4884.000000;1.367975
4883.000000;1.364806
4882.000000;1.362084
4881.000000;1.359715
4880.000000;1.357261
4879.000000;1.354309
4878.000000;1.350853
4877.000000;1.347250
4876.000000;1.343854
4875.000000;1.340795
4874.000000;1.337998
4873.000000;1.335230
4872.000000;1.332184
4871.000000;1.328697
4870.000000;1.324918
4869.000000;1.321197
4868.000000;1.317808
4867.000000;1.314842
4866.000000;1.312270
4865.000000;1.309937
4864.000000;1.307533
4863.000000;1.304749
4862.000000;1.301573
4861.000000;1.298366
4860.000000;1.295497
4859.000000;1.292889
4858.000000;1.290016
4857.000000;1.286448
4856.000000;1.282407
4855.000000;1.278634
4854.000000;1.275648
4853.000000;1.273233
4852.000000;1.270739
4851.000000;1.267787
4850.000000;1.264554
4849.000000;1.261432
4848.000000;1.258615
4847.000000;1.256002
4846.000000;1.253296
4845.000000;1.250172
4844.000000;1.246555
4843.000000;1.242798
4842.000000;1.239436
4841.000000;1.236680
4840.000000;1.234225
4839.000000;1.231613
4838.000000;1.228625
4837.000000;1.225351
4836.000000;1.222011
4835.000000;1.218827
4834.000000;1.215896
4833.000000;1.213069
4832.000000;1.210060
4831.000000;1.206778
4830.000000;1.203452
4829.000000;1.200352
4828.000000;1.197506
4827.000000;1.194760
4826.000000;1.191984
4825.000000;1.189110
4824.000000;1.186103
4823.000000;1.183028
4822.000000;1.180071
4821.000000;1.177320
4820.000000;1.174588
4819.000000;1.171583
4818.000000;1.168257
4817.000000;1.164869
4816.000000;1.161734
4815.000000;1.158969
4814.000000;1.156463
4813.000000;1.153973
4812.000000;1.151247
4811.000000;1.148212
4810.000000;1.144986
4809.000000;1.141724
4808.000000;1.138449
4807.000000;1.135123
4806.000000;1.131843
4805.000000;1.128788
4804.000000;1.126012
4803.000000;1.123358
4802.000000;1.120586
4801.000000;1.117548
4800.000000;1.114255
4799.000000;1.110864
4798.000000;1.107609
4797.000000;1.104655
4796.000000;1.101959
4795.000000;1.099329
4794.000000;1.096607
4793.000000;1.093779
4792.000000;1.090915
4791.000000;1.088077
4790.000000;1.085321
4789.000000;1.082710
4788.000000;1.080244
4787.000000;1.077784
4786.000000;1.075115
4785.000000;1.072123
4784.000000;1.068901
4783.000000;1.065665
4782.000000;1.062595
4781.000000;1.059762
4780.000000;1.057163
4779.000000;1.054729
4778.000000;1.052304
4777.000000;1.049708
4776.000000;1.046895
4775.000000;1.044023
4774.000000;1.041260
4773.000000;1.038567
4772.000000;1.035745
4771.000000;1.032717
4770.000000;1.029658
4769.000000;1.026795
4768.000000;1.024157
4767.000000;1.021601
4766.000000;1.019032
4765.000000;1.016528
4764.000000;1.014207
4763.000000;1.012014
4762.000000;1.009717
4761.000000;1.007121
4760.000000;1.004278
4759.000000;1.001435
4758.000000;0.998785
4757.000000;0.996292
4756.000000;0.993770
4755.000000;0.991090
4754.000000;0.988275
4753.000000;0.985454
4752.000000;0.982783
4751.000000;0.980369
4750.000000;0.978194
4749.000000;0.976106
4748.000000;0.973916
4747.000000;0.971531
4746.000000;0.969000
4745.000000;0.966444
4744.000000;0.963984
4743.000000;0.961688
4742.000000;0.959523
4741.000000;0.957379
4740.000000;0.955150
4739.000000;0.952796
4738.000000;0.950314
4737.000000;0.947706
4736.000000;0.945042
4735.000000;0.942487
4734.000000;0.940173
4733.000000;0.938057
4732.000000;0.935967
4731.000000;0.933784
4730.000000;0.931499
4729.000000;0.929134
4728.000000;0.926710
4727.000000;0.924283
4726.000000;0.921921
4725.000000;0.919618
4724.000000;0.917305
4723.000000;0.914957
4722.000000;0.912622
4721.000000;0.910351
4720.000000;0.908163
4719.000000;0.906086
4718.000000;0.904136
4717.000000;0.902235
4716.000000;0.900240
4715.000000;0.898102
4714.000000;0.895911
4713.000000;0.893758
4712.000000;0.891623
4711.000000;0.889462
4710.000000;0.887309
4709.000000;0.885235
4708.000000;0.883254
4707.000000;0.881318
4706.000000;0.879372
4705.000000;0.877357
4704.000000;0.875231
4703.000000;0.873039
4702.000000;0.870925
4701.000000;0.868996
4700.000000;0.867183
4699.000000;0.865339
4698.000000;0.863436
4697.000000;0.861589
4696.000000;0.859886
4695.000000;0.858273
4694.000000;0.856642
4693.000000;0.854957
4692.000000;0.853235
4691.000000;0.851455
4690.000000;0.849556
4689.000000;0.847542
4688.000000;0.845544
4687.000000;0.843730
4686.000000;0.842149
4685.000000;0.840705
4684.000000;0.839252
4683.000000;0.837713
4682.000000;0.836082
4681.000000;0.834373
4680.000000;0.832594
4679.000000;0.830780
4678.000000;0.829002
4677.000000;0.827327
4676.000000;0.825761
4675.000000;0.824233
4674.000000;0.822631
4673.000000;0.820890
4672.000000;0.819079
4671.000000;0.817370
4670.000000;0.815889
4669.000000;0.814611
4668.000000;0.813398
4667.000000;0.812136
4666.000000;0.810793
4665.000000;0.809395
4664.000000;0.807991
4663.000000;0.806632
4662.000000;0.805308
4661.000000;0.803926
4660.000000;0.802410
4659.000000;0.800841
4658.000000;0.799419
4657.000000;0.798245
4656.000000;0.797197
4655.000000;0.796066
4654.000000;0.794780
4653.000000;0.793429
4652.000000;0.792111
4651.000000;0.790801
4650.000000;0.789408
4649.000000;0.787912
4648.000000;0.786430
4647.000000;0.785106
4646.000000;0.783957
4645.000000;0.782837
4644.000000;0.781614
4643.000000;0.780334
4642.000000;0.779169
4641.000000;0.778174
4640.000000;0.777174
4639.000000;0.775941
4638.000000;0.774462
4637.000000;0.772983
4636.000000;0.771782
4635.000000;0.770916
4634.000000;0.770197
4633.000000;0.769374
4632.000000;0.768337
4631.000000;0.767158
4630.000000;0.765969
4629.000000;0.764838
4628.000000;0.763776
4627.000000;0.762787
4626.000000;0.761888
4625.000000;0.761061
4624.000000;0.760246
4623.000000;0.759377
4622.000000;0.758429
4621.000000;0.757413
4620.000000;0.756375
4619.000000;0.755377
4618.000000;0.754458
4617.000000;0.753598
4616.000000;0.752763
4615.000000;0.751953
4614.000000;0.751198
4613.000000;0.750471
4612.000000;0.749682
4611.000000;0.748776
4610.000000;0.747825
4609.000000;0.746979
4608.000000;0.746317
4607.000000;0.745761
4606.000000;0.745131
4605.000000;0.744306
4604.000000;0.743342
4603.000000;0.742428
4602.000000;0.741726
4601.000000;0.741240
4600.000000;0.740845
4599.000000;0.740405
4598.000000;0.739846
4597.000000;0.739149
4596.000000;0.738330
4595.000000;0.737461
4594.000000;0.736648
4593.000000;0.735979
4592.000000;0.735469
4591.000000;0.735053
4590.000000;0.734635
4589.000000;0.734144
4588.000000;0.733599
4587.000000;0.733101
4586.000000;0.732741
4585.000000;0.732508
4584.000000;0.732294
4583.000000;0.732000
4582.000000;0.731598
4581.000000;0.731123
4580.000000;0.730646
4579.000000;0.730259
4578.000000;0.730032
4577.000000;0.729938
4576.000000;0.729851
4575.000000;0.729643
4574.000000;0.729308
4573.000000;0.728943
4572.000000;0.728634
4571.000000;0.728380
4570.000000;0.728136
4569.000000;0.727912
4568.000000;0.727791
4567.000000;0.727829
4566.000000;0.727969
4565.000000;0.728065
4564.000000;0.728014
4563.000000;0.727828
4562.000000;0.727599
4561.000000;0.727411
4560.000000;0.727302
4559.000000;0.727274
4558.000000;0.727300
4557.000000;0.727354
4556.000000;0.727446
4555.000000;0.727608
4554.000000;0.727845
4553.000000;0.728115
4552.000000;0.728386
4551.000000;0.728659
4550.000000;0.728937
4549.000000;0.729198
4548.000000;0.729461
4547.000000;0.729800
4546.000000;0.730268
4545.000000;0.730813
4544.000000;0.731331
4543.000000;0.731763
4542.000000;0.732105
4541.000000;0.732359
4540.000000;0.732539
4539.000000;0.732703
4538.000000;0.732922
4537.000000;0.733209
4536.000000;0.733532
4535.000000;0.733867
4534.000000;0.734210
4533.000000;0.734555
4532.000000;0.734921
4531.000000;0.735366
4530.000000;0.735880
4529.000000;0.736326
4528.000000;0.736577
4527.000000;0.736701
4526.000000;0.736915
4525.000000;0.737315
4524.000000;0.737775
4523.000000;0.738124
4522.000000;0.738340
4521.000000;0.738528
4520.000000;0.738771
4519.000000;0.739076
4518.000000;0.739411
4517.000000;0.739733
4516.000000;0.740016
4515.000000;0.740276
4514.000000;0.740560
4513.000000;0.740882
4512.000000;0.741213
4511.000000;0.741550
4510.000000;0.741947
4509.000000;0.742440
4508.000000;0.742983
4507.000000;0.743484
4506.000000;0.743886
4505.000000;0.744197
4504.000000;0.744488
4503.000000;0.744867
4502.000000;0.745417
4501.000000;0.746097
4500.000000;0.746736
4499.000000;0.747182
4498.000000;0.747460
4497.000000;0.747754
4496.000000;0.748239
4495.000000;0.748943
4494.000000;0.749758
4493.000000;0.750566
4492.000000;0.751318
4491.000000;0.752026
4490.000000;0.752693
4489.000000;0.753301
4488.000000;0.753880
4487.000000;0.754534
4486.000000;0.755362
4485.000000;0.756350
4484.000000;0.757382
4483.000000;0.758332
4482.000000;0.759126
4481.000000;0.759782
4480.000000;0.760422
4479.000000;0.761220
4478.000000;0.762256
4477.000000;0.763426
4476.000000;0.764574
4475.000000;0.765678
4474.000000;0.766818
4473.000000;0.767994
4472.000000;0.769098
4471.000000;0.770106
4470.000000;0.771154
4469.000000;0.772362
4468.000000;0.773670
4467.000000;0.774933
4466.000000;0.776127
4465.000000;0.777367
4464.000000;0.778765
4463.000000;0.780316
4462.000000;0.781920
4461.000000;0.783455
4460.000000;0.784840
4459.000000;0.786098
4458.000000;0.787346
4457.000000;0.788723
4456.000000;0.790293
4455.000000;0.792018
4454.000000;0.793780
4453.000000;0.795423
4452.000000;0.796829
4451.000000;0.798013
4450.000000;0.799142
4449.000000;0.800445
4448.000000;0.802069
4447.000000;0.803995
4446.000000;0.806028
4445.000000;0.807904
4444.000000;0.809466
4443.000000;0.810805
4442.000000;0.812188
4441.000000;0.813827
4440.000000;0.815720
4439.000000;0.817720
4438.000000;0.819670
4437.000000;0.821479
4436.000000;0.823146
4435.000000;0.824779
4434.000000;0.826554
4433.000000;0.828588
4432.000000;0.830834
4431.000000;0.833110
4430.000000;0.835238
4429.000000;0.837151
4428.000000;0.838934
4427.000000;0.840773
4426.000000;0.842832
4425.000000;0.845130
4424.000000;0.847528
4423.000000;0.849857
4422.000000;0.852050
4421.000000;0.854179
4420.000000;0.856356
4419.000000;0.858599
4418.000000;0.860782
4417.000000;0.862754
4416.000000;0.864556
4415.000000;0.866473
4414.000000;0.868792
4413.000000;0.871523
4412.000000;0.874394
4411.000000;0.877102
4410.000000;0.879497
4409.000000;0.881600
4408.000000;0.883563
4407.000000;0.885634
4406.000000;0.887988
4405.000000;0.890542
4404.000000;0.893030
4403.000000;0.895332
4402.000000;0.897614
4401.000000;0.900093
4400.000000;0.902751
4399.000000;0.905394
4398.000000;0.907908
4397.000000;0.910355
4396.000000;0.912867
4395.000000;0.915544
4394.000000;0.918425
4393.000000;0.921444
4392.000000;0.924410
4391.000000;0.927124
4390.000000;0.929551
4389.000000;0.931844
4388.000000;0.934198
4387.000000;0.936709
4386.000000;0.939342
4385.000000;0.941981
4384.000000;0.944499
4383.000000;0.946845
4382.000000;0.949114
4381.000000;0.951519
4380.000000;0.954262
4379.000000;0.957369
4378.000000;0.960626
4377.000000;0.963695
4376.000000;0.966391
4375.000000;0.968846
4374.000000;0.971374
4373.000000;0.974183
4372.000000;0.977267
4371.000000;0.980546
4370.000000;0.983975
4369.000000;0.987492
4368.000000;0.990932
4367.000000;0.994102
4366.000000;0.996940
4365.000000;0.999586
4364.000000;1.002297
4363.000000;1.005275
4362.000000;1.008508
4361.000000;1.011765
4360.000000;1.014833
4359.000000;1.017774
4358.000000;1.020879
4357.000000;1.024356
4356.000000;1.028145
4355.000000;1.032046
4354.000000;1.035906
4353.000000;1.039633
4352.000000;1.043115
4351.000000;1.046280
4350.000000;1.049201
4349.000000;1.052092
4348.000000;1.055184
4347.000000;1.058603
4346.000000;1.062331
4345.000000;1.066239
4344.000000;1.070195
4343.000000;1.074165
4342.000000;1.078162
4341.000000;1.082114
4340.000000;1.085886
4339.000000;1.089450
4338.000000;1.092951
4337.000000;1.096552
4336.000000;1.100290
4335.000000;1.104115
4334.000000;1.107972
4333.000000;1.111792
4332.000000;1.115509
4331.000000;1.119187
4330.000000;1.123069
4329.000000;1.127348
4328.000000;1.131898
4327.000000;1.136310
4326.000000;1.140253
4325.000000;1.143775
4324.000000;1.147253
4323.000000;1.151038
4322.000000;1.155135
4321.000000;1.159236
4320.000000;1.163083
4319.000000;1.166793
4318.000000;1.170755
4317.000000;1.175251
4316.000000;1.180278
4315.000000;1.185649
4314.000000;1.191060
4313.000000;1.196072
4312.000000;1.200279
4311.000000;1.203685
4310.000000;1.206792
4309.000000;1.210176
4308.000000;1.214038
4307.000000;1.218262
4306.000000;1.222760
4305.000000;1.227583
4304.000000;1.232747
4303.000000;1.238141
4302.000000;1.243619
4301.000000;1.249028
4300.000000;1.254117
4299.000000;1.258569
4298.000000;1.262241
4297.000000;1.265367
4296.000000;1.268471
4295.000000;1.272051
4294.000000;1.276281
4293.000000;1.280978
4292.000000;1.285843
4291.000000;1.290712
4290.000000;1.295563
4289.000000;1.300343
4288.000000;1.304885
4287.000000;1.309088
4286.000000;1.313142
4285.000000;1.317495
4284.000000;1.322496
4283.000000;1.328051
4282.000000;1.333701
4281.000000;1.339092
4280.000000;1.344299
4279.000000;1.349567
4278.000000;1.354825
4277.000000;1.359762
4276.000000;1.364445
4275.000000;1.369506
4274.000000;1.375421
4273.000000;1.381787
4272.000000;1.387589
4271.000000;1.392121
4270.000000;1.395462
4269.000000;1.398279
4268.000000;1.401466
4267.000000;1.405750
4266.000000;1.411198
4265.000000;1.417035
4264.000000;1.422336
4263.000000;1.427002
4262.000000;1.431695
4261.000000;1.436831
4260.000000;1.442136
4259.000000;1.447304
4258.000000;1.452576
4257.000000;1.458375
4256.000000;1.464664
4255.000000;1.470894
4254.000000;1.476366
4253.000000;1.480583
4252.000000;1.483712
4251.000000;1.486934
4250.000000;1.491806
4249.000000;1.498737
4248.000000;1.506291
4247.000000;1.512498
4246.000000;1.516814
4245.000000;1.520322
4244.000000;1.524113
4243.000000;1.528189
4242.000000;1.532187
4241.000000;1.536519
4240.000000;1.542147
4239.000000;1.549221
4238.000000;1.556399
4237.000000;1.562046
4236.000000;1.566112
4235.000000;1.570247
4234.000000;1.575755
4233.000000;1.581924
4232.000000;1.586934
4231.000000;1.590227
4230.000000;1.593299
4229.000000;1.598108
4228.000000;1.605356
4227.000000;1.614316
4226.000000;1.623478
4225.000000;1.631016
4224.000000;1.635595
4223.000000;1.637547
4222.000000;1.638910
4221.000000;1.641641
4220.000000;1.645928
4219.000000;1.650637
4218.000000;1.655165
4217.000000;1.660222
4216.000000;1.666631
4215.000000;1.673885
4214.000000;1.680397
4213.000000;1.685115
4212.000000;1.688595
4211.000000;1.692323
4210.000000;1.697151
4209.000000;1.702587
4208.000000;1.707572
4207.000000;1.711608
4206.000000;1.715063
4205.000000;1.718785
4204.000000;1.723647
4203.000000;1.730162
4202.000000;1.738052
4201.000000;1.746091
4200.000000;1.752969
4199.000000;1.758605
4198.000000;1.764209
4197.000000;1.770970
4196.000000;1.778924
4195.000000;1.786821
4194.000000;1.793244
4193.000000;1.797973
4192.000000;1.802107
4191.000000;1.806939
4190.000000;1.812707
4189.000000;1.818614
4188.000000;1.824273
4187.000000;1.830375
4186.000000;1.837078
4185.000000;1.842596
4184.000000;1.845075
4183.000000;1.845852
4182.000000;1.848946
4181.000000;1.856487
4180.000000;1.866180
4179.000000;1.874197
4178.000000;1.879136
4177.000000;1.881857
4176.000000;1.883440
4175.000000;1.885186
4174.000000;1.889045
4173.000000;1.896217
4172.000000;1.905451
4171.000000;1.913598
4170.000000;1.918634
4169.000000;1.921240
4168.000000;1.922819
4167.000000;1.924261
4166.000000;1.926584
4165.000000;1.930432
4164.000000;1.934972
4163.000000;1.938786
4162.000000;1.942259
4161.000000;1.947100
4160.000000;1.953075
4159.000000;1.957967
4158.000000;1.961216
4157.000000;1.965140
4156.000000;1.971547
4155.000000;1.979146
4154.000000;1.985802
4153.000000;1.991290
4152.000000;1.996112
4151.000000;1.999834
4150.000000;2.002441
4149.000000;2.005820
4148.000000;2.011860
4147.000000;2.019585
4146.000000;2.026197
4145.000000;2.031115
4144.000000;2.036190
4143.000000;2.041348
4142.000000;2.044009
4141.000000;2.043668
4140.000000;2.043104
4139.000000;2.044030
4138.000000;2.045138
4137.000000;2.046063
4136.000000;2.050163
4135.000000;2.060480
4134.000000;2.074513
4133.000000;2.086015
4132.000000;2.091959
4131.000000;2.095101
4130.000000;2.099753
4129.000000;2.107328
4128.000000;2.115809
4127.000000;2.122247
4126.000000;2.125723
4125.000000;2.128942
4124.000000;2.136032
4123.000000;2.145990
4122.000000;2.150872
4121.000000;2.145118
4120.000000;2.134361
4119.000000;2.129848
4118.000000;2.136638
4117.000000;2.150215
4116.000000;2.162952
4115.000000;2.170432
4114.000000;2.171010
4113.000000;2.166635
4112.000000;2.164992
4111.000000;2.174773
4110.000000;2.196075
4109.000000;2.217503
4108.000000;2.226907
4107.000000;2.224104
4106.000000;2.216957
4105.000000;2.209495
4104.000000;2.201565
4103.000000;2.195206
4102.000000;2.194397
4101.000000;2.200490
4100.000000;2.212177
4099.000000;2.228434
4098.000000;2.246890
4097.000000;2.260772
4096.000000;2.263335
4095.000000;2.256452
4094.000000;2.248632
4093.000000;2.244808
4092.000000;2.243161
4091.000000;2.240159
4090.000000;2.236543
4089.000000;2.236605
4088.000000;2.242430
4087.000000;2.253741
4086.000000;2.270901
4085.000000;2.292886
4084.000000;2.313174
4083.000000;2.322148
4082.000000;2.317055
4081.000000;2.305761
4080.000000;2.298463
4079.000000;2.298373
4078.000000;2.301347
4077.000000;2.303598
4076.000000;2.305094
4075.000000;2.306355
4074.000000;2.307494
4073.000000;2.310151
4072.000000;2.319151
4071.000000;2.339537
4070.000000;2.367913
4069.000000;2.391088
4068.000000;2.398966
4067.000000;2.394758
4066.000000;2.387995
4065.000000;2.382546
4064.000000;2.376949
4063.000000;2.372123
4062.000000;2.369421
4061.000000;2.367084
4060.000000;2.363878
4059.000000;2.361949
4058.000000;2.364045
4057.000000;2.368362
4056.000000;2.371480
4055.000000;2.374738
4054.000000;2.379134
4053.000000;2.378941
4052.000000;2.369314
4051.000000;2.354891
4050.000000;2.344610
4049.000000;2.341473
4048.000000;2.342369
4047.000000;2.345620
4046.000000;2.353394
4045.000000;2.364318
4044.000000;2.369812
4043.000000;2.365226
4042.000000;2.358017
4041.000000;2.357607
4040.000000;2.362394
4039.000000;2.361568
4038.000000;2.351245
4037.000000;2.341624
4036.000000;2.342832
4035.000000;2.353532
4034.000000;2.367471
4033.000000;2.384317
4032.000000;2.409401
4031.000000;2.442374
4030.000000;2.471902
4029.000000;2.487757
4028.000000;2.493067
4027.000000;2.498173
4026.000000;2.504500
4025.000000;2.504618
4024.000000;2.500198
4023.000000;2.503492
4022.000000;2.517277
4021.000000;2.526337
4020.000000;2.519236
4019.000000;2.508794
4018.000000;2.511304
4017.000000;2.519597
4016.000000;2.511483
4015.000000;2.484459
4014.000000;2.461799
4013.000000;2.461886
4012.000000;2.481395
4011.000000;2.502618
4010.000000;2.511192
4009.000000;2.506458
4008.000000;2.494052
4007.000000;2.478423
4006.000000;2.466704
4005.000000;2.470206
4004.000000;2.496638
4003.000000;2.539393
4002.000000;2.573261
4001.000000;2.570961
4000.000000;2.535886
3999.000000;2.494053
3998.000000;2.458490
3997.000000;2.428539
3996.000000;2.404345
3995.000000;2.390218
3994.000000;2.394522
3993.000000;2.424436
3992.000000;2.472723
3991.000000;2.512093
3990.000000;2.520497
3989.000000;2.513619
3988.000000;2.525941
3987.000000;2.570639
3986.000000;2.622509
3985.000000;2.642615
3984.000000;2.630763
3983.000000;2.617177
3982.000000;2.619094
3981.000000;2.629873
3980.000000;2.641090
3979.000000;2.657832
3978.000000;2.680836
3977.000000;2.692445
3976.000000;2.683506
3975.000000;2.675591
3974.000000;2.681148
3973.000000;2.676743
3972.000000;2.639007
3971.000000;2.586316
3970.000000;2.549807
3969.000000;2.538120
3968.000000;2.543760
3967.000000;2.559646
3966.000000;2.582294
3965.000000;2.606689
3964.000000;2.634040
3963.000000;2.678037
3962.000000;2.739488
3961.000000;2.765698
3960.000000;2.703011
3959.000000;2.615558
3958.000000;2.580198
3957.000000;2.619777
3956.000000;2.720965
3955.000000;2.832771
3954.000000;2.872828
3953.000000;2.814904
3952.000000;2.728094
3951.000000;2.669987
3950.000000;2.657888
3949.000000;2.683104
3948.000000;2.701322
3947.000000;2.674537
3946.000000;2.616366
3945.000000;2.559914
3944.000000;2.539982
3943.000000;2.566989
3942.000000;2.615777
3941.000000;2.661940
3940.000000;2.713403
3939.000000;2.793237
3938.000000;2.886056
3937.000000;2.907629
3936.000000;2.828441
3935.000000;2.738531
3934.000000;2.715434
3933.000000;2.761058
3932.000000;2.798195
3931.000000;2.813035
3930.000000;2.852504
3929.000000;2.895576
3928.000000;2.894813
3927.000000;2.876477
3926.000000;2.900541
3925.000000;2.971466
3924.000000;3.065626
3923.000000;3.137362
3922.000000;3.123026
3921.000000;3.029968
3920.000000;2.926725
3919.000000;2.859640
3918.000000;2.859032
3917.000000;2.915237
3916.000000;2.963596
3915.000000;2.981209
3914.000000;2.983843
3913.000000;2.934774
3912.000000;2.833764
3911.000000;2.762413
3910.000000;2.781228
3909.000000;2.899056
3908.000000;3.097710
3907.000000;3.329175
3906.000000;3.542329
3905.000000;3.525710
3904.000000;3.250801
3903.000000;3.042166
3902.000000;2.913120
3901.000000;2.886270
3900.000000;2.975563
3899.000000;3.111954
3898.000000;3.172892
3897.000000;3.144789
3896.000000;3.116971
3895.000000;3.143892
3894.000000;3.261653
3893.000000;3.495627
3892.000000;3.589987
3891.000000;3.475676
3890.000000;3.333223
3889.000000;3.179456
3888.000000;3.097258
3887.000000;3.284488
3886.000000;3.482369
3885.000000;3.435982
3884.000000;3.417435
3883.000000;3.311080
3882.000000;3.215831
3881.000000;3.104713
3880.000000;3.073855
3879.000000;3.171536
3878.000000;3.416532
3877.000000;3.731014
3876.000000;4.244152
3875.000000;3.573378
3874.000000;3.267641
3873.000000;3.143294
3872.000000;3.111212
3871.000000;3.228356
3870.000000;3.551773
3869.000000;3.809257
3868.000000;3.454644
3867.000000;3.241532
3866.000000;3.279314
3865.000000;3.512808
3864.000000;3.495441
3863.000000;3.315964
3862.000000;3.228462
3861.000000;3.228913
3860.000000;3.296570
3859.000000;3.362776
3858.000000;3.411160
3857.000000;3.558404
3856.000000;3.982966
3855.000000;3.841128
3854.000000;3.814070
3853.000000;3.538863
3852.000000;3.273563
3851.000000;3.106507
3850.000000;3.017034
3849.000000;3.008214
3848.000000;3.013563
3847.000000;3.018629
3846.000000;3.115544
3845.000000;3.416233
3844.000000;3.463474
3843.000000;3.286889
3842.000000;3.306100
3841.000000;3.456400
3840.000000;3.472512
3839.000000;3.283138
3838.000000;3.268955
3837.000000;3.452503
3836.000000;3.814440
3835.000000;3.802014
3834.000000;3.519429
3833.000000;3.440650
3832.000000;3.463989
3831.000000;3.522353
3830.000000;3.533636
3829.000000;3.569627
3828.000000;3.673551
3827.000000;3.867777
3826.000000;3.970221
3825.000000;3.971030
3824.000000;4.241372
3823.000000;4.142170
3822.000000;3.767777
3821.000000;3.654741
3820.000000;3.566035
3819.000000;3.418843
3818.000000;3.218956
3817.000000;3.079932
3816.000000;3.094791
3815.000000;3.115963
3814.000000;3.064797
3813.000000;3.064938
3812.000000;3.215874
3811.000000;3.600051
3810.000000;3.585903
3809.000000;3.167810
3808.000000;3.024150
3807.000000;3.015793
3806.000000;3.016965
3805.000000;2.928993
3804.000000;2.773287
3803.000000;2.728742
3802.000000;2.865826
3801.000000;3.073306
3800.000000;3.163804
3799.000000;3.094928
3798.000000;2.974970
3797.000000;2.905104
3796.000000;2.914329
3795.000000;3.019921
3794.000000;3.252108
3793.000000;3.291973
3792.000000;2.993112
3791.000000;2.793835
3790.000000;2.731160
3789.000000;2.752199
3788.000000;2.774453
3787.000000;2.774724
3786.000000;2.813915
3785.000000;2.921043
3784.000000;3.044565
3783.000000;3.071979
3782.000000;3.003927
3781.000000;2.965303
3780.000000;2.936783
3779.000000;2.898596
3778.000000;2.916134
3777.000000;2.964225
3776.000000;2.984641
3775.000000;3.019449
3774.000000;3.035705
3773.000000;3.065334
3772.000000;3.083059
3771.000000;2.990483
3770.000000;2.973940
3769.000000;3.036367
3768.000000;3.081277
3767.000000;3.084019
3766.000000;3.127063
3765.000000;3.310458
3764.000000;3.661719
3763.000000;3.850391
3762.000000;3.685320
3761.000000;3.626699
3760.000000;3.545137
3759.000000;3.438076
3758.000000;3.368917
3757.000000;3.322971
3756.000000;3.204485
3755.000000;3.046816
3754.000000;2.973798
3753.000000;3.022443
3752.000000;3.176238
3751.000000;3.428670
3750.000000;3.791230
3749.000000;4.021893
3748.000000;3.793584
3747.000000;3.450774
3746.000000;3.291364
3745.000000;2.978232
3744.000000;2.829899
3743.000000;2.716604
3742.000000;2.574250
3741.000000;2.464884
3740.000000;2.424865
3739.000000;2.454568
3738.000000;2.622284
3737.000000;2.833610
3736.000000;2.808153
3735.000000;2.810354
3734.000000;2.858973
3733.000000;2.916274
3732.000000;2.846175
3731.000000;2.669249
3730.000000;2.554651
3729.000000;2.543730
3728.000000;2.854010
3727.000000;3.104516
3726.000000;2.815522
3725.000000;2.766801
3724.000000;2.736280
3723.000000;2.719612
3722.000000;2.735320
3721.000000;2.729372
3720.000000;2.688789
3719.000000;2.679869
3718.000000;2.772218
3717.000000;2.827819
3716.000000;2.699950
3715.000000;2.596608
3714.000000;2.608486
3713.000000;2.707352
3712.000000;2.827718
3711.000000;2.905145
3710.000000;2.912734
3709.000000;2.866156
3708.000000;2.826319
3707.000000;2.838805
3706.000000;2.882528
3705.000000;2.828894
3704.000000;2.677032
3703.000000;2.560773
3702.000000;2.506515
3701.000000;2.470610
3700.000000;2.433761
3699.000000;2.435442
3698.000000;2.554186
3697.000000;2.938525
3696.000000;3.079428
3695.000000;2.804102
3694.000000;2.720842
3693.000000;2.734718
3692.000000;2.821314
3691.000000;3.039726
3690.000000;3.294250
3689.000000;3.132157
3688.000000;2.956966
3687.000000;3.035103
3686.000000;3.715844
3685.000000;2.858016
3684.000000;2.603706
3683.000000;2.623271
3682.000000;2.821173
3681.000000;2.907876
3680.000000;2.740219
3679.000000;2.697816
3678.000000;2.758327
3677.000000;3.116242
3676.000000;3.944356
3675.000000;4.037900
3674.000000;3.876581
3673.000000;4.071185
3672.000000;3.632132
3671.000000;3.088754
3670.000000;2.888616
3669.000000;2.728869
3668.000000;2.564417
3667.000000;2.435983
3666.000000;2.394807
3665.000000;2.463688
3664.000000;2.671847
3663.000000;3.068466
3662.000000;3.122058
3661.000000;3.053905
3660.000000;3.161273
3659.000000;3.042952
3658.000000;2.795336
3657.000000;2.703962
3656.000000;2.766023
3655.000000;2.889723
3654.000000;3.000400
3653.000000;3.049246
3652.000000;2.998169
3651.000000;2.905803
3650.000000;2.843290
3649.000000;2.790697
3648.000000;2.742002
3647.000000;2.710497
3646.000000;2.668776
3645.000000;2.622969
3644.000000;2.621043
3643.000000;2.873653
3642.000000;3.143240
3641.000000;2.659355
3640.000000;2.460372
3639.000000;2.492191
3638.000000;2.667038
3637.000000;2.733499
3636.000000;2.495436
3635.000000;2.367695
3634.000000;2.389076
3633.000000;2.478326
3632.000000;2.641451
3631.000000;3.128060
3630.000000;3.080555
3629.000000;2.791676
3628.000000;2.710037
3627.000000;2.631331
3626.000000;2.582214
3625.000000;2.545815
3624.000000;2.490848
3623.000000;2.465240
3622.000000;2.525273
3621.000000;2.402208
3620.000000;2.231768
3619.000000;2.220000
3618.000000;2.273747
3617.000000;2.318888
3616.000000;2.417490
3615.000000;2.597904
3614.000000;2.470551
3613.000000;2.320797
3612.000000;2.334673
3611.000000;2.482543
3610.000000;2.877565
3609.000000;3.022882
3608.000000;2.732896
3607.000000;2.590426
3606.000000;2.556739
3605.000000;2.579607
3604.000000;2.669068
3603.000000;2.697873
3602.000000;2.443208
3601.000000;2.293105
3600.000000;2.419846
3599.000000;2.830816
3598.000000;2.565354
3597.000000;2.343387
3596.000000;2.588877
3595.000000;2.860403
3594.000000;2.545449
3593.000000;2.449525
3592.000000;2.415378
3591.000000;2.392898
3590.000000;2.358523
3589.000000;2.321758
3588.000000;2.383282
3587.000000;2.688080
3586.000000;3.036617
3585.000000;2.546301
3584.000000;2.381334
3583.000000;2.383367
3582.000000;2.510181
3581.000000;2.729465
3580.000000;2.291418
3579.000000;2.106147
3578.000000;2.168671
3577.000000;2.347014
3576.000000;2.448468
3575.000000;2.364031
3574.000000;2.248945
3573.000000;2.212945
3572.000000;2.297563
3571.000000;2.455568
3570.000000;2.567448
3569.000000;2.541807
3568.000000;2.553576
3567.000000;2.594156
3566.000000;2.554898
3565.000000;2.479403
3564.000000;2.465948
3563.000000;2.509713
3562.000000;2.367825
3561.000000;2.197105
3560.000000;2.156566
3559.000000;2.199357
3558.000000;2.246175
3557.000000;2.252033
3556.000000;2.253984
3555.000000;2.312955
3554.000000;2.424319
3553.000000;2.425915
3552.000000;2.343023
3551.000000;2.304081
3550.000000;2.296530
3549.000000;2.384561
3548.000000;2.519124
3547.000000;2.366552
3546.000000;2.241885
3545.000000;2.245994
3544.000000;2.321928
3543.000000;2.452759
3542.000000;2.720650
3541.000000;3.211616
3540.000000;2.850532
3539.000000;2.546617
3538.000000;2.524065
3537.000000;2.807524
3536.000000;2.847488
3535.000000;2.493283
3534.000000;2.350623
3533.000000;2.285313
3532.000000;2.258606
3531.000000;2.272849
3530.000000;2.319277
3529.000000;2.322594
3528.000000;2.266768
3527.000000;2.237494
3526.000000;2.259757
3525.000000;2.285967
3524.000000;2.306351
3523.000000;2.370565
3522.000000;2.634936
3521.000000;3.075422
3520.000000;2.634858
3519.000000;2.364535
3518.000000;2.193952
3517.000000;2.107969
3516.000000;2.123603
3515.000000;2.281467
3514.000000;2.699571
3513.000000;2.490165
3512.000000;2.145773
3511.000000;2.064598
3510.000000;2.083694
3509.000000;2.179875
3508.000000;2.327708
3507.000000;2.532666
3506.000000;2.746439
3505.000000;2.511255
3504.000000;2.171935
3503.000000;1.979572
3502.000000;1.918741
3501.000000;1.949385
3500.000000;2.036482
3499.000000;2.171376
3498.000000;2.365558
3497.000000;2.667158
3496.000000;2.930449
3495.000000;3.002705
3494.000000;3.364969
3493.000000;2.994625
3492.000000;2.652870
3491.000000;2.570452
3490.000000;2.591731
3489.000000;2.682813
3488.000000;2.747137
3487.000000;2.732042
3486.000000;2.708969
3485.000000;2.713721
3484.000000;2.696967
3483.000000;2.613105
3482.000000;2.554876
3481.000000;2.602073
3480.000000;2.816234
3479.000000;3.406157
3478.000000;3.342042
3477.000000;2.791200
3476.000000;2.521476
3475.000000;2.390169
3474.000000;2.367076
3473.000000;2.396868
3472.000000;2.394117
3471.000000;2.308257
3470.000000;2.207609
3469.000000;2.178411
3468.000000;2.256898
3467.000000;2.440654
3466.000000;2.584565
3465.000000;2.560341
3464.000000;2.563121
3463.000000;2.635342
3462.000000;3.005305
3461.000000;3.331864
3460.000000;2.742064
3459.000000;2.601007
3458.000000;2.645379
3457.000000;2.827763
3456.000000;2.820212
3455.000000;2.545734
3454.000000;2.366603
3453.000000;2.280472
3452.000000;2.278896
3451.000000;2.327743
3450.000000;2.334636
3449.000000;2.269073
3448.000000;2.241162
3447.000000;2.296443
3446.000000;2.406543
3445.000000;2.513156
3444.000000;2.489550
3443.000000;2.392892
3442.000000;2.363842
3441.000000;2.479993
3440.000000;2.671312
3439.000000;2.574617
3438.000000;2.469153
3437.000000;2.516745
3436.000000;2.662233
3435.000000;2.885987
3434.000000;3.031111
3433.000000;2.949883
3432.000000;2.675660
3431.000000;2.437448
3430.000000;2.330968
3429.000000;2.370048
3428.000000;2.479276
3427.000000;2.402763
3426.000000;2.286837
3425.000000;2.323384
3424.000000;2.441145
3423.000000;2.455838
3422.000000;2.516759
3421.000000;2.880551
3420.000000;3.326230
3419.000000;2.925209
3418.000000;2.914320
3417.000000;3.137589
3416.000000;2.684904
3415.000000;2.424681
3414.000000;2.386492
3413.000000;2.490767
3412.000000;2.703383
3411.000000;2.874272
3410.000000;2.950754
3409.000000;3.011826
3408.000000;2.888375
3407.000000;2.712883
3406.000000;2.721492
3405.000000;2.802461
3404.000000;2.693012
3403.000000;2.554615
3402.000000;2.535087
3401.000000;2.608380
3400.000000;2.740248
3399.000000;2.813360
3398.000000;2.679692
3397.000000;2.511365
3396.000000;2.402046
3395.000000;2.351283
3394.000000;2.374173
3393.000000;2.447829
3392.000000;2.525997
3391.000000;2.658561
3390.000000;2.857256
3389.000000;2.879996
3388.000000;2.737593
3387.000000;2.638924
3386.000000;2.623728
3385.000000;2.607323
3384.000000;2.563096
3383.000000;2.591207
3382.000000;2.756882
3381.000000;3.183986
3380.000000;3.144421
3379.000000;2.727419
3378.000000;2.587557
3377.000000;2.547401
3376.000000;2.550710
3375.000000;2.573064
3374.000000;2.555727
3373.000000;2.467478
3372.000000;2.403942
3371.000000;2.443705
3370.000000;2.583760
3369.000000;2.737416
3368.000000;2.848131
3367.000000;3.052422
3366.000000;3.056381
3365.000000;2.829133
3364.000000;2.756634
3363.000000;2.857949
3362.000000;3.197496
3361.000000;3.531641
3360.000000;3.326922
3359.000000;3.238870
3358.000000;3.268583
3357.000000;3.377225
3356.000000;3.287202
3355.000000;3.076239
3354.000000;2.958558
3353.000000;3.026406
3352.000000;2.981235
3351.000000;2.746259
3350.000000;2.616415
3349.000000;2.602672
3348.000000;2.857146
3347.000000;2.980703
3346.000000;2.621570
3345.000000;2.509652
3344.000000;2.568659
3343.000000;2.753607
3342.000000;2.856515
3341.000000;2.817719
3340.000000;2.840066
3339.000000;2.626691
3338.000000;2.413857
3337.000000;2.371493
3336.000000;2.488716
3335.000000;2.801603
3334.000000;3.107133
3333.000000;3.096618
3332.000000;3.053724
3331.000000;2.830021
3330.000000;2.706822
3329.000000;2.737828
3328.000000;3.175665
3327.000000;3.459383
3326.000000;2.820837
3325.000000;2.784702
3324.000000;2.834344
3323.000000;2.697761
3322.000000;2.497568
3321.000000;2.417857
3320.000000;2.464908
3319.000000;2.640007
3318.000000;2.895307
3317.000000;3.027890
3316.000000;3.414970
3315.000000;2.987795
3314.000000;2.636414
3313.000000;2.580705
3312.000000;2.695106
3311.000000;2.862274
3310.000000;2.672755
3309.000000;2.478998
3308.000000;2.429009
3307.000000;2.490433
3306.000000;2.703458
3305.000000;3.029491
3304.000000;3.057995
3303.000000;3.105468
3302.000000;3.037923
3301.000000;2.784800
3300.000000;2.722417
3299.000000;2.752333
3298.000000;3.004354
3297.000000;3.355932
3296.000000;2.814798
3295.000000;2.536809
3294.000000;2.459649
3293.000000;2.504552
3292.000000;2.826963
3291.000000;3.153741
3290.000000;2.674502
3289.000000;2.465289
3288.000000;2.420322
3287.000000;2.468931
3286.000000;2.604953
3285.000000;2.694249
3284.000000;2.715433
3283.000000;2.813367
3282.000000;2.974265
3281.000000;3.236323
3280.000000;3.832803
3279.000000;3.432914
3278.000000;3.264683
3277.000000;3.116575
3276.000000;2.841929
3275.000000;2.877703
3274.000000;2.936186
3273.000000;2.677614
3272.000000;2.553719
3271.000000;2.572992
3270.000000;2.652230
3269.000000;2.739331
3268.000000;2.881449
3267.000000;3.124453
3266.000000;2.980174
3265.000000;2.782996
3264.000000;2.758776
3263.000000;2.809505
3262.000000;2.817544
3261.000000;2.688211
3260.000000;2.571582
3259.000000;2.543897
3258.000000;2.609303
3257.000000;2.677742
3256.000000;2.736579
3255.000000;3.039601
3254.000000;2.995198
3253.000000;2.619807
3252.000000;2.496713
3251.000000;2.476550
3250.000000;2.574860
3249.000000;2.700440
3248.000000;2.645237
3247.000000;2.664557
3246.000000;2.856542
3245.000000;3.092355
3244.000000;3.158688
3243.000000;3.074907
3242.000000;2.985383
3241.000000;2.926866
3240.000000;2.904336
3239.000000;2.833367
3238.000000;2.749131
3237.000000;2.657253
3236.000000;2.595375
3235.000000;2.585479
3234.000000;2.701322
3233.000000;3.178161
3232.000000;3.188731
3231.000000;2.820195
3230.000000;2.771958
3229.000000;2.797120
3228.000000;2.821845
3227.000000;2.845630
3226.000000;2.906546
3225.000000;3.016360
3224.000000;3.154752
3223.000000;3.433474
3222.000000;3.777735
3221.000000;3.342284
3220.000000;2.992736
3219.000000;2.763369
3218.000000;2.613524
3217.000000;2.560058
3216.000000;2.600485
3215.000000;2.665345
3214.000000;2.721199
3213.000000;2.832999
3212.000000;2.883807
3211.000000;2.834807
3210.000000;2.808984
3209.000000;2.800949
3208.000000;2.824834
3207.000000;2.936045
3206.000000;3.131037
3205.000000;3.131073
3204.000000;3.002968
3203.000000;3.019166
3202.000000;2.967734
3201.000000;2.804171
3200.000000;2.763840
3199.000000;2.841208
3198.000000;2.946884
3197.000000;3.001299
3196.000000;3.010543
3195.000000;3.004766
3194.000000;2.885814
3193.000000;2.847940
3192.000000;3.169969
3191.000000;3.121082
3190.000000;2.856666
3189.000000;3.077570
3188.000000;2.978882
3187.000000;2.650771
3186.000000;2.533664
3185.000000;2.503186
3184.000000;2.544583
3183.000000;2.644837
3182.000000;2.791426
3181.000000;2.935964
3180.000000;3.004727
3179.000000;3.082420
3178.000000;3.209440
3177.000000;3.161962
3176.000000;3.072597
3175.000000;2.922546
3174.000000;2.723462
3173.000000;2.640968
3172.000000;2.655698
3171.000000;2.678437
3170.000000;2.647899
3169.000000;2.643521
3168.000000;2.706158
3167.000000;2.988024
3166.000000;3.386854
3165.000000;2.878268
3164.000000;2.628785
3163.000000;2.555203
3162.000000;2.568091
3161.000000;2.665994
3160.000000;2.830185
3159.000000;2.938951
3158.000000;2.810346
3157.000000;2.646340
3156.000000;2.576346
3155.000000;2.587879
3154.000000;2.607252
3153.000000;2.616421
3152.000000;2.725020
3151.000000;3.037753
3150.000000;3.137081
3149.000000;2.978073
3148.000000;3.186798
3147.000000;3.920413
3146.000000;3.545828
3145.000000;3.124187
3144.000000;3.100698
3143.000000;3.442802
3142.000000;3.201081
3141.000000;2.865827
3140.000000;2.780473
3139.000000;2.755938
3138.000000;2.741521
3137.000000;2.755570
3136.000000;2.822355
3135.000000;2.974441
3134.000000;3.429627
3133.000000;3.516669
3132.000000;3.049128
3131.000000;2.976278
3130.000000;2.995096
3129.000000;2.993026
3128.000000;2.989720
3127.000000;2.960884
3126.000000;2.870364
3125.000000;3.047867
3124.000000;3.545501
3123.000000;2.915010
3122.000000;2.687458
3121.000000;2.665661
3120.000000;2.694564
3119.000000;2.802297
3118.000000;2.850339
3117.000000;2.939217
3116.000000;3.169715
3115.000000;2.980693
3114.000000;2.767665
3113.000000;2.805177
3112.000000;3.106005
3111.000000;3.437340
3110.000000;3.238415
3109.000000;3.272936
3108.000000;3.248962
3107.000000;2.933317
3106.000000;2.716394
3105.000000;2.644524
3104.000000;2.761146
3103.000000;3.214669
3102.000000;3.330950
3101.000000;3.166995
3100.000000;3.350018
3099.000000;3.005559
3098.000000;2.689663
3097.000000;2.561270
3096.000000;2.529417
3095.000000;2.576058
3094.000000;2.668708
3093.000000;2.903432
3092.000000;3.183090
3091.000000;2.798040
3090.000000;2.562460
3089.000000;2.499633
3088.000000;2.529320
3087.000000;2.612881
3086.000000;2.695506
3085.000000;2.822428
3084.000000;2.874018
3083.000000;2.793716
3082.000000;2.746425
3081.000000;2.902864
3080.000000;3.280175
3079.000000;2.842631
3078.000000;2.507644
3077.000000;2.403383
3076.000000;2.407745
3075.000000;2.495434
3074.000000;2.555605
3073.000000;2.522644
3072.000000;2.541135
3071.000000;2.657773
3070.000000;2.899173
3069.000000;3.296976
3068.000000;2.932373
3067.000000;2.575854
3066.000000;2.430879
3065.000000;2.413056
3064.000000;2.504555
3063.000000;2.637642
3062.000000;2.819008
3061.000000;3.086765
3060.000000;2.969895
3059.000000;2.769412
3058.000000;2.781281
3057.000000;2.806390
3056.000000;2.715866
3055.000000;2.668650
3054.000000;2.763401
3053.000000;2.984146
3052.000000;3.178029
3051.000000;3.137322
3050.000000;2.940226
3049.000000;2.774580
3048.000000;2.675600
3047.000000;2.649887
3046.000000;2.660906
3045.000000;2.701474
3044.000000;2.741478
3043.000000;2.891512
3042.000000;3.352663
3041.000000;3.035487
3040.000000;2.772366
3039.000000;2.763272
3038.000000;2.976957
3037.000000;3.491301
3036.000000;3.195706
3035.000000;2.959859
3034.000000;2.815143
3033.000000;2.725081
3032.000000;2.764361
3031.000000;2.949231
3030.000000;3.358354
3029.000000;3.743604
3028.000000;3.330435
3027.000000;2.990136
3026.000000;3.020896
3025.000000;3.401914
3024.000000;3.005799
3023.000000;2.724072
3022.000000;2.710340
3021.000000;2.940338
3020.000000;3.327876
3019.000000;2.860578
3018.000000;2.662906
3017.000000;2.676590
3016.000000;2.731345
3015.000000;2.811005
3014.000000;2.886433
3013.000000;2.945731
3012.000000;2.912031
3011.000000;2.906486
3010.000000;3.006302
3009.000000;3.237476
3008.000000;3.503669
3007.000000;3.599631
3006.000000;3.747456
3005.000000;3.351782
3004.000000;3.205823
3003.000000;3.528967
3002.000000;3.116658
3001.000000;2.755264
3000.000000;2.685701
2999.000000;2.793376
2998.000000;3.187066
2997.000000;3.467446
2996.000000;3.309357
2995.000000;3.551810
2994.000000;3.636157
2993.000000;3.181783
2992.000000;2.919574
2991.000000;2.931902
2990.000000;3.205563
2989.000000;3.326573
2988.000000;3.102409
2987.000000;2.881311
2986.000000;2.699331
2985.000000;2.590914
2984.000000;2.568691
2983.000000;2.657737
2982.000000;2.845498
2981.000000;2.843193
2980.000000;2.661495
2979.000000;2.584582
2978.000000;2.608182
2977.000000;2.708495
2976.000000;2.803777
2975.000000;2.769055
2974.000000;2.761634
2973.000000;2.730959
2972.000000;2.671216
2971.000000;2.651847
2970.000000;2.750464
2969.000000;3.268796
2968.000000;3.165976
2967.000000;2.776073
2966.000000;2.937224
2965.000000;3.147431
2964.000000;2.719004
2963.000000;2.536127
2962.000000;2.615677
2961.000000;2.882111
2960.000000;2.843491
2959.000000;2.641669
2958.000000;2.596599
2957.000000;2.613868
2956.000000;2.650465
2955.000000;2.661647
2954.000000;2.644550
2953.000000;2.636285
2952.000000;2.682036
2951.000000;2.810874
2950.000000;2.955268
2949.000000;2.995247
2948.000000;2.975911
2947.000000;2.898206
2946.000000;2.803091
2945.000000;2.832769
2944.000000;3.148866
2943.000000;3.453763
2942.000000;3.255509
2941.000000;3.447459
2940.000000;3.475388
2939.000000;3.115856
2938.000000;2.986954
2937.000000;3.083107
2936.000000;3.396495
2935.000000;3.340061
2934.000000;3.150737
2933.000000;3.066055
2932.000000;3.073255
2931.000000;3.225948
2930.000000;3.005737
2929.000000;2.738760
2928.000000;2.672158
2927.000000;2.834246
2926.000000;3.157589
2925.000000;3.009637
2924.000000;3.011362
2923.000000;3.382440
2922.000000;3.160652
2921.000000;2.971135
2920.000000;3.019179
2919.000000;3.061126
2918.000000;3.393835
2917.000000;3.424562
2916.000000;3.042419
2915.000000;3.004267
2914.000000;2.945345
2913.000000;2.745756
2912.000000;2.656676
2911.000000;2.674071
2910.000000;2.864066
2909.000000;3.474841
2908.000000;3.075598
2907.000000;2.816515
2906.000000;2.791549
2905.000000;2.777602
2904.000000;2.840671
2903.000000;3.179925
2902.000000;3.481111
2901.000000;3.137252
2900.000000;3.412191
2899.000000;3.331946
2898.000000;3.003816
2897.000000;2.933635
2896.000000;2.904045
2895.000000;3.092205
2894.000000;2.979095
2893.000000;2.641692
2892.000000;2.536871
2891.000000;2.607680
2890.000000;2.937794
2889.000000;3.321321
2888.000000;3.162848
2887.000000;3.115110
2886.000000;3.070728
2885.000000;3.031148
2884.000000;2.987725
2883.000000;2.932952
2882.000000;2.996425
2881.000000;3.120908
2880.000000;2.948869
2879.000000;2.775834
2878.000000;2.702090
2877.000000;2.673229
2876.000000;2.717216
2875.000000;2.766293
2874.000000;2.720380
2873.000000;2.676967
2872.000000;2.708428
2871.000000;2.796500
2870.000000;2.927080
2869.000000;3.225494
2868.000000;3.730397
2867.000000;4.081815
2866.000000;3.557505
2865.000000;2.988568
2864.000000;2.782810
2863.000000;2.763667
2862.000000;2.843812
2861.000000;2.921565
2860.000000;3.017731
2859.000000;3.166727
2858.000000;3.057727
2857.000000;2.874550
2856.000000;2.786720
2855.000000;2.766211
2854.000000;2.804976
2853.000000;2.865868
2852.000000;3.044599
2851.000000;3.377900
2850.000000;3.124761
2849.000000;2.944196
2848.000000;2.939556
2847.000000;2.926063
2846.000000;2.853323
2845.000000;2.799937
2844.000000;2.819357
2843.000000;2.879228
2842.000000;2.919476
2841.000000;2.985057
2840.000000;3.133902
2839.000000;3.053227
2838.000000;2.833771
2837.000000;2.713833
2836.000000;2.690293
2835.000000;2.805083
2834.000000;3.054079
2833.000000;3.100292
2832.000000;3.008246
2831.000000;3.034058
2830.000000;3.114273
2829.000000;3.119491
2828.000000;3.130773
2827.000000;3.253485
2826.000000;3.545403
2825.000000;3.788598
2824.000000;3.153335
2823.000000;2.896435
2822.000000;2.865603
2821.000000;3.177845
2820.000000;3.607495
2819.000000;3.372805
2818.000000;3.497801
2817.000000;2.992736
2816.000000;2.836631
2815.000000;2.956307
2814.000000;3.308774
2813.000000;3.637921
2812.000000;3.536116
2811.000000;3.399946
2810.000000;3.231356
2809.000000;3.225330
2808.000000;3.334482
2807.000000;3.912517
2806.000000;3.386435
2805.000000;3.106930
2804.000000;3.154701
2803.000000;3.000780
2802.000000;2.874322
2801.000000;2.945028
2800.000000;3.145158
2799.000000;3.099167
2798.000000;3.018136
2797.000000;3.248669
2796.000000;3.191161
2795.000000;2.805622
2794.000000;2.706175
2793.000000;2.776593
2792.000000;3.000553
2791.000000;3.240511
2790.000000;3.065202
2789.000000;2.929413
2788.000000;2.928033
2787.000000;3.031526
2786.000000;3.275493
2785.000000;3.366287
2784.000000;3.109072
2783.000000;2.992262
2782.000000;3.104739
2781.000000;3.167270
2780.000000;2.955056
2779.000000;2.840141
2778.000000;2.830888
2777.000000;2.846110
2776.000000;2.863509
2775.000000;2.883646
2774.000000;2.910553
2773.000000;2.927849
2772.000000;2.934699
2771.000000;2.991352
2770.000000;3.145858
2769.000000;3.117003
2768.000000;2.951950
2767.000000;2.937809
2766.000000;2.971401
2765.000000;2.955603
2764.000000;3.007769
2763.000000;3.116143
2762.000000;3.038537
2761.000000;2.863596
2760.000000;2.766933
2759.000000;2.729087
2758.000000;2.756602
2757.000000;2.827945
2756.000000;2.892660
2755.000000;3.231732
2754.000000;3.362535
2753.000000;2.886036
2752.000000;2.746498
2751.000000;2.826456
2750.000000;2.954390
2749.000000;2.917598
2748.000000;2.848715
2747.000000;2.978687
2746.000000;3.639435
2745.000000;3.057702
2744.000000;2.725507
2743.000000;2.664677
2742.000000;2.724091
2741.000000;2.874860
2740.000000;3.055320
2739.000000;3.257008
2738.000000;3.387968
2737.000000;3.297952
2736.000000;3.122192
2735.000000;3.064255
2734.000000;2.928483
2733.000000;2.736695
2732.000000;2.669472
2731.000000;2.778877
2730.000000;3.052203
2729.000000;3.018092
2728.000000;2.916653
2727.000000;3.150041
2726.000000;3.245157
2725.000000;3.023085
2724.000000;2.936287
2723.000000;2.888966
2722.000000;2.827096
2721.000000;2.819616
2720.000000;2.932879
2719.000000;3.092390
2718.000000;3.068855
2717.000000;2.952863
2716.000000;2.864911
2715.000000;2.827500
2714.000000;2.849508
2713.000000;2.938554
2712.000000;3.079158
2711.000000;3.176775
2710.000000;3.267512
2709.000000;3.668759
2708.000000;3.994987
2707.000000;3.329768
2706.000000;3.114887
2705.000000;3.066850
2704.000000;2.995891
2703.000000;2.863923
2702.000000;2.798283
2701.000000;2.811073
2700.000000;2.912227
2699.000000;3.125658
2698.000000;3.089159
2697.000000;2.933562
2696.000000;2.950314
2695.000000;3.017871
2694.000000;2.899127
2693.000000;2.738355
2692.000000;2.672742
2691.000000;2.727198
2690.000000;2.894568
2689.000000;3.161791
2688.000000;3.514165
2687.000000;3.376165
2686.000000;3.178492
2685.000000;3.251408
2684.000000;3.509870
2683.000000;3.470314
2682.000000;3.320015
2681.000000;3.447835
2680.000000;3.463074
2679.000000;3.201251
2678.000000;3.135977
2677.000000;3.241889
2676.000000;3.771974
2675.000000;3.660913
2674.000000;3.151455
2673.000000;3.042911
2672.000000;3.032946
2671.000000;3.043839
2670.000000;3.038275
2669.000000;3.029079
2668.000000;3.015525
2667.000000;3.047289
2666.000000;3.145398
2665.000000;3.412446
2664.000000;4.157558
2663.000000;3.442680
2662.000000;3.263865
2661.000000;3.090578
2660.000000;2.913727
2659.000000;2.892401
2658.000000;3.052072
2657.000000;3.384187
2656.000000;3.400077
2655.000000;3.142423
2654.000000;2.925313
2653.000000;2.798494
2652.000000;2.764708
2651.000000;2.800290
2650.000000;2.905133
2649.000000;3.088849
2648.000000;3.121381
2647.000000;3.033513
2646.000000;3.095896
2645.000000;3.134875
2644.000000;3.020795
2643.000000;2.957648
2642.000000;2.963734
2641.000000;2.949330
2640.000000;2.905520
2639.000000;2.886225
2638.000000;2.893497
2637.000000;2.864186
2636.000000;2.760911
2635.000000;2.640893
2634.000000;2.562071
2633.000000;2.546779
2632.000000;2.598988
2631.000000;2.707694
2630.000000;2.829977
2629.000000;2.925384
2628.000000;3.016796
2627.000000;3.160708
2626.000000;3.640306
2625.000000;3.676759
2624.000000;3.204370
2623.000000;3.156174
2622.000000;3.178395
2621.000000;3.253003
2620.000000;3.247391
2619.000000;3.134296
2618.000000;3.143539
2617.000000;3.284109
2616.000000;3.266931
2615.000000;3.024750
2614.000000;2.873027
2613.000000;2.862195
2612.000000;2.969778
2611.000000;3.018238
2610.000000;3.143929
2609.000000;3.667034
2608.000000;2.977045
2607.000000;2.730139
2606.000000;2.700946
2605.000000;2.790292
2604.000000;3.013593
2603.000000;3.231969
2602.000000;3.061494
2601.000000;2.901961
2600.000000;2.857072
2599.000000;2.825065
2598.000000;2.765945
2597.000000;2.728495
2596.000000;2.772283
2595.000000;2.893279
2594.000000;3.024117
2593.000000;3.085474
2592.000000;3.115445
2591.000000;3.171047
2590.000000;3.197768
2589.000000;3.173261
2588.000000;3.213737
2587.000000;3.502313
2586.000000;3.445042
2585.000000;3.157190
2584.000000;3.064499
2583.000000;3.009627
2582.000000;2.959825
2581.000000;2.919573
2580.000000;2.899767
2579.000000;2.944729
2578.000000;3.014830
2577.000000;2.980113
2576.000000;2.867049
2575.000000;2.789906
2574.000000;2.785245
2573.000000;2.871133
2572.000000;3.057158
2571.000000;3.173435
2570.000000;3.138140
2569.000000;3.147551
2568.000000;3.243400
2567.000000;3.333483
2566.000000;3.265576
2565.000000;3.143724
2564.000000;2.984541
2563.000000;2.857636
2562.000000;2.778232
2561.000000;2.723591
2560.000000;2.699980
2559.000000;2.715797
2558.000000;2.768033
2557.000000;2.832163
2556.000000;2.880359
2555.000000;2.915127
2554.000000;2.971591
2553.000000;3.120064
2552.000000;3.510664
2551.000000;3.501707
2550.000000;3.076880
2549.000000;2.923594
2548.000000;2.865561
2547.000000;2.851650
2546.000000;2.846263
2545.000000;2.881491
2544.000000;3.071949
2543.000000;3.600379
2542.000000;3.529813
2541.000000;3.382222
2540.000000;3.379007
2539.000000;3.138429
2538.000000;3.062613
2537.000000;3.109644
2536.000000;3.299974
2535.000000;3.671354
2534.000000;3.216500
2533.000000;2.948544
2532.000000;2.880831
2531.000000;2.909338
2530.000000;2.998521
2529.000000;3.089100
2528.000000;3.088931
2527.000000;3.003283
2526.000000;2.958295
2525.000000;2.995992
2524.000000;3.141596
2523.000000;3.528016
2522.000000;3.633828
2521.000000;3.283850
2520.000000;3.339858
2519.000000;3.508007
2518.000000;3.472125
2517.000000;3.334084
2516.000000;3.141257
2515.000000;2.992415
2514.000000;2.986391
2513.000000;3.098675
2512.000000;3.534295
2511.000000;3.628517
2510.000000;3.189529
2509.000000;3.113632
2508.000000;3.234091
2507.000000;3.476808
2506.000000;3.592014
2505.000000;3.449142
2504.000000;3.296066
2503.000000;3.294408
2502.000000;3.531832
2501.000000;3.372328
2500.000000;3.122206
2499.000000;3.080539
2498.000000;3.126190
2497.000000;3.188828
2496.000000;3.314693
2495.000000;3.601047
2494.000000;3.559656
2493.000000;3.251463
2492.000000;3.178628
2491.000000;3.228371
2490.000000;3.315341
2489.000000;3.330608
2488.000000;3.221638
2487.000000;3.166904
2486.000000;3.420246
2485.000000;3.340138
2484.000000;3.073569
2483.000000;3.065098
2482.000000;3.200999
2481.000000;3.466584
2480.000000;3.692697
2479.000000;3.493812
2478.000000;3.306196
2477.000000;3.219276
2476.000000;3.167548
2475.000000;3.072940
2474.000000;2.960560
2473.000000;2.897854
2472.000000;2.896882
2471.000000;2.950698
2470.000000;3.067141
2469.000000;3.205786
2468.000000;3.208337
2467.000000;3.168612
2466.000000;3.231952
2465.000000;3.341356
2464.000000;3.327603
2463.000000;3.182358
2462.000000;3.061488
2461.000000;3.054513
2460.000000;3.171262
2459.000000;3.540851
2458.000000;3.574575
2457.000000;3.196020
2456.000000;3.090226
2455.000000;3.181427
2454.000000;3.508441
2453.000000;3.671737
2452.000000;3.664033
2451.000000;3.595961
2450.000000;3.285684
2449.000000;3.173687
2448.000000;3.228135
2447.000000;3.279455
2446.000000;3.248334
2445.000000;3.306589
2444.000000;3.432295
2443.000000;3.413399
2442.000000;3.273811
2441.000000;3.181902
2440.000000;3.206467
2439.000000;3.315983
2438.000000;3.329150
2437.000000;3.230104
2436.000000;3.156503
2435.000000;3.181244
2434.000000;3.254323
2433.000000;3.211721
2432.000000;3.157228
2431.000000;3.120692
2430.000000;3.050815
2429.000000;3.029370
2428.000000;3.121810
2427.000000;3.384361
2426.000000;3.677865
2425.000000;3.364842
2424.000000;3.242131
2423.000000;3.365900
2422.000000;3.695274
2421.000000;3.777880
2420.000000;3.759076
2419.000000;3.507549
2418.000000;3.287724
2417.000000;3.244221
2416.000000;3.329097
2415.000000;3.335844
2414.000000;3.151200
2413.000000;3.033119
2412.000000;3.018797
2411.000000;3.098249
2410.000000;3.211632
2409.000000;3.250968
2408.000000;3.230265
2407.000000;3.277375
2406.000000;3.288034
2405.000000;3.136141
2404.000000;3.030726
2403.000000;2.980178
2402.000000;2.914680
2401.000000;2.881656
2400.000000;2.916723
2399.000000;2.969303
2398.000000;3.009434
2397.000000;3.073271
2396.000000;3.142030
2395.000000;3.156593
2394.000000;3.147537
2393.000000;3.167868
2392.000000;3.239073
2391.000000;3.399473
2390.000000;3.550829
2389.000000;3.451753
2388.000000;3.383131
2387.000000;3.299246
2386.000000;3.161799
2385.000000;3.077634
2384.000000;3.082574
2383.000000;3.152318
2382.000000;3.190172
2381.000000;3.236312
2380.000000;3.251862
2379.000000;3.100551
2378.000000;2.989730
2377.000000;2.998050
2376.000000;3.099527
2375.000000;3.237243
2374.000000;3.302101
2373.000000;3.237808
2372.000000;3.146607
2371.000000;3.102371
2370.000000;3.118400
2369.000000;3.183265
2368.000000;3.262619
2367.000000;3.306532
2366.000000;3.268429
2365.000000;3.174922
2364.000000;3.085978
2363.000000;3.066171
2362.000000;3.193581
2361.000000;3.358147
2360.000000;3.156294
2359.000000;3.024001
2358.000000;3.038442
2357.000000;3.348834
2356.000000;3.782358
2355.000000;3.239956
2354.000000;3.044617
2353.000000;2.945240
2352.000000;2.897463
2351.000000;2.970230
2350.000000;3.103413
2349.000000;3.228341
2348.000000;3.536453
2347.000000;3.315688
2346.000000;3.128155
2345.000000;3.024736
2344.000000;3.036568
2343.000000;3.167315
2342.000000;3.321541
2341.000000;3.363285
2340.000000;3.249397
2339.000000;3.093735
2338.000000;3.007634
2337.000000;3.016983
2336.000000;3.051321
2335.000000;3.036786
2334.000000;3.021142
2333.000000;3.083219
2332.000000;3.152497
2331.000000;3.207174
2330.000000;3.340903
2329.000000;3.545251
2328.000000;3.998197
2327.000000;4.075585
2326.000000;3.414453
2325.000000;3.137074
2324.000000;2.989603
2323.000000;2.965750
2322.000000;3.069504
2321.000000;3.313636
2320.000000;3.695430
2319.000000;3.672306
2318.000000;3.550045
2317.000000;3.681133
2316.000000;3.606766
2315.000000;3.513692
2314.000000;3.577885
2313.000000;3.683390
2312.000000;3.745358
2311.000000;3.926308
2310.000000;3.798591
2309.000000;3.598631
2308.000000;3.548649
2307.000000;3.435886
2306.000000;3.288189
2305.000000;3.207663
2304.000000;3.221258
2303.000000;3.328273
2302.000000;3.419791
2301.000000;3.402151
2300.000000;3.345949
2299.000000;3.311429
2298.000000;3.253146
2297.000000;3.191728
2296.000000;3.222830
2295.000000;3.481673
2294.000000;3.369802
2293.000000;3.176525
2292.000000;3.203555
2291.000000;3.420522
2290.000000;3.451823
2289.000000;3.190392
2288.000000;3.081603
2287.000000;3.111156
2286.000000;3.199500
2285.000000;3.326623
2284.000000;3.625348
2283.000000;3.512305
2282.000000;3.274914
2281.000000;3.184154
2280.000000;3.194943
2279.000000;3.420918
2278.000000;3.573401
2277.000000;3.289869
2276.000000;3.222084
2275.000000;3.133696
2274.000000;3.007781
2273.000000;2.943900
2272.000000;2.982018
2271.000000;3.091389
2270.000000;3.546495
2269.000000;3.407503
2268.000000;3.084369
2267.000000;3.111298
2266.000000;3.320211
2265.000000;3.203879
2264.000000;3.052453
2263.000000;3.048146
2262.000000;3.062346
2261.000000;3.039369
2260.000000;3.018734
2259.000000;3.033628
2258.000000;3.105792
2257.000000;3.243565
2256.000000;3.405738
2255.000000;3.392060
2254.000000;3.235912
2253.000000;3.139465
2252.000000;3.088940
2251.000000;3.045602
2250.000000;3.037750
2249.000000;3.066932
2248.000000;3.018569
2247.000000;2.935770
2246.000000;2.925177
2245.000000;2.976566
2244.000000;3.014309
2243.000000;2.996181
2242.000000;3.008505
2241.000000;3.122705
2240.000000;3.387183
2239.000000;3.583821
2238.000000;3.461760
2237.000000;3.394045
2236.000000;3.457564
2235.000000;3.554894
2234.000000;3.266603
2233.000000;3.063987
2232.000000;3.015938
2231.000000;3.095431
2230.000000;3.258108
2229.000000;3.406422
2228.000000;3.571923
2227.000000;3.700466
2226.000000;3.536730
2225.000000;3.449983
2224.000000;3.465379
2223.000000;3.538662
2222.000000;3.624583
2221.000000;3.644875
2220.000000;3.555252
2219.000000;3.378822
2218.000000;3.192429
2217.000000;3.102228
2216.000000;3.142124
2215.000000;3.290662
2214.000000;3.517230
2213.000000;3.674924
2212.000000;3.469791
2211.000000;3.193214
2210.000000;3.018434
2209.000000;2.972967
2208.000000;3.051471
2207.000000;3.234718
2206.000000;3.368244
2205.000000;3.306260
2204.000000;3.262894
2203.000000;3.287407
2202.000000;3.331888
2201.000000;3.296832
2200.000000;3.205344
2199.000000;3.182858
2198.000000;3.306473
2197.000000;3.637006
2196.000000;4.144626
2195.000000;3.951709
2194.000000;3.620574
2193.000000;3.499809
2192.000000;3.421642
2191.000000;3.331397
2190.000000;3.322842
2189.000000;3.457128
2188.000000;3.724458
2187.000000;4.166224
2186.000000;3.850994
2185.000000;3.459942
2184.000000;3.230298
2183.000000;3.100534
2182.000000;3.063901
2181.000000;3.085746
2180.000000;3.112951
2179.000000;3.108408
2178.000000;3.085860
2177.000000;3.073893
2176.000000;3.084660
2175.000000;3.174612
2174.000000;3.416424
2173.000000;3.904557
2172.000000;3.806187
2171.000000;3.320561
2170.000000;3.183348
2169.000000;3.215724
2168.000000;3.479555
2167.000000;3.828288
2166.000000;3.678450
2165.000000;3.599119
2164.000000;3.533506
2163.000000;3.626074
2162.000000;3.602237
2161.000000;3.438833
2160.000000;3.542960
2159.000000;3.430575
2158.000000;3.196820
2157.000000;3.148177
2156.000000;3.254514
2155.000000;3.729864
2154.000000;3.557929
2153.000000;3.253439
2152.000000;3.192419
2151.000000;3.190454
2150.000000;3.124717
2149.000000;3.043154
2148.000000;3.000761
2147.000000;3.008625
2146.000000;3.085915
2145.000000;3.274764
2144.000000;3.447039
2143.000000;3.368357
2142.000000;3.356381
2141.000000;3.490137
2140.000000;3.541998
2139.000000;3.312085
2138.000000;3.160562
2137.000000;3.155460
2136.000000;3.289266
2135.000000;3.351152
2134.000000;3.314986
2133.000000;3.407470
2132.000000;3.474703
2131.000000;3.359954
2130.000000;3.217068
2129.000000;3.116420
2128.000000;3.084364
2127.000000;3.105574
2126.000000;3.154462
2125.000000;3.233030
2124.000000;3.351595
2123.000000;3.455639
2122.000000;3.513100
2121.000000;3.614584
2120.000000;3.641462
2119.000000;3.523894
2118.000000;3.395602
2117.000000;3.271025
2116.000000;3.141478
2115.000000;3.071783
2114.000000;3.111497
2113.000000;3.269662
2112.000000;3.357165
2111.000000;3.270768
2110.000000;3.248891
2109.000000;3.325747
2108.000000;3.477448
2107.000000;3.609230
2106.000000;3.488450
2105.000000;3.298205
2104.000000;3.224605
2103.000000;3.287044
2102.000000;3.466779
2101.000000;3.909327
2100.000000;4.066624
2099.000000;3.939667
2098.000000;3.959728
2097.000000;3.511888
2096.000000;3.481805
2095.000000;3.800439
2094.000000;3.471816
2093.000000;3.132661
2092.000000;3.036029
2091.000000;3.099259
2090.000000;3.208328
2089.000000;3.168915
2088.000000;3.176852
2087.000000;3.353328
2086.000000;3.696343
2085.000000;3.920377
2084.000000;3.957072
2083.000000;3.736905
2082.000000;3.460178
2081.000000;3.347204
2080.000000;3.357418
2079.000000;3.615348
2078.000000;3.711539
2077.000000;3.431115
2076.000000;3.347477
2075.000000;3.319357
2074.000000;3.216870
2073.000000;3.112696
2072.000000;3.110564
2071.000000;3.292257
2070.000000;3.891323
2069.000000;3.510203
2068.000000;3.373331
2067.000000;3.453006
2066.000000;3.684935
2065.000000;3.706632
2064.000000;3.417805
2063.000000;3.208086
2062.000000;3.081395
2061.000000;3.045753
2060.000000;3.099043
2059.000000;3.228930
2058.000000;3.409233
2057.000000;3.550665
2056.000000;3.554649
2055.000000;3.903229
2054.000000;3.864678
2053.000000;3.488092
2052.000000;3.475600
2051.000000;3.565753
2050.000000;3.279508
2049.000000;3.077677
2048.000000;3.038573
2047.000000;3.104741
2046.000000;3.223787
2045.000000;3.294572
2044.000000;3.261761
2043.000000;3.205787
2042.000000;3.188961
2041.000000;3.219578
2040.000000;3.292476
2039.000000;3.455705
2038.000000;3.605170
2037.000000;3.452200
2036.000000;3.412977
2035.000000;3.582537
2034.000000;3.620819
2033.000000;3.469434
2032.000000;3.577896
2031.000000;3.747068
2030.000000;3.526636
2029.000000;3.387594
2028.000000;3.458550
2027.000000;3.565061
2026.000000;3.483039
2025.000000;3.317706
2024.000000;3.203051
2023.000000;3.200866
2022.000000;3.337016
2021.000000;3.634846
2020.000000;3.796921
2019.000000;3.669516
2018.000000;3.628464
2017.000000;3.542062
2016.000000;3.397144
2015.000000;3.293143
2014.000000;3.229358
2013.000000;3.215195
2012.000000;3.237841
2011.000000;3.260738
2010.000000;3.255181
2009.000000;3.227106
2008.000000;3.221069
2007.000000;3.230365
2006.000000;3.213645
2005.000000;3.179261
2004.000000;3.168556
2003.000000;3.151780
2002.000000;3.103635
2001.000000;3.139220
2000.000000;3.327214
1999.000000;3.960420
1998.000000;3.689949
1997.000000;3.434542
1996.000000;3.627610
1995.000000;3.844111
1994.000000;3.316007
1993.000000;3.206101
1992.000000;3.412670
1991.000000;4.323750
1990.000000;3.819647
1989.000000;3.775866
1988.000000;3.592192
1987.000000;3.552964
1986.000000;3.558400
1985.000000;3.435980
1984.000000;3.264901
1983.000000;3.154059
1982.000000;3.121532
1981.000000;3.143530
1980.000000;3.192643
1979.000000;3.256078
1978.000000;3.301472
1977.000000;3.269199
1976.000000;3.256586
1975.000000;3.385159
1974.000000;3.792004
1973.000000;3.824510
1972.000000;3.657659
1971.000000;3.751586
1970.000000;3.705127
1969.000000;3.432638
1968.000000;3.272429
1967.000000;3.244142
1966.000000;3.270760
1965.000000;3.275993
1964.000000;3.264370
1963.000000;3.255461
1962.000000;3.216134
1961.000000;3.161208
1960.000000;3.118928
1959.000000;3.080993
1958.000000;3.071838
1957.000000;3.137115
1956.000000;3.315730
1955.000000;3.623954
1954.000000;3.776632
1953.000000;3.639600
1952.000000;3.543496
1951.000000;3.520924
1950.000000;3.601518
1949.000000;3.765454
1948.000000;3.630374
1947.000000;3.403639
1946.000000;3.348501
1945.000000;3.436295
1944.000000;3.730789
1943.000000;3.633705
1942.000000;3.269066
1941.000000;3.040282
1940.000000;2.933587
1939.000000;2.942584
1938.000000;3.070903
1937.000000;3.312799
1936.000000;3.498792
1935.000000;3.623254
1934.000000;3.656884
1933.000000;3.341120
1932.000000;3.230595
1931.000000;3.260885
1930.000000;3.348292
1929.000000;3.368570
1928.000000;3.294836
1927.000000;3.243810
1926.000000;3.310877
1925.000000;3.485622
1924.000000;3.641595
1923.000000;3.690020
1922.000000;3.440151
1921.000000;3.269760
1920.000000;3.279994
1919.000000;3.363712
1918.000000;3.396613
1917.000000;3.294376
1916.000000;3.145155
1915.000000;3.054427
1914.000000;3.063227
1913.000000;3.148162
1912.000000;3.198039
1911.000000;3.150393
1910.000000;3.077529
1909.000000;3.041258
1908.000000;3.048982
1907.000000;3.093923
1906.000000;3.188598
1905.000000;3.460037
1904.000000;3.959494
1903.000000;3.535046
1902.000000;3.387679
1901.000000;3.619473
1900.000000;3.713166
1899.000000;3.178460
1898.000000;2.989493
1897.000000;2.925431
1896.000000;2.930841
1895.000000;2.982508
1894.000000;3.117276
1893.000000;3.467640
1892.000000;3.652184
1891.000000;3.433555
1890.000000;3.303441
1889.000000;3.254239
1888.000000;3.348431
1887.000000;3.577035
1886.000000;3.758646
1885.000000;3.551581
1884.000000;3.426570
1883.000000;3.522072
1882.000000;3.940508
1881.000000;3.613636
1880.000000;3.289502
1879.000000;3.275744
1878.000000;3.558210
1877.000000;3.268820
1876.000000;2.975829
1875.000000;2.912531
1874.000000;2.952935
1873.000000;3.041938
1872.000000;3.093703
1871.000000;3.096362
1870.000000;3.069217
1869.000000;3.037272
1868.000000;3.019363
1867.000000;3.006429
1866.000000;3.018727
1865.000000;3.090297
1864.000000;3.217690
1863.000000;3.269431
1862.000000;3.186526
1861.000000;3.137795
1860.000000;3.219196
1859.000000;3.359151
1858.000000;3.335330
1857.000000;3.438336
1856.000000;3.695365
1855.000000;3.516761
1854.000000;3.654588
1853.000000;3.762417
1852.000000;3.361459
1851.000000;3.282605
1850.000000;3.346549
1849.000000;3.476331
1848.000000;3.487081
1847.000000;3.352858
1846.000000;3.240255
1845.000000;3.239120
1844.000000;3.484514
1843.000000;3.485393
1842.000000;3.225538
1841.000000;3.228737
1840.000000;3.449611
1839.000000;4.108384
1838.000000;3.753559
1837.000000;3.472267
1836.000000;3.430487
1835.000000;3.470554
1834.000000;3.618270
1833.000000;3.684174
1832.000000;3.779234
1831.000000;3.738362
1830.000000;3.596531
1829.000000;3.669289
1828.000000;3.972621
1827.000000;3.964417
1826.000000;3.497812
1825.000000;3.431890
1824.000000;3.803160
1823.000000;3.903609
1822.000000;3.531778
1821.000000;3.492286
1820.000000;3.506780
1819.000000;3.716282
1818.000000;4.148288
1817.000000;3.899452
1816.000000;3.448688
1815.000000;3.257952
1814.000000;3.241750
1813.000000;3.405217
1812.000000;4.020727
1811.000000;3.621246
1810.000000;3.329177
1809.000000;3.341363
1808.000000;3.469959
1807.000000;3.776247
1806.000000;3.739046
1805.000000;3.522181
1804.000000;3.447027
1803.000000;3.389443
1802.000000;3.306404
1801.000000;3.283922
1800.000000;3.329226
1799.000000;3.395516
1798.000000;3.480831
1797.000000;3.635285
1796.000000;3.902588
1795.000000;4.141690
1794.000000;3.896359
1793.000000;3.612723
1792.000000;3.425367
1791.000000;3.324947
1790.000000;3.270786
1789.000000;3.236099
1788.000000;3.231465
1787.000000;3.279965
1786.000000;3.375969
1785.000000;3.545818
1784.000000;3.591928
1783.000000;3.394926
1782.000000;3.260134
1781.000000;3.232419
1780.000000;3.313800
1779.000000;3.498664
1778.000000;3.567644
1777.000000;3.475392
1776.000000;3.494599
1775.000000;3.588894
1774.000000;3.509801
1773.000000;3.374645
1772.000000;3.287698
1771.000000;3.269923
1770.000000;3.405957
1769.000000;3.689709
1768.000000;3.525987
1767.000000;3.364384
1766.000000;3.345081
1765.000000;3.373213
1764.000000;3.432086
1763.000000;3.513797
1762.000000;3.665448
1761.000000;3.770985
1760.000000;3.809772
1759.000000;3.898557
1758.000000;3.479607
1757.000000;3.173326
1756.000000;3.044191
1755.000000;3.004396
1754.000000;3.034781
1753.000000;3.150480
1752.000000;3.355404
1751.000000;3.463820
1750.000000;3.457444
1749.000000;3.457670
1748.000000;3.393615
1747.000000;3.271658
1746.000000;3.208932
1745.000000;3.233301
1744.000000;3.301184
1743.000000;3.351674
1742.000000;3.367098
1741.000000;3.361675
1740.000000;3.358567
1739.000000;3.383179
1738.000000;3.471505
1737.000000;3.670131
1736.000000;3.763660
1735.000000;3.632791
1734.000000;3.547996
1733.000000;3.543705
1732.000000;3.571930
1731.000000;3.504921
1730.000000;3.469243
1729.000000;3.545999
1728.000000;3.622709
1727.000000;3.711172
1726.000000;3.854671
1725.000000;3.534807
1724.000000;3.343776
1723.000000;3.368503
1722.000000;3.527333
1721.000000;3.589061
1720.000000;3.480840
1719.000000;3.441063
1718.000000;3.525907
1717.000000;3.709841
1716.000000;3.677048
1715.000000;3.533681
1714.000000;3.479108
1713.000000;3.456571
1712.000000;3.450587
1711.000000;3.514133
1710.000000;3.729179
1709.000000;3.903028
1708.000000;3.816107
1707.000000;3.760280
1706.000000;3.683589
1705.000000;3.659729
1704.000000;3.800965
1703.000000;4.139516
1702.000000;4.218969
1701.000000;3.895995
1700.000000;3.739083
1699.000000;3.745933
1698.000000;3.843425
1697.000000;3.879432
1696.000000;3.779750
1695.000000;3.914972
1694.000000;3.855132
1693.000000;3.534682
1692.000000;3.452996
1691.000000;3.477957
1690.000000;3.500205
1689.000000;3.494170
1688.000000;3.526280
1687.000000;3.557434
1686.000000;3.543976
1685.000000;3.547963
1684.000000;3.554604
1683.000000;3.487771
1682.000000;3.387834
1681.000000;3.356469
1680.000000;3.360468
1679.000000;3.339649
1678.000000;3.315965
1677.000000;3.332063
1676.000000;3.390300
1675.000000;3.450288
1674.000000;3.447148
1673.000000;3.424095
1672.000000;3.450199
1671.000000;3.520385
1670.000000;3.566763
1669.000000;3.710971
1668.000000;3.920699
1667.000000;3.407605
1666.000000;3.177619
1665.000000;3.117400
1664.000000;3.143613
1663.000000;3.220410
1662.000000;3.310977
1661.000000;3.377016
1660.000000;3.406140
1659.000000;3.469981
1658.000000;3.572211
1657.000000;3.605623
1656.000000;3.594025
1655.000000;3.811283
1654.000000;4.166428
1653.000000;3.682822
1652.000000;3.364520
1651.000000;3.319616
1650.000000;3.434271
1649.000000;3.721760
1648.000000;4.008191
1647.000000;3.746226
1646.000000;3.585160
1645.000000;3.537431
1644.000000;3.499082
1643.000000;3.520183
1642.000000;3.715422
1641.000000;4.026242
1640.000000;3.683266
1639.000000;3.508779
1638.000000;3.532166
1637.000000;3.680417
1636.000000;3.846768
1635.000000;3.853002
1634.000000;4.135630
1633.000000;4.502559
1632.000000;3.682981
1631.000000;3.339452
1630.000000;3.173025
1629.000000;3.133179
1628.000000;3.189942
1627.000000;3.312056
1626.000000;3.446434
1625.000000;3.509886
1624.000000;3.485844
1623.000000;3.460946
1622.000000;3.498938
1621.000000;3.532335
1620.000000;3.506670
1619.000000;3.434350
1618.000000;3.329598
1617.000000;3.231377
1616.000000;3.175115
1615.000000;3.183194
1614.000000;3.265322
1613.000000;3.450744
1612.000000;3.833329
1611.000000;3.912210
1610.000000;3.507919
1609.000000;3.378029
1608.000000;3.393624
1607.000000;3.666087
1606.000000;4.173109
1605.000000;3.650742
1604.000000;3.421639
1603.000000;3.370444
1602.000000;3.419836
1601.000000;3.548822
1600.000000;3.786206
1599.000000;3.692815
1598.000000;3.402288
1597.000000;3.330082
1596.000000;3.514088
1595.000000;3.675592
1594.000000;3.332928
1593.000000;3.096801
1592.000000;2.987771
1591.000000;2.936220
1590.000000;2.953997
1589.000000;3.030719
1588.000000;3.271019
1587.000000;3.970879
1586.000000;3.338587
1585.000000;3.087002
1584.000000;3.045166
1583.000000;3.098606
1582.000000;3.270817
1581.000000;3.502897
1580.000000;3.371660
1579.000000;3.120059
1578.000000;3.040495
1577.000000;3.065106
1576.000000;3.206982
1575.000000;3.401732
1574.000000;3.262969
1573.000000;3.109755
1572.000000;3.114696
1571.000000;3.201341
1570.000000;3.338693
1569.000000;3.733543
1568.000000;3.645376
1567.000000;3.244689
1566.000000;3.121923
1565.000000;3.134231
1564.000000;3.248972
1563.000000;3.339251
1562.000000;3.302522
1561.000000;3.362749
1560.000000;3.628410
1559.000000;4.165276
1558.000000;3.761731
1557.000000;3.351607
1556.000000;3.163268
1555.000000;3.108750
1554.000000;3.150756
1553.000000;3.210867
1552.000000;3.215218
1551.000000;3.203024
1550.000000;3.241137
1549.000000;3.313388
1548.000000;3.376955
1547.000000;3.408577
1546.000000;3.403847
1545.000000;3.387756
1544.000000;3.344933
1543.000000;3.308623
1542.000000;3.329039
1541.000000;3.373708
1540.000000;3.387566
1539.000000;3.410094
1538.000000;3.454764
1537.000000;3.412189
1536.000000;3.388705
1535.000000;3.490206
1534.000000;3.644297
1533.000000;3.661839
1532.000000;3.512815
1531.000000;3.540211
1530.000000;3.921818
1529.000000;3.687453
1528.000000;3.316400
1527.000000;3.273350
1526.000000;3.512720
1525.000000;3.885287
1524.000000;3.688439
1523.000000;3.519897
1522.000000;3.436852
1521.000000;3.373613
1520.000000;3.367925
1519.000000;3.460367
1518.000000;3.698162
1517.000000;3.513600
1516.000000;3.329576
1515.000000;3.713476
1514.000000;3.666288
1513.000000;3.234083
1512.000000;3.152514
1511.000000;3.188399
1510.000000;3.168200
1509.000000;3.114386
1508.000000;3.206435
1507.000000;3.516754
1506.000000;3.708626
1505.000000;3.490014
1504.000000;3.500843
1503.000000;3.854623
1502.000000;4.015351
1501.000000;3.595217
1500.000000;3.485865
1499.000000;3.471798
1498.000000;3.487291
1497.000000;3.503292
1496.000000;3.464781
1495.000000;3.451807
1494.000000;3.511387
1493.000000;3.598434
1492.000000;3.528806
1491.000000;3.382295
1490.000000;3.315952
1489.000000;3.275155
1488.000000;3.237688
1487.000000;3.217843
1486.000000;3.193251
1485.000000;3.165876
1484.000000;3.171424
1483.000000;3.261625
1482.000000;3.453740
1481.000000;3.586810
1480.000000;3.570278
1479.000000;3.554568
1478.000000;3.519571
1477.000000;3.448410
1476.000000;3.375150
1475.000000;3.304714
1474.000000;3.232404
1473.000000;3.185784
1472.000000;3.202264
1471.000000;3.302008
1470.000000;3.484830
1469.000000;3.774245
1468.000000;3.922216
1467.000000;3.757684
1466.000000;3.674849
1465.000000;3.721261
1464.000000;4.069298
1463.000000;4.066332
1462.000000;3.686814
1461.000000;3.557300
1460.000000;3.439984
1459.000000;3.316895
1458.000000;3.215163
1457.000000;3.338885
1456.000000;3.565254
1455.000000;3.330063
1454.000000;3.267232
1453.000000;3.395418
1452.000000;3.603005
1451.000000;3.771476
1450.000000;3.618698
1449.000000;3.421805
1448.000000;3.336531
1447.000000;3.348535
1446.000000;3.380646
1445.000000;3.393937
1444.000000;3.442134
1443.000000;3.523465
1442.000000;3.533279
1441.000000;3.513568
1440.000000;3.554920
1439.000000;3.528190
1438.000000;3.490783
1437.000000;3.841174
1436.000000;3.656031
1435.000000;3.420260
1434.000000;3.486631
1433.000000;3.413023
1432.000000;3.326681
1431.000000;3.387641
1430.000000;3.736617
1429.000000;4.010277
1428.000000;3.521056
1427.000000;3.343943
1426.000000;3.335313
1425.000000;3.489633
1424.000000;3.621583
1423.000000;3.450846
1422.000000;3.389295
1421.000000;3.416568
1420.000000;3.634388
1419.000000;4.148733
1418.000000;4.027291
1417.000000;3.860203
1416.000000;3.711555
1415.000000;3.640751
1414.000000;3.537581
1413.000000;3.394588
1412.000000;3.344362
1411.000000;3.410102
1410.000000;3.582964
1409.000000;3.830125
1408.000000;4.361656
1407.000000;4.050812
1406.000000;3.565105
1405.000000;3.318230
1404.000000;3.193119
1403.000000;3.180308
1402.000000;3.237809
1401.000000;3.341482
1400.000000;3.495096
1399.000000;3.800141
1398.000000;3.902273
1397.000000;3.577530
1396.000000;3.465883
1395.000000;3.526125
1394.000000;3.606976
1393.000000;3.450541
1392.000000;3.284100
1391.000000;3.214585
1390.000000;3.159261
1389.000000;3.120308
1388.000000;3.156358
1387.000000;3.335783
1386.000000;3.764152
1385.000000;3.919593
1384.000000;3.648141
1383.000000;3.529644
1382.000000;3.396132
1381.000000;3.306890
1380.000000;3.276553
1379.000000;3.265367
1378.000000;3.264493
1377.000000;3.290430
1376.000000;3.384465
1375.000000;3.538116
1374.000000;3.602550
1373.000000;3.643412
1372.000000;3.779970
1371.000000;3.884334
1370.000000;3.801694
1369.000000;3.747111
1368.000000;3.817243
1367.000000;3.758331
1366.000000;3.637392
1365.000000;3.603349
1364.000000;3.562675
1363.000000;3.433629
1362.000000;3.330133
1361.000000;3.338901
1360.000000;3.446561
1359.000000;3.560566
1358.000000;3.541155
1357.000000;3.472929
1356.000000;3.474196
1355.000000;3.527015
1354.000000;3.553869
1353.000000;3.542349
1352.000000;3.561537
1351.000000;3.657232
1350.000000;3.951198
1349.000000;4.287774
1348.000000;4.463475
1347.000000;4.508242
1346.000000;4.233169
1345.000000;4.564161
1344.000000;4.087736
1343.000000;3.633805
1342.000000;3.371916
1341.000000;3.167056
1340.000000;3.072572
1339.000000;3.117478
1338.000000;3.362394
1337.000000;3.760860
1336.000000;3.689610
1335.000000;3.500943
1334.000000;3.438528
1333.000000;3.424032
1332.000000;3.397331
1331.000000;3.307432
1330.000000;3.234905
1329.000000;3.216616
1328.000000;3.241952
1327.000000;3.317268
1326.000000;3.498926
1325.000000;3.824998
1324.000000;4.058868
1323.000000;4.120250
1322.000000;3.978134
1321.000000;3.691165
1320.000000;3.469913
1319.000000;3.443870
1318.000000;3.437119
1317.000000;3.228576
1316.000000;3.106445
1315.000000;3.124678
1314.000000;3.250973
1313.000000;3.457515
1312.000000;3.641668
1311.000000;3.752113
1310.000000;3.795541
1309.000000;3.845295
1308.000000;4.005125
1307.000000;4.030404
1306.000000;3.925310
1305.000000;3.786851
1304.000000;3.582134
1303.000000;3.520052
1302.000000;3.617486
1301.000000;3.776651
1300.000000;3.805425
1299.000000;3.791856
1298.000000;3.896709
1297.000000;3.736259
1296.000000;3.575038
1295.000000;3.594188
1294.000000;3.880333
1293.000000;4.628627
1292.000000;3.960859
1291.000000;3.667081
1290.000000;3.587881
1289.000000;3.610371
1288.000000;3.861106
1287.000000;4.123029
1286.000000;3.716407
1285.000000;3.473733
1284.000000;3.392613
1283.000000;3.397088
1282.000000;3.535932
1281.000000;3.763399
1280.000000;3.714795
1279.000000;3.497242
1278.000000;3.324956
1277.000000;3.231541
1276.000000;3.289208
1275.000000;3.472585
1274.000000;3.743101
1273.000000;4.166468
1272.000000;3.967902
1271.000000;3.745256
1270.000000;3.714428
1269.000000;3.627504
1268.000000;3.531937
1267.000000;3.468803
1266.000000;3.455311
1265.000000;3.554985
1264.000000;3.663086
1263.000000;3.517847
1262.000000;3.392386
1261.000000;3.382307
1260.000000;3.456704
1259.000000;3.595632
1258.000000;3.641277
1257.000000;3.578483
1256.000000;3.574981
1255.000000;3.606888
1254.000000;3.537169
1253.000000;3.388596
1252.000000;3.317730
1251.000000;3.357362
1250.000000;3.506063
1249.000000;3.632582
1248.000000;3.641466
1247.000000;3.585469
1246.000000;3.657896
1245.000000;4.245565
1244.000000;3.881901
1243.000000;3.560555
1242.000000;3.629579
1241.000000;3.866896
1240.000000;4.349891
1239.000000;4.662043
1238.000000;4.222475
1237.000000;3.838445
1236.000000;3.647844
1235.000000;3.643720
1234.000000;3.792698
1233.000000;3.763640
1232.000000;3.562738
1231.000000;3.473419
1230.000000;3.432266
1229.000000;3.374557
1228.000000;3.323251
1227.000000;3.322567
1226.000000;3.366398
1225.000000;3.405333
1224.000000;3.442621
1223.000000;3.538459
1222.000000;3.796112
1221.000000;4.020685
1220.000000;3.996490
1219.000000;4.074664
1218.000000;3.834463
1217.000000;3.624597
1216.000000;3.607405
1215.000000;3.693420
1214.000000;3.771168
1213.000000;3.698704
1212.000000;3.581729
1211.000000;3.508517
1210.000000;3.494653
1209.000000;3.515531
1208.000000;3.562742
1207.000000;3.602468
1206.000000;3.530507
1205.000000;3.435541
1204.000000;3.532692
1203.000000;3.924906
1202.000000;3.690063
1201.000000;3.427591
1200.000000;3.322830
