Criado como novo conjunto de dados;"0307_DANIEL.spp","42124.2 Secs"
cm-1;Abs
10000.000000;1.049331
9999.000000;1.048810
9998.000000;1.048290
9997.000000;1.047770
9996.000000;1.047251
9995.000000;1.046733
9994.000000;1.046215
9993.000000;1.045698
9992.000000;1.045181
9991.000000;1.044665
9990.000000;1.044073
9989.000000;1.043343
9988.000000;1.042362
9987.000000;1.041071
9986.000000;1.039584
9985.000000;1.038056
9984.000000;1.036462
9983.000000;1.034598
9982.000000;1.032398
9981.000000;1.030217
9980.000000;1.028683
9979.000000;1.028181
9978.000000;1.028440
9977.000000;1.028671
9976.000000;1.028181
9975.000000;1.026856
9974.000000;1.025103
9973.000000;1.023418
9972.000000;1.022059
9971.000000;1.020979
9970.000000;1.019916
9969.000000;1.018605
9968.000000;1.017059
9967.000000;1.015606
9966.000000;1.014535
9965.000000;1.013724
9964.000000;1.012785
9963.000000;1.011529
9962.000000;1.010104
9961.000000;1.008670
9960.000000;1.007211
9959.000000;1.005764
9958.000000;1.004562
9957.000000;1.003739
9956.000000;1.003049
9955.000000;1.002116
9954.000000;1.000898
9953.000000;0.999652
9952.000000;0.998491
9951.000000;0.997213
9950.000000;0.995613
9949.000000;0.993771
9948.000000;0.991954
9947.000000;0.990366
9946.000000;0.989047
9945.000000;0.987895
9944.000000;0.986723
9943.000000;0.985372
9942.000000;0.983869
9941.000000;0.982413
9940.000000;0.981170
9939.000000;0.980110
9938.000000;0.979094
9937.000000;0.978041
9936.000000;0.976953
9935.000000;0.975810
9934.000000;0.974527
9933.000000;0.973022
9932.000000;0.971303
9931.000000;0.969492
9930.000000;0.967786
9929.000000;0.966392
9928.000000;0.965410
9927.000000;0.964734
9926.000000;0.964059
9925.000000;0.963091
9924.000000;0.961812
9923.000000;0.960500
9922.000000;0.959391
9921.000000;0.958353
9920.000000;0.957009
9919.000000;0.955236
9918.000000;0.953388
9917.000000;0.951927
9916.000000;0.950906
9915.000000;0.949967
9914.000000;0.948797
9913.000000;0.947451
9912.000000;0.946165
9911.000000;0.945002
9910.000000;0.943830
9909.000000;0.942602
9908.000000;0.941474
9907.000000;0.940539
9906.000000;0.939562
9905.000000;0.938158
9904.000000;0.936262
9903.000000;0.934285
9902.000000;0.932694
9901.000000;0.931537
9900.000000;0.930486
9899.000000;0.929249
9898.000000;0.927785
9897.000000;0.926182
9896.000000;0.924540
9895.000000;0.923004
9894.000000;0.921718
9893.000000;0.920665
9892.000000;0.919675
9891.000000;0.918643
9890.000000;0.917602
9889.000000;0.916550
9888.000000;0.915372
9887.000000;0.914015
9886.000000;0.912585
9885.000000;0.911142
9884.000000;0.909550
9883.000000;0.907682
9882.000000;0.905675
9881.000000;0.903787
9880.000000;0.902114
9879.000000;0.900602
9878.000000;0.899270
9877.000000;0.898186
9876.000000;0.897234
9875.000000;0.896094
9874.000000;0.894533
9873.000000;0.892608
9872.000000;0.890565
9871.000000;0.888620
9870.000000;0.886868
9869.000000;0.885320
9868.000000;0.883985
9867.000000;0.882919
9866.000000;0.882133
9865.000000;0.881417
9864.000000;0.880378
9863.000000;0.878786
9862.000000;0.876870
9861.000000;0.875133
9860.000000;0.873883
9859.000000;0.873036
9858.000000;0.872283
9857.000000;0.871323
9856.000000;0.869956
9855.000000;0.868148
9854.000000;0.866071
9853.000000;0.864004
9852.000000;0.862131
9851.000000;0.860458
9850.000000;0.858893
9849.000000;0.857346
9848.000000;0.855772
9847.000000;0.854202
9846.000000;0.852714
9845.000000;0.851326
9844.000000;0.849967
9843.000000;0.848590
9842.000000;0.847260
9841.000000;0.846044
9840.000000;0.844888
9839.000000;0.843677
9838.000000;0.842365
9837.000000;0.840946
9836.000000;0.839397
9835.000000;0.837742
9834.000000;0.836091
9833.000000;0.834494
9832.000000;0.832866
9831.000000;0.831186
9830.000000;0.829621
9829.000000;0.828240
9828.000000;0.826768
9827.000000;0.824908
9826.000000;0.822842
9825.000000;0.821080
9824.000000;0.819846
9823.000000;0.818906
9822.000000;0.817967
9821.000000;0.816918
9820.000000;0.815617
9819.000000;0.813875
9818.000000;0.811813
9817.000000;0.809886
9816.000000;0.808346
9815.000000;0.806946
9814.000000;0.805410
9813.000000;0.803838
9812.000000;0.802368
9811.000000;0.800740
9810.000000;0.798657
9809.000000;0.796411
9808.000000;0.794640
9807.000000;0.793460
9806.000000;0.792272
9805.000000;0.790566
9804.000000;0.788561
9803.000000;0.786859
9802.000000;0.785709
9801.000000;0.784825
9800.000000;0.783753
9799.000000;0.782211
9798.000000;0.780191
9797.000000;0.777955
9796.000000;0.775893
9795.000000;0.774225
9794.000000;0.772811
9793.000000;0.771348
9792.000000;0.769712
9791.000000;0.768006
9790.000000;0.766296
9789.000000;0.764477
9788.000000;0.762484
9787.000000;0.760501
9786.000000;0.758824
9785.000000;0.757532
9784.000000;0.756390
9783.000000;0.755085
9782.000000;0.753505
9781.000000;0.751770
9780.000000;0.750066
9779.000000;0.748500
9778.000000;0.747059
9777.000000;0.745644
9776.000000;0.744139
9775.000000;0.742473
9774.000000;0.740616
9773.000000;0.738558
9772.000000;0.736392
9771.000000;0.734396
9770.000000;0.732902
9769.000000;0.731931
9768.000000;0.731050
9767.000000;0.729714
9766.000000;0.727770
9765.000000;0.725516
9764.000000;0.723306
9763.000000;0.721216
9762.000000;0.719125
9761.000000;0.716961
9760.000000;0.714802
9759.000000;0.712824
9758.000000;0.711213
9757.000000;0.710033
9756.000000;0.709086
9755.000000;0.707968
9754.000000;0.706390
9753.000000;0.704453
9752.000000;0.702557
9751.000000;0.701033
9750.000000;0.699861
9749.000000;0.698699
9748.000000;0.697190
9747.000000;0.695281
9746.000000;0.693257
9745.000000;0.691434
9744.000000;0.689785
9743.000000;0.687920
9742.000000;0.685484
9741.000000;0.682580
9740.000000;0.679735
9739.000000;0.677473
9738.000000;0.675921
9737.000000;0.674801
9736.000000;0.673709
9735.000000;0.672394
9734.000000;0.670799
9733.000000;0.668957
9732.000000;0.666929
9731.000000;0.664828
9730.000000;0.662798
9729.000000;0.660889
9728.000000;0.659004
9727.000000;0.657048
9726.000000;0.655075
9725.000000;0.653238
9724.000000;0.651598
9723.000000;0.650039
9722.000000;0.648352
9721.000000;0.646382
9720.000000;0.644166
9719.000000;0.641969
9718.000000;0.640105
9717.000000;0.638610
9716.000000;0.637156
9715.000000;0.635408
9714.000000;0.633406
9713.000000;0.631451
9712.000000;0.629692
9711.000000;0.627994
9710.000000;0.626187
9709.000000;0.624246
9708.000000;0.622195
9707.000000;0.620050
9706.000000;0.617920
9705.000000;0.615995
9704.000000;0.614316
9703.000000;0.612693
9702.000000;0.610921
9701.000000;0.608979
9700.000000;0.606955
9699.000000;0.604905
9698.000000;0.602871
9697.000000;0.600872
9696.000000;0.598799
9695.000000;0.596477
9694.000000;0.593968
9693.000000;0.591661
9692.000000;0.589862
9691.000000;0.588426
9690.000000;0.586937
9689.000000;0.585188
9688.000000;0.583271
9687.000000;0.581276
9686.000000;0.579130
9685.000000;0.576781
9684.000000;0.574336
9683.000000;0.571971
9682.000000;0.569796
9681.000000;0.567854
9680.000000;0.566121
9679.000000;0.564466
9678.000000;0.562695
9677.000000;0.560677
9676.000000;0.558381
9675.000000;0.555841
9674.000000;0.553185
9673.000000;0.550686
9672.000000;0.548589
9671.000000;0.546846
9670.000000;0.545127
9669.000000;0.543207
9668.000000;0.541226
9667.000000;0.539462
9666.000000;0.537926
9665.000000;0.536313
9664.000000;0.534361
9663.000000;0.532102
9662.000000;0.529731
9661.000000;0.527334
9660.000000;0.524901
9659.000000;0.522554
9658.000000;0.520562
9657.000000;0.519024
9656.000000;0.517605
9655.000000;0.515764
9654.000000;0.513286
9653.000000;0.510454
9652.000000;0.507678
9651.000000;0.505111
9650.000000;0.502726
9649.000000;0.500603
9648.000000;0.498896
9647.000000;0.497538
9646.000000;0.496164
9645.000000;0.494435
9644.000000;0.492312
9643.000000;0.489944
9642.000000;0.487400
9641.000000;0.484656
9640.000000;0.481811
9639.000000;0.479157
9638.000000;0.476951
9637.000000;0.475148
9636.000000;0.473427
9635.000000;0.471478
9634.000000;0.469241
9633.000000;0.466843
9632.000000;0.464390
9631.000000;0.461897
9630.000000;0.459395
9629.000000;0.457005
9628.000000;0.454839
9627.000000;0.452867
9626.000000;0.450984
9625.000000;0.449158
9624.000000;0.447433
9623.000000;0.445772
9622.000000;0.443987
9621.000000;0.441894
9620.000000;0.439510
9619.000000;0.437020
9618.000000;0.434556
9617.000000;0.432075
9616.000000;0.429490
9615.000000;0.426836
9614.000000;0.424250
9613.000000;0.421809
9612.000000;0.419483
9611.000000;0.417251
9610.000000;0.415128
9609.000000;0.413035
9608.000000;0.410775
9607.000000;0.408264
9606.000000;0.405683
9605.000000;0.403244
9604.000000;0.400867
9603.000000;0.398278
9602.000000;0.395450
9601.000000;0.392732
9600.000000;0.390463
9599.000000;0.388595
9598.000000;0.386804
9597.000000;0.384855
9596.000000;0.382697
9595.000000;0.380302
9594.000000;0.377625
9593.000000;0.374772
9592.000000;0.372058
9591.000000;0.369780
9590.000000;0.367923
9589.000000;0.366152
9588.000000;0.364156
9587.000000;0.361975
9586.000000;0.359902
9585.000000;0.358031
9584.000000;0.356036
9583.000000;0.353554
9582.000000;0.350656
9581.000000;0.347740
9580.000000;0.345008
9579.000000;0.342337
9578.000000;0.339687
9577.000000;0.337279
9576.000000;0.335193
9575.000000;0.333094
9574.000000;0.330641
9573.000000;0.327969
9572.000000;0.325464
9571.000000;0.323210
9570.000000;0.320976
9569.000000;0.318674
9568.000000;0.316477
9567.000000;0.314490
9566.000000;0.312625
9565.000000;0.310838
9564.000000;0.309153
9563.000000;0.307368
9562.000000;0.305085
9561.000000;0.302215
9560.000000;0.299202
9559.000000;0.296515
9558.000000;0.294123
9557.000000;0.291700
9556.000000;0.289147
9555.000000;0.286653
9554.000000;0.284343
9553.000000;0.282156
9552.000000;0.280053
9551.000000;0.278072
9550.000000;0.276156
9549.000000;0.274123
9548.000000;0.271888
9547.000000;0.269558
9546.000000;0.267270
9545.000000;0.265060
9544.000000;0.262948
9543.000000;0.261003
9542.000000;0.259196
9541.000000;0.257293
9540.000000;0.255045
9539.000000;0.252469
9538.000000;0.249850
9537.000000;0.247415
9536.000000;0.245098
9535.000000;0.242680
9534.000000;0.240132
9533.000000;0.237723
9532.000000;0.235743
9531.000000;0.234124
9530.000000;0.232441
9529.000000;0.230318
9528.000000;0.227790
9527.000000;0.225236
9526.000000;0.222990
9525.000000;0.221084
9524.000000;0.219323
9523.000000;0.217523
9522.000000;0.215653
9521.000000;0.213805
9520.000000;0.212055
9519.000000;0.210320
9518.000000;0.208370
9517.000000;0.206021
9516.000000;0.203320
9515.000000;0.200543
9514.000000;0.198025
9513.000000;0.196001
9512.000000;0.194532
9511.000000;0.193458
9510.000000;0.192423
9509.000000;0.191081
9508.000000;0.189344
9507.000000;0.187417
9506.000000;0.185547
9505.000000;0.183777
9504.000000;0.181957
9503.000000;0.179934
9502.000000;0.177713
9501.000000;0.175483
9500.000000;0.173497
9499.000000;0.171881
9498.000000;0.170492
9497.000000;0.169028
9496.000000;0.167324
9495.000000;0.165515
9494.000000;0.163835
9493.000000;0.162309
9492.000000;0.160737
9491.000000;0.158989
9490.000000;0.157239
9489.000000;0.155831
9488.000000;0.154936
9487.000000;0.154375
9486.000000;0.153781
9485.000000;0.152926
9484.000000;0.151845
9483.000000;0.150658
9482.000000;0.149360
9481.000000;0.147912
9480.000000;0.146468
9479.000000;0.145320
9478.000000;0.144533
9477.000000;0.143795
9476.000000;0.142782
9475.000000;0.141572
9474.000000;0.140511
9473.000000;0.139716
9472.000000;0.138928
9471.000000;0.137881
9470.000000;0.136619
9469.000000;0.135343
9468.000000;0.134125
9467.000000;0.132933
9466.000000;0.131841
9465.000000;0.131034
9464.000000;0.130571
9463.000000;0.130272
9462.000000;0.129860
9461.000000;0.129201
9460.000000;0.128380
9459.000000;0.127570
9458.000000;0.126816
9457.000000;0.125998
9456.000000;0.125041
9455.000000;0.124136
9454.000000;0.123625
9453.000000;0.123628
9452.000000;0.123882
9451.000000;0.123977
9450.000000;0.123699
9449.000000;0.123092
9448.000000;0.122340
9447.000000;0.121686
9446.000000;0.121335
9445.000000;0.121306
9444.000000;0.121391
9443.000000;0.121406
9442.000000;0.121431
9441.000000;0.121688
9440.000000;0.122201
9439.000000;0.122693
9438.000000;0.122843
9437.000000;0.122571
9436.000000;0.122068
9435.000000;0.121650
9434.000000;0.121567
9433.000000;0.121862
9432.000000;0.122348
9431.000000;0.122764
9430.000000;0.122975
9429.000000;0.123034
9428.000000;0.123113
9427.000000;0.123398
9426.000000;0.123972
9425.000000;0.124716
9424.000000;0.125350
9423.000000;0.125704
9422.000000;0.125905
9421.000000;0.126240
9420.000000;0.126836
9419.000000;0.127566
9418.000000;0.128203
9417.000000;0.128587
9416.000000;0.128698
9415.000000;0.128708
9414.000000;0.128944
9413.000000;0.129625
9412.000000;0.130604
9411.000000;0.131486
9410.000000;0.132063
9409.000000;0.132509
9408.000000;0.133117
9407.000000;0.133948
9406.000000;0.134837
9405.000000;0.135648
9404.000000;0.136428
9403.000000;0.137327
9402.000000;0.138421
9401.000000;0.139635
9400.000000;0.140819
9399.000000;0.141891
9398.000000;0.142865
9397.000000;0.143732
9396.000000;0.144410
9395.000000;0.144922
9394.000000;0.145514
9393.000000;0.146438
9392.000000;0.147616
9391.000000;0.148699
9390.000000;0.149461
9389.000000;0.150025
9388.000000;0.150659
9387.000000;0.151529
9386.000000;0.152694
9385.000000;0.154161
9384.000000;0.155792
9383.000000;0.157284
9382.000000;0.158395
9381.000000;0.159150
9380.000000;0.159763
9379.000000;0.160428
9378.000000;0.161284
9377.000000;0.162441
9376.000000;0.163888
9375.000000;0.165387
9374.000000;0.166643
9373.000000;0.167596
9372.000000;0.168468
9371.000000;0.169507
9370.000000;0.170742
9369.000000;0.172007
9368.000000;0.173101
9367.000000;0.173940
9366.000000;0.174626
9365.000000;0.175400
9364.000000;0.176486
9363.000000;0.177928
9362.000000;0.179555
9361.000000;0.181080
9360.000000;0.182258
9359.000000;0.183035
9358.000000;0.183627
9357.000000;0.184393
9356.000000;0.185556
9355.000000;0.187019
9354.000000;0.188480
9353.000000;0.189698
9352.000000;0.190647
9351.000000;0.191454
9350.000000;0.192291
9349.000000;0.193285
9348.000000;0.194442
9347.000000;0.195649
9346.000000;0.196802
9345.000000;0.197925
9344.000000;0.199129
9343.000000;0.200482
9342.000000;0.201977
9341.000000;0.203569
9340.000000;0.205141
9339.000000;0.206472
9338.000000;0.207404
9337.000000;0.208079
9336.000000;0.208873
9335.000000;0.210018
9334.000000;0.211386
9333.000000;0.212712
9332.000000;0.213934
9331.000000;0.215166
9330.000000;0.216429
9329.000000;0.217571
9328.000000;0.218484
9327.000000;0.219270
9326.000000;0.220150
9325.000000;0.221298
9324.000000;0.222758
9323.000000;0.224411
9322.000000;0.225930
9321.000000;0.226908
9320.000000;0.227189
9319.000000;0.227121
9318.000000;0.227368
9317.000000;0.228410
9316.000000;0.230199
9315.000000;0.232260
9314.000000;0.234056
9313.000000;0.235329
9312.000000;0.236185
9311.000000;0.236951
9310.000000;0.237901
9309.000000;0.239065
9308.000000;0.240282
9307.000000;0.241416
9306.000000;0.242495
9305.000000;0.243633
9304.000000;0.244886
9303.000000;0.246213
9302.000000;0.247546
9301.000000;0.248833
9300.000000;0.250045
9299.000000;0.251187
9298.000000;0.252316
9297.000000;0.253493
9296.000000;0.254697
9295.000000;0.255817
9294.000000;0.256761
9293.000000;0.257591
9292.000000;0.258492
9291.000000;0.259582
9290.000000;0.260759
9289.000000;0.261803
9288.000000;0.262648
9287.000000;0.263492
9286.000000;0.264573
9285.000000;0.265899
9284.000000;0.267265
9283.000000;0.268505
9282.000000;0.269607
9281.000000;0.270581
9280.000000;0.271387
9279.000000;0.272057
9278.000000;0.272766
9277.000000;0.273651
9276.000000;0.274637
9275.000000;0.275559
9274.000000;0.276412
9273.000000;0.277351
9272.000000;0.278469
9271.000000;0.279685
9270.000000;0.280874
9269.000000;0.281983
9268.000000;0.283005
9267.000000;0.283932
9266.000000;0.284807
9265.000000;0.285738
9264.000000;0.286802
9263.000000;0.287965
9262.000000;0.289126
9261.000000;0.290185
9260.000000;0.291049
9259.000000;0.291657
9258.000000;0.292092
9257.000000;0.292623
9256.000000;0.293523
9255.000000;0.294813
9254.000000;0.296223
9253.000000;0.297424
9252.000000;0.298306
9251.000000;0.299006
9250.000000;0.299704
9249.000000;0.300449
9248.000000;0.301181
9247.000000;0.301874
9246.000000;0.302602
9245.000000;0.303459
9244.000000;0.304468
9243.000000;0.305563
9242.000000;0.306647
9241.000000;0.307634
9240.000000;0.308497
9239.000000;0.309289
9238.000000;0.310090
9237.000000;0.310905
9236.000000;0.311687
9235.000000;0.312476
9234.000000;0.313419
9233.000000;0.314564
9232.000000;0.315707
9231.000000;0.316582
9230.000000;0.317188
9229.000000;0.317781
9228.000000;0.318530
9227.000000;0.319317
9226.000000;0.319954
9225.000000;0.320481
9224.000000;0.321150
9223.000000;0.322152
9222.000000;0.323424
9221.000000;0.324719
9220.000000;0.325802
9219.000000;0.326609
9218.000000;0.327235
9217.000000;0.327789
9216.000000;0.328292
9215.000000;0.328746
9214.000000;0.329267
9213.000000;0.329993
9212.000000;0.330882
9211.000000;0.331698
9210.000000;0.332295
9209.000000;0.332803
9208.000000;0.333452
9207.000000;0.334287
9206.000000;0.335150
9205.000000;0.335879
9204.000000;0.336440
9203.000000;0.336912
9202.000000;0.337437
9201.000000;0.338172
9200.000000;0.339152
9199.000000;0.340207
9198.000000;0.341098
9197.000000;0.341763
9196.000000;0.342363
9195.000000;0.343078
9194.000000;0.343928
9193.000000;0.344798
9192.000000;0.345567
9191.000000;0.346199
9190.000000;0.346766
9189.000000;0.347401
9188.000000;0.348176
9187.000000;0.349021
9186.000000;0.349810
9185.000000;0.350533
9184.000000;0.351295
9183.000000;0.352143
9182.000000;0.352955
9181.000000;0.353555
9180.000000;0.353892
9179.000000;0.354061
9178.000000;0.354229
9177.000000;0.354546
9176.000000;0.355082
9175.000000;0.355772
9174.000000;0.356483
9173.000000;0.357153
9172.000000;0.357842
9171.000000;0.358593
9170.000000;0.359324
9169.000000;0.359929
9168.000000;0.360430
9167.000000;0.360957
9166.000000;0.361570
9165.000000;0.362186
9164.000000;0.362698
9163.000000;0.363107
9162.000000;0.363519
9161.000000;0.364050
9160.000000;0.364719
9159.000000;0.365411
9158.000000;0.365957
9157.000000;0.366290
9156.000000;0.366545
9155.000000;0.366960
9154.000000;0.367675
9153.000000;0.368634
9152.000000;0.369637
9151.000000;0.370447
9150.000000;0.370906
9149.000000;0.371047
9148.000000;0.371090
9147.000000;0.371279
9146.000000;0.371686
9145.000000;0.372242
9144.000000;0.372920
9143.000000;0.373755
9142.000000;0.374666
9141.000000;0.375397
9140.000000;0.375769
9139.000000;0.375911
9138.000000;0.376116
9137.000000;0.376512
9136.000000;0.376985
9135.000000;0.377409
9134.000000;0.377809
9133.000000;0.378267
9132.000000;0.378809
9131.000000;0.379430
9130.000000;0.380146
9129.000000;0.380922
9128.000000;0.381605
9127.000000;0.382042
9126.000000;0.382256
9125.000000;0.382451
9124.000000;0.382822
9123.000000;0.383421
9122.000000;0.384158
9121.000000;0.384875
9120.000000;0.385393
9119.000000;0.385605
9118.000000;0.385594
9117.000000;0.385629
9116.000000;0.385954
9115.000000;0.386563
9114.000000;0.387232
9113.000000;0.387798
9112.000000;0.388327
9111.000000;0.388957
9110.000000;0.389617
9109.000000;0.390030
9108.000000;0.390035
9107.000000;0.389822
9106.000000;0.389760
9105.000000;0.390053
9104.000000;0.390618
9103.000000;0.391259
9102.000000;0.391833
9101.000000;0.392259
9100.000000;0.392478
9099.000000;0.392511
9098.000000;0.392519
9097.000000;0.392734
9096.000000;0.393304
9095.000000;0.394212
9094.000000;0.395294
9093.000000;0.396298
9092.000000;0.396983
9091.000000;0.397247
9090.000000;0.397179
9089.000000;0.396966
9088.000000;0.396743
9087.000000;0.396572
9086.000000;0.396544
9085.000000;0.396819
9084.000000;0.397506
9083.000000;0.398508
9082.000000;0.399502
9081.000000;0.400122
9080.000000;0.400221
9079.000000;0.399994
9078.000000;0.399841
9077.000000;0.400067
9076.000000;0.400661
9075.000000;0.401353
9074.000000;0.401883
9073.000000;0.402207
9072.000000;0.402465
9071.000000;0.402794
9070.000000;0.403199
9069.000000;0.403579
9068.000000;0.403837
9067.000000;0.403943
9066.000000;0.403921
9065.000000;0.403836
9064.000000;0.403798
9063.000000;0.403932
9062.000000;0.404293
9061.000000;0.404797
9060.000000;0.405275
9059.000000;0.405618
9058.000000;0.405845
9057.000000;0.406050
9056.000000;0.406289
9055.000000;0.406528
9054.000000;0.406671
9053.000000;0.406635
9052.000000;0.406465
9051.000000;0.406384
9050.000000;0.406679
9049.000000;0.407443
9048.000000;0.408440
9047.000000;0.409253
9046.000000;0.409620
9045.000000;0.409619
9044.000000;0.409564
9043.000000;0.409739
9042.000000;0.410200
9041.000000;0.410761
9040.000000;0.411170
9039.000000;0.411324
9038.000000;0.411347
9037.000000;0.411445
9036.000000;0.411685
9035.000000;0.411932
9034.000000;0.412010
9033.000000;0.411910
9032.000000;0.411829
9031.000000;0.412015
9030.000000;0.412556
9029.000000;0.413290
9028.000000;0.413901
9027.000000;0.414149
9026.000000;0.414037
9025.000000;0.413787
9024.000000;0.413657
9023.000000;0.413776
9022.000000;0.414106
9021.000000;0.414508
9020.000000;0.414832
9019.000000;0.414994
9018.000000;0.415017
9017.000000;0.415016
9016.000000;0.415107
9015.000000;0.415298
9014.000000;0.415476
9013.000000;0.415531
9012.000000;0.415505
9011.000000;0.415577
9010.000000;0.415849
9009.000000;0.416190
9008.000000;0.416362
9007.000000;0.416324
9006.000000;0.416303
9005.000000;0.416510
9004.000000;0.416863
9003.000000;0.417097
9002.000000;0.417097
9001.000000;0.417021
9000.000000;0.417077
8999.000000;0.417290
8998.000000;0.417542
8997.000000;0.417729
8996.000000;0.417811
8995.000000;0.417782
8994.000000;0.417690
8993.000000;0.417651
8992.000000;0.417781
8991.000000;0.418100
8990.000000;0.418554
8989.000000;0.419090
8988.000000;0.419654
8987.000000;0.420127
8986.000000;0.420376
8985.000000;0.420376
8984.000000;0.420211
8983.000000;0.419966
8982.000000;0.419693
8981.000000;0.419504
8980.000000;0.419567
8979.000000;0.419934
8978.000000;0.420418
8977.000000;0.420746
8976.000000;0.420815
8975.000000;0.420739
8974.000000;0.420664
8973.000000;0.420606
8972.000000;0.420489
8971.000000;0.420280
8970.000000;0.420079
8969.000000;0.420081
8968.000000;0.420440
8967.000000;0.421105
8966.000000;0.421795
8965.000000;0.422187
8964.000000;0.422180
8963.000000;0.421939
8962.000000;0.421687
8961.000000;0.421522
8960.000000;0.421459
8959.000000;0.421554
8958.000000;0.421883
8957.000000;0.422416
8956.000000;0.422967
8955.000000;0.423326
8954.000000;0.423424
8953.000000;0.423367
8952.000000;0.423323
8951.000000;0.423368
8950.000000;0.423421
8949.000000;0.423328
8948.000000;0.423035
8947.000000;0.422653
8946.000000;0.422353
8945.000000;0.422213
8944.000000;0.422211
8943.000000;0.422300
8942.000000;0.422431
8941.000000;0.422496
8940.000000;0.422375
8939.000000;0.422093
8938.000000;0.421861
8937.000000;0.421886
8936.000000;0.422167
8935.000000;0.422524
8934.000000;0.422799
8933.000000;0.422963
8932.000000;0.423043
8931.000000;0.423054
8930.000000;0.423045
8929.000000;0.423112
8928.000000;0.423292
8927.000000;0.423475
8926.000000;0.423530
8925.000000;0.423486
8924.000000;0.423514
8923.000000;0.423699
8922.000000;0.423911
8921.000000;0.423935
8920.000000;0.423688
8919.000000;0.423272
8918.000000;0.422847
8917.000000;0.422528
8916.000000;0.422354
8915.000000;0.422311
8914.000000;0.422356
8913.000000;0.422491
8912.000000;0.422777
8911.000000;0.423239
8910.000000;0.423754
8909.000000;0.424113
8908.000000;0.424200
8907.000000;0.424083
8906.000000;0.423894
8905.000000;0.423692
8904.000000;0.423462
8903.000000;0.423208
8902.000000;0.422991
8901.000000;0.422905
8900.000000;0.423021
8899.000000;0.423312
8898.000000;0.423612
8897.000000;0.423710
8896.000000;0.423545
8895.000000;0.423283
8894.000000;0.423118
8893.000000;0.423046
8892.000000;0.422909
8891.000000;0.422638
8890.000000;0.422374
8889.000000;0.422297
8888.000000;0.422416
8887.000000;0.422570
8886.000000;0.422601
8885.000000;0.422486
8884.000000;0.422319
8883.000000;0.422215
8882.000000;0.422222
8881.000000;0.422311
8880.000000;0.422414
8879.000000;0.422466
8878.000000;0.422431
8877.000000;0.422312
8876.000000;0.422174
8875.000000;0.422127
8874.000000;0.422224
8873.000000;0.422380
8872.000000;0.422431
8871.000000;0.422306
8870.000000;0.422115
8869.000000;0.422043
8868.000000;0.422149
8867.000000;0.422295
8866.000000;0.422262
8865.000000;0.421961
8864.000000;0.421526
8863.000000;0.421202
8862.000000;0.421143
8861.000000;0.421306
8860.000000;0.421535
8859.000000;0.421691
8858.000000;0.421718
8857.000000;0.421630
8856.000000;0.421506
8855.000000;0.421454
8854.000000;0.421529
8853.000000;0.421665
8852.000000;0.421744
8851.000000;0.421702
8850.000000;0.421553
8849.000000;0.421338
8848.000000;0.421128
8847.000000;0.421042
8846.000000;0.421141
8845.000000;0.421299
8844.000000;0.421268
8843.000000;0.420948
8842.000000;0.420531
8841.000000;0.420301
8840.000000;0.420331
8839.000000;0.420438
8838.000000;0.420431
8837.000000;0.420320
8836.000000;0.420268
8835.000000;0.420376
8834.000000;0.420567
8833.000000;0.420678
8832.000000;0.420644
8831.000000;0.420552
8830.000000;0.420514
8829.000000;0.420529
8828.000000;0.420531
8827.000000;0.420508
8826.000000;0.420503
8825.000000;0.420507
8824.000000;0.420448
8823.000000;0.420321
8822.000000;0.420226
8821.000000;0.420221
8820.000000;0.420205
8819.000000;0.420053
8818.000000;0.419817
8817.000000;0.419713
8816.000000;0.419892
8815.000000;0.420301
8814.000000;0.420755
8813.000000;0.421089
8812.000000;0.421209
8811.000000;0.421095
8810.000000;0.420800
8809.000000;0.420427
8808.000000;0.420069
8807.000000;0.419780
8806.000000;0.419594
8805.000000;0.419565
8804.000000;0.419724
8803.000000;0.420024
8802.000000;0.420317
8801.000000;0.420412
8800.000000;0.420203
8799.000000;0.419775
8798.000000;0.419376
8797.000000;0.419226
8796.000000;0.419323
8795.000000;0.419474
8794.000000;0.419522
8793.000000;0.419510
8792.000000;0.419593
8791.000000;0.419835
8790.000000;0.420130
8789.000000;0.420306
8788.000000;0.420264
8787.000000;0.420038
8786.000000;0.419771
8785.000000;0.419625
8784.000000;0.419671
8783.000000;0.419829
8782.000000;0.419954
8781.000000;0.419999
8780.000000;0.420035
8779.000000;0.420124
8778.000000;0.420202
8777.000000;0.420176
8776.000000;0.420108
8775.000000;0.420202
8774.000000;0.420572
8773.000000;0.421067
8772.000000;0.421391
8771.000000;0.421373
8770.000000;0.421097
8769.000000;0.420783
8768.000000;0.420592
8767.000000;0.420552
8766.000000;0.420607
8765.000000;0.420679
8764.000000;0.420694
8763.000000;0.420619
8762.000000;0.420490
8761.000000;0.420393
8760.000000;0.420407
8759.000000;0.420542
8758.000000;0.420729
8757.000000;0.420847
8756.000000;0.420768
8755.000000;0.420426
8754.000000;0.419905
8753.000000;0.419448
8752.000000;0.419306
8751.000000;0.419525
8750.000000;0.419877
8749.000000;0.420060
8748.000000;0.419990
8747.000000;0.419872
8746.000000;0.419970
8745.000000;0.420324
8744.000000;0.420701
8743.000000;0.420832
8742.000000;0.420674
8741.000000;0.420458
8740.000000;0.420457
8739.000000;0.420732
8738.000000;0.421085
8737.000000;0.421277
8736.000000;0.421254
8735.000000;0.421147
8734.000000;0.421088
8733.000000;0.421070
8732.000000;0.421016
8731.000000;0.420916
8730.000000;0.420857
8729.000000;0.420932
8728.000000;0.421139
8727.000000;0.421372
8726.000000;0.421496
8725.000000;0.421448
8724.000000;0.421272
8723.000000;0.421071
8722.000000;0.420911
8721.000000;0.420784
8720.000000;0.420651
8719.000000;0.420494
8718.000000;0.420335
8717.000000;0.420228
8716.000000;0.420228
8715.000000;0.420351
8714.000000;0.420535
8713.000000;0.420655
8712.000000;0.420612
8711.000000;0.420415
8710.000000;0.420166
8709.000000;0.419990
8708.000000;0.419954
8707.000000;0.420049
8706.000000;0.420214
8705.000000;0.420381
8704.000000;0.420490
8703.000000;0.420458
8702.000000;0.420203
8701.000000;0.419733
8700.000000;0.419212
8699.000000;0.418874
8698.000000;0.418845
8697.000000;0.419049
8696.000000;0.419277
8695.000000;0.419309
8694.000000;0.419038
8693.000000;0.418559
8692.000000;0.418140
8691.000000;0.418025
8690.000000;0.418216
8689.000000;0.418500
8688.000000;0.418693
8687.000000;0.418764
8686.000000;0.418731
8685.000000;0.418563
8684.000000;0.418265
8683.000000;0.417961
8682.000000;0.417791
8681.000000;0.417756
8680.000000;0.417754
8679.000000;0.417696
8678.000000;0.417542
8677.000000;0.417268
8676.000000;0.416887
8675.000000;0.416489
8674.000000;0.416167
8673.000000;0.415912
8672.000000;0.415653
8671.000000;0.415357
8670.000000;0.415053
8669.000000;0.414775
8668.000000;0.414555
8667.000000;0.414438
8666.000000;0.414422
8665.000000;0.414420
8664.000000;0.414343
8663.000000;0.414192
8662.000000;0.414008
8661.000000;0.413775
8660.000000;0.413474
8659.000000;0.413167
8658.000000;0.412939
8657.000000;0.412756
8656.000000;0.412512
8655.000000;0.412180
8654.000000;0.411834
8653.000000;0.411501
8652.000000;0.411134
8651.000000;0.410738
8650.000000;0.410400
8649.000000;0.410169
8648.000000;0.409973
8647.000000;0.409722
8646.000000;0.409412
8645.000000;0.409103
8644.000000;0.408855
8643.000000;0.408716
8642.000000;0.408684
8641.000000;0.408650
8640.000000;0.408481
8639.000000;0.408172
8638.000000;0.407859
8637.000000;0.407625
8636.000000;0.407390
8635.000000;0.407043
8634.000000;0.406607
8633.000000;0.406194
8632.000000;0.405857
8631.000000;0.405550
8630.000000;0.405216
8629.000000;0.404833
8628.000000;0.404391
8627.000000;0.403906
8626.000000;0.403447
8625.000000;0.403105
8624.000000;0.402903
8623.000000;0.402769
8622.000000;0.402592
8621.000000;0.402326
8620.000000;0.402026
8619.000000;0.401791
8618.000000;0.401638
8617.000000;0.401469
8616.000000;0.401179
8615.000000;0.400789
8614.000000;0.400423
8613.000000;0.400153
8612.000000;0.399921
8611.000000;0.399620
8610.000000;0.399204
8609.000000;0.398733
8608.000000;0.398329
8607.000000;0.398099
8606.000000;0.398037
8605.000000;0.397996
8604.000000;0.397800
8603.000000;0.397411
8602.000000;0.396931
8601.000000;0.396464
8600.000000;0.396019
8599.000000;0.395571
8598.000000;0.395147
8597.000000;0.394814
8596.000000;0.394645
8595.000000;0.394665
8594.000000;0.394799
8593.000000;0.394848
8592.000000;0.394611
8591.000000;0.394062
8590.000000;0.393387
8589.000000;0.392817
8588.000000;0.392438
8587.000000;0.392172
8586.000000;0.391874
8585.000000;0.391454
8584.000000;0.390944
8583.000000;0.390454
8582.000000;0.390034
8581.000000;0.389607
8580.000000;0.389104
8579.000000;0.388610
8578.000000;0.388280
8577.000000;0.388117
8576.000000;0.387955
8575.000000;0.387665
8574.000000;0.387274
8573.000000;0.386847
8572.000000;0.386396
8571.000000;0.385945
8570.000000;0.385599
8569.000000;0.385434
8568.000000;0.385382
8567.000000;0.385278
8566.000000;0.384999
8565.000000;0.384523
8564.000000;0.383933
8563.000000;0.383396
8562.000000;0.383052
8561.000000;0.382867
8560.000000;0.382657
8559.000000;0.382307
8558.000000;0.381890
8557.000000;0.381534
8556.000000;0.381251
8555.000000;0.380963
8554.000000;0.380607
8553.000000;0.380165
8552.000000;0.379650
8551.000000;0.379139
8550.000000;0.378742
8549.000000;0.378446
8548.000000;0.378084
8547.000000;0.377533
8546.000000;0.376892
8545.000000;0.376365
8544.000000;0.376030
8543.000000;0.375808
8542.000000;0.375618
8541.000000;0.375433
8540.000000;0.375215
8539.000000;0.374909
8538.000000;0.374513
8537.000000;0.374079
8536.000000;0.373630
8535.000000;0.373149
8534.000000;0.372640
8533.000000;0.372143
8532.000000;0.371695
8531.000000;0.371303
8530.000000;0.370981
8529.000000;0.370739
8528.000000;0.370548
8527.000000;0.370339
8526.000000;0.370044
8525.000000;0.369632
8524.000000;0.369143
8523.000000;0.368702
8522.000000;0.368427
8521.000000;0.368284
8520.000000;0.368093
8519.000000;0.367732
8518.000000;0.367290
8517.000000;0.366929
8516.000000;0.366673
8515.000000;0.366404
8514.000000;0.366042
8513.000000;0.365625
8512.000000;0.365243
8511.000000;0.364950
8510.000000;0.364743
8509.000000;0.364536
8508.000000;0.364186
8507.000000;0.363645
8506.000000;0.363065
8505.000000;0.362669
8504.000000;0.362505
8503.000000;0.362399
8502.000000;0.362165
8501.000000;0.361785
8500.000000;0.361361
8499.000000;0.360981
8498.000000;0.360668
8497.000000;0.360392
8496.000000;0.360089
8495.000000;0.359707
8494.000000;0.359276
8493.000000;0.358891
8492.000000;0.358620
8491.000000;0.358429
8490.000000;0.358219
8489.000000;0.357921
8488.000000;0.357550
8487.000000;0.357162
8486.000000;0.356798
8485.000000;0.356439
8484.000000;0.356044
8483.000000;0.355632
8482.000000;0.355277
8481.000000;0.355003
8480.000000;0.354715
8479.000000;0.354287
8478.000000;0.353715
8477.000000;0.353156
8476.000000;0.352792
8475.000000;0.352673
8474.000000;0.352660
8473.000000;0.352536
8472.000000;0.352170
8471.000000;0.351624
8470.000000;0.351053
8469.000000;0.350530
8468.000000;0.350025
8467.000000;0.349554
8466.000000;0.349242
8465.000000;0.349142
8464.000000;0.349088
8463.000000;0.348834
8462.000000;0.348328
8461.000000;0.347750
8460.000000;0.347303
8459.000000;0.347058
8458.000000;0.346987
8457.000000;0.347016
8456.000000;0.347031
8455.000000;0.346912
8454.000000;0.346614
8453.000000;0.346163
8452.000000;0.345593
8451.000000;0.344930
8450.000000;0.344245
8449.000000;0.343642
8448.000000;0.343163
8447.000000;0.342783
8446.000000;0.342486
8445.000000;0.342287
8444.000000;0.342153
8443.000000;0.342000
8442.000000;0.341787
8441.000000;0.341552
8440.000000;0.341321
8439.000000;0.341060
8438.000000;0.340745
8437.000000;0.340402
8436.000000;0.340039
8435.000000;0.339622
8434.000000;0.339184
8433.000000;0.338855
8432.000000;0.338700
8431.000000;0.338589
8430.000000;0.338330
8429.000000;0.337917
8428.000000;0.337527
8427.000000;0.337281
8426.000000;0.337102
8425.000000;0.336847
8424.000000;0.336492
8423.000000;0.336125
8422.000000;0.335799
8421.000000;0.335474
8420.000000;0.335112
8419.000000;0.334765
8418.000000;0.334549
8417.000000;0.334500
8416.000000;0.334504
8415.000000;0.334371
8414.000000;0.333996
8413.000000;0.333461
8412.000000;0.332952
8411.000000;0.332591
8410.000000;0.332340
8409.000000;0.332064
8408.000000;0.331671
8407.000000;0.331184
8406.000000;0.330693
8405.000000;0.330275
8404.000000;0.329969
8403.000000;0.329784
8402.000000;0.329686
8401.000000;0.329570
8400.000000;0.329298
8399.000000;0.328824
8398.000000;0.328254
8397.000000;0.327772
8396.000000;0.327490
8395.000000;0.327379
8394.000000;0.327328
8393.000000;0.327217
8392.000000;0.326964
8391.000000;0.326568
8390.000000;0.326120
8389.000000;0.325745
8388.000000;0.325483
8387.000000;0.325265
8386.000000;0.325021
8385.000000;0.324776
8384.000000;0.324600
8383.000000;0.324495
8382.000000;0.324369
8381.000000;0.324150
8380.000000;0.323853
8379.000000;0.323530
8378.000000;0.323190
8377.000000;0.322805
8376.000000;0.322369
8375.000000;0.321923
8374.000000;0.321522
8373.000000;0.321215
8372.000000;0.321048
8371.000000;0.321019
8370.000000;0.321015
8369.000000;0.320850
8368.000000;0.320408
8367.000000;0.319765
8366.000000;0.319131
8365.000000;0.318690
8364.000000;0.318493
8363.000000;0.318454
8362.000000;0.318418
8361.000000;0.318253
8360.000000;0.317954
8359.000000;0.317644
8358.000000;0.317428
8357.000000;0.317267
8356.000000;0.317020
8355.000000;0.316631
8354.000000;0.316194
8353.000000;0.315831
8352.000000;0.315553
8351.000000;0.315270
8350.000000;0.314906
8349.000000;0.314483
8348.000000;0.314096
8347.000000;0.313848
8346.000000;0.313760
8345.000000;0.313717
8344.000000;0.313543
8343.000000;0.313161
8342.000000;0.312662
8341.000000;0.312221
8340.000000;0.311940
8339.000000;0.311808
8338.000000;0.311760
8337.000000;0.311723
8336.000000;0.311616
8335.000000;0.311365
8334.000000;0.310945
8333.000000;0.310422
8332.000000;0.309943
8331.000000;0.309654
8330.000000;0.309581
8329.000000;0.309590
8328.000000;0.309501
8327.000000;0.309255
8326.000000;0.308947
8325.000000;0.308692
8324.000000;0.308502
8323.000000;0.308325
8322.000000;0.308152
8321.000000;0.308009
8320.000000;0.307865
8319.000000;0.307619
8318.000000;0.307212
8317.000000;0.306697
8316.000000;0.306197
8315.000000;0.305787
8314.000000;0.305457
8313.000000;0.305178
8312.000000;0.304959
8311.000000;0.304832
8310.000000;0.304774
8309.000000;0.304694
8308.000000;0.304510
8307.000000;0.304221
8306.000000;0.303883
8305.000000;0.303523
8304.000000;0.303136
8303.000000;0.302755
8302.000000;0.302470
8301.000000;0.302335
8300.000000;0.302291
8299.000000;0.302219
8298.000000;0.302058
8297.000000;0.301842
8296.000000;0.301623
8295.000000;0.301396
8294.000000;0.301101
8293.000000;0.300705
8292.000000;0.300277
8291.000000;0.299954
8290.000000;0.299805
8289.000000;0.299750
8288.000000;0.299635
8287.000000;0.299379
8286.000000;0.299023
8285.000000;0.298660
8284.000000;0.298369
8283.000000;0.298204
8282.000000;0.298168
8281.000000;0.298162
8280.000000;0.298034
8279.000000;0.297720
8278.000000;0.297308
8277.000000;0.296930
8276.000000;0.296640
8275.000000;0.296402
8274.000000;0.296159
8273.000000;0.295883
8272.000000;0.295590
8271.000000;0.295340
8270.000000;0.295194
8269.000000;0.295138
8268.000000;0.295089
8267.000000;0.294992
8266.000000;0.294873
8265.000000;0.294766
8264.000000;0.294644
8263.000000;0.294461
8262.000000;0.294215
8261.000000;0.293923
8260.000000;0.293571
8259.000000;0.293137
8258.000000;0.292670
8257.000000;0.292276
8256.000000;0.292023
8255.000000;0.291892
8254.000000;0.291812
8253.000000;0.291722
8252.000000;0.291613
8251.000000;0.291527
8250.000000;0.291497
8249.000000;0.291474
8248.000000;0.291359
8247.000000;0.291129
8246.000000;0.290881
8245.000000;0.290701
8244.000000;0.290541
8243.000000;0.290295
8242.000000;0.289960
8241.000000;0.289649
8240.000000;0.289449
8239.000000;0.289323
8238.000000;0.289169
8237.000000;0.288936
8236.000000;0.288655
8235.000000;0.288409
8234.000000;0.288262
8233.000000;0.288204
8232.000000;0.288158
8231.000000;0.288036
8230.000000;0.287801
8229.000000;0.287473
8228.000000;0.287105
8227.000000;0.286771
8226.000000;0.286537
8225.000000;0.286412
8224.000000;0.286330
8223.000000;0.286218
8222.000000;0.286065
8221.000000;0.285917
8220.000000;0.285834
8219.000000;0.285858
8218.000000;0.285978
8217.000000;0.286092
8216.000000;0.286049
8215.000000;0.285785
8214.000000;0.285397
8213.000000;0.285043
8212.000000;0.284782
8211.000000;0.284566
8210.000000;0.284344
8209.000000;0.284125
8208.000000;0.283954
8207.000000;0.283864
8206.000000;0.283850
8205.000000;0.283855
8204.000000;0.283783
8203.000000;0.283563
8202.000000;0.283204
8201.000000;0.282781
8200.000000;0.282386
8199.000000;0.282091
8198.000000;0.281942
8197.000000;0.281925
8196.000000;0.281981
8195.000000;0.282062
8194.000000;0.282143
8193.000000;0.282162
8192.000000;0.282025
8191.000000;0.281718
8190.000000;0.281388
8189.000000;0.281208
8188.000000;0.281206
8187.000000;0.281263
8186.000000;0.281260
8185.000000;0.281166
8184.000000;0.281006
8183.000000;0.280823
8182.000000;0.280661
8181.000000;0.280529
8180.000000;0.280377
8179.000000;0.280179
8178.000000;0.279996
8177.000000;0.279903
8176.000000;0.279875
8175.000000;0.279805
8174.000000;0.279641
8173.000000;0.279412
8172.000000;0.279142
8171.000000;0.278820
8170.000000;0.278484
8169.000000;0.278239
8168.000000;0.278164
8167.000000;0.278232
8166.000000;0.278351
8165.000000;0.278432
8164.000000;0.278402
8163.000000;0.278223
8162.000000;0.277941
8161.000000;0.277666
8160.000000;0.277465
8159.000000;0.277319
8158.000000;0.277188
8157.000000;0.277073
8156.000000;0.276972
8155.000000;0.276853
8154.000000;0.276700
8153.000000;0.276568
8152.000000;0.276520
8151.000000;0.276524
8150.000000;0.276477
8149.000000;0.276309
8148.000000;0.276043
8147.000000;0.275761
8146.000000;0.275550
8145.000000;0.275464
8144.000000;0.275512
8143.000000;0.275644
8142.000000;0.275758
8141.000000;0.275742
8140.000000;0.275540
8139.000000;0.275201
8138.000000;0.274857
8137.000000;0.274635
8136.000000;0.274571
8135.000000;0.274612
8134.000000;0.274675
8133.000000;0.274696
8132.000000;0.274641
8131.000000;0.274514
8130.000000;0.274372
8129.000000;0.274283
8128.000000;0.274256
8127.000000;0.274229
8126.000000;0.274133
8125.000000;0.273966
8124.000000;0.273807
8123.000000;0.273754
8122.000000;0.273832
8121.000000;0.273926
8120.000000;0.273845
8119.000000;0.273522
8118.000000;0.273120
8117.000000;0.272903
8116.000000;0.272965
8115.000000;0.273149
8114.000000;0.273233
8113.000000;0.273143
8112.000000;0.272961
8111.000000;0.272797
8110.000000;0.272699
8109.000000;0.272659
8108.000000;0.272646
8107.000000;0.272617
8106.000000;0.272542
8105.000000;0.272423
8104.000000;0.272284
8103.000000;0.272145
8102.000000;0.272027
8101.000000;0.271941
8100.000000;0.271867
8099.000000;0.271758
8098.000000;0.271579
8097.000000;0.271345
8096.000000;0.271106
8095.000000;0.270919
8094.000000;0.270838
8093.000000;0.270904
8092.000000;0.271087
8091.000000;0.271262
8090.000000;0.271278
8089.000000;0.271088
8088.000000;0.270781
8087.000000;0.270505
8086.000000;0.270353
8085.000000;0.270322
8084.000000;0.270352
8083.000000;0.270390
8082.000000;0.270426
8081.000000;0.270476
8080.000000;0.270561
8079.000000;0.270660
8078.000000;0.270707
8077.000000;0.270623
8076.000000;0.270393
8075.000000;0.270113
8074.000000;0.269918
8073.000000;0.269854
8072.000000;0.269837
8071.000000;0.269757
8070.000000;0.269611
8069.000000;0.269494
8068.000000;0.269462
8067.000000;0.269469
8066.000000;0.269436
8065.000000;0.269348
8064.000000;0.269255
8063.000000;0.269212
8062.000000;0.269230
8061.000000;0.269258
8060.000000;0.269205
8059.000000;0.269025
8058.000000;0.268794
8057.000000;0.268665
8056.000000;0.268707
8055.000000;0.268814
8054.000000;0.268840
8053.000000;0.268780
8052.000000;0.268750
8051.000000;0.268792
8050.000000;0.268796
8049.000000;0.268661
8048.000000;0.268447
8047.000000;0.268303
8046.000000;0.268286
8045.000000;0.268325
8044.000000;0.268348
8043.000000;0.268356
8042.000000;0.268376
8041.000000;0.268391
8040.000000;0.268358
8039.000000;0.268247
8038.000000;0.268047
8037.000000;0.267778
8036.000000;0.267516
8035.000000;0.267365
8034.000000;0.267356
8033.000000;0.267416
8032.000000;0.267455
8031.000000;0.267458
8030.000000;0.267461
8029.000000;0.267478
8028.000000;0.267504
8027.000000;0.267554
8026.000000;0.267625
8025.000000;0.267652
8024.000000;0.267561
8023.000000;0.267378
8022.000000;0.267229
8021.000000;0.267203
8020.000000;0.267266
8019.000000;0.267323
8018.000000;0.267306
8017.000000;0.267199
8016.000000;0.267029
8015.000000;0.266872
8014.000000;0.266809
8013.000000;0.266861
8012.000000;0.266975
8011.000000;0.267090
8010.000000;0.267191
8009.000000;0.267262
8008.000000;0.267253
8007.000000;0.267130
8006.000000;0.266930
8005.000000;0.266725
8004.000000;0.266570
8003.000000;0.266487
8002.000000;0.266494
8001.000000;0.266578
8000.000000;0.266689
7999.000000;0.266769
7998.000000;0.266806
7997.000000;0.266801
7996.000000;0.266728
7995.000000;0.266552
7994.000000;0.266303
7993.000000;0.266083
7992.000000;0.265994
7991.000000;0.266053
7990.000000;0.266182
7989.000000;0.266267
7988.000000;0.266242
7987.000000;0.266127
7986.000000;0.265989
7985.000000;0.265863
7984.000000;0.265736
7983.000000;0.265598
7982.000000;0.265476
7981.000000;0.265391
7980.000000;0.265333
7979.000000;0.265296
7978.000000;0.265312
7977.000000;0.265407
7976.000000;0.265542
7975.000000;0.265657
7974.000000;0.265721
7973.000000;0.265730
7972.000000;0.265682
7971.000000;0.265594
7970.000000;0.265535
7969.000000;0.265566
7968.000000;0.265655
7967.000000;0.265696
7966.000000;0.265634
7965.000000;0.265524
7964.000000;0.265455
7963.000000;0.265454
7962.000000;0.265481
7961.000000;0.265489
7960.000000;0.265458
7959.000000;0.265389
7958.000000;0.265291
7957.000000;0.265180
7956.000000;0.265079
7955.000000;0.265021
7954.000000;0.265025
7953.000000;0.265081
7952.000000;0.265150
7951.000000;0.265194
7950.000000;0.265217
7949.000000;0.265258
7948.000000;0.265338
7947.000000;0.265426
7946.000000;0.265457
7945.000000;0.265390
7944.000000;0.265255
7943.000000;0.265143
7942.000000;0.265127
7941.000000;0.265196
7940.000000;0.265271
7939.000000;0.265295
7938.000000;0.265285
7937.000000;0.265287
7936.000000;0.265309
7935.000000;0.265319
7934.000000;0.265296
7933.000000;0.265255
7932.000000;0.265224
7931.000000;0.265210
7930.000000;0.265202
7929.000000;0.265170
7928.000000;0.265082
7927.000000;0.264928
7926.000000;0.264760
7925.000000;0.264670
7924.000000;0.264724
7923.000000;0.264899
7922.000000;0.265089
7921.000000;0.265192
7920.000000;0.265189
7919.000000;0.265132
7918.000000;0.265069
7917.000000;0.265001
7916.000000;0.264912
7915.000000;0.264804
7914.000000;0.264698
7913.000000;0.264608
7912.000000;0.264568
7911.000000;0.264635
7910.000000;0.264826
7909.000000;0.265056
7908.000000;0.265198
7907.000000;0.265205
7906.000000;0.265135
7905.000000;0.265061
7904.000000;0.265010
7903.000000;0.264991
7902.000000;0.265011
7901.000000;0.265041
7900.000000;0.265006
7899.000000;0.264873
7898.000000;0.264701
7897.000000;0.264585
7896.000000;0.264573
7895.000000;0.264661
7894.000000;0.264821
7893.000000;0.265003
7892.000000;0.265145
7891.000000;0.265230
7890.000000;0.265295
7889.000000;0.265368
7888.000000;0.265414
7887.000000;0.265389
7886.000000;0.265318
7885.000000;0.265269
7884.000000;0.265272
7883.000000;0.265296
7882.000000;0.265297
7881.000000;0.265253
7880.000000;0.265164
7879.000000;0.265065
7878.000000;0.265012
7877.000000;0.265036
7876.000000;0.265110
7875.000000;0.265174
7874.000000;0.265194
7873.000000;0.265162
7872.000000;0.265078
7871.000000;0.264963
7870.000000;0.264886
7869.000000;0.264921
7868.000000;0.265082
7867.000000;0.265306
7866.000000;0.265496
7865.000000;0.265572
7864.000000;0.265507
7863.000000;0.265362
7862.000000;0.265266
7861.000000;0.265324
7860.000000;0.265534
7859.000000;0.265805
7858.000000;0.266021
7857.000000;0.266108
7856.000000;0.266067
7855.000000;0.265981
7854.000000;0.265951
7853.000000;0.265983
7852.000000;0.265982
7851.000000;0.265884
7850.000000;0.265761
7849.000000;0.265727
7848.000000;0.265773
7847.000000;0.265777
7846.000000;0.265669
7845.000000;0.265519
7844.000000;0.265449
7843.000000;0.265505
7842.000000;0.265643
7841.000000;0.265801
7840.000000;0.265937
7839.000000;0.266039
7838.000000;0.266113
7837.000000;0.266164
7836.000000;0.266187
7835.000000;0.266191
7834.000000;0.266214
7833.000000;0.266285
7832.000000;0.266374
7831.000000;0.266423
7830.000000;0.266417
7829.000000;0.266399
7828.000000;0.266398
7827.000000;0.266392
7826.000000;0.266368
7825.000000;0.266360
7824.000000;0.266417
7823.000000;0.266535
7822.000000;0.266663
7821.000000;0.266752
7820.000000;0.266786
7819.000000;0.266773
7818.000000;0.266743
7817.000000;0.266750
7816.000000;0.266844
7815.000000;0.267008
7814.000000;0.267145
7813.000000;0.267164
7812.000000;0.267072
7811.000000;0.266981
7810.000000;0.266995
7809.000000;0.267120
7808.000000;0.267277
7807.000000;0.267405
7806.000000;0.267507
7805.000000;0.267604
7804.000000;0.267691
7803.000000;0.267757
7802.000000;0.267808
7801.000000;0.267851
7800.000000;0.267872
7799.000000;0.267858
7798.000000;0.267829
7797.000000;0.267816
7796.000000;0.267809
7795.000000;0.267777
7794.000000;0.267725
7793.000000;0.267702
7792.000000;0.267749
7791.000000;0.267859
7790.000000;0.268014
7789.000000;0.268210
7788.000000;0.268438
7787.000000;0.268651
7786.000000;0.268784
7785.000000;0.268813
7784.000000;0.268782
7783.000000;0.268765
7782.000000;0.268814
7781.000000;0.268935
7780.000000;0.269095
7779.000000;0.269232
7778.000000;0.269280
7777.000000;0.269212
7776.000000;0.269069
7775.000000;0.268926
7774.000000;0.268825
7773.000000;0.268759
7772.000000;0.268725
7771.000000;0.268765
7770.000000;0.268906
7769.000000;0.269110
7768.000000;0.269292
7767.000000;0.269409
7766.000000;0.269471
7765.000000;0.269503
7764.000000;0.269530
7763.000000;0.269592
7762.000000;0.269739
7761.000000;0.269964
7760.000000;0.270195
7759.000000;0.270372
7758.000000;0.270497
7757.000000;0.270609
7756.000000;0.270729
7755.000000;0.270853
7754.000000;0.270969
7753.000000;0.271063
7752.000000;0.271126
7751.000000;0.271162
7750.000000;0.271190
7749.000000;0.271220
7748.000000;0.271268
7747.000000;0.271379
7746.000000;0.271587
7745.000000;0.271843
7744.000000;0.272034
7743.000000;0.272092
7742.000000;0.272050
7741.000000;0.271980
7740.000000;0.271926
7739.000000;0.271911
7738.000000;0.271967
7737.000000;0.272110
7736.000000;0.272307
7735.000000;0.272513
7734.000000;0.272702
7733.000000;0.272851
7732.000000;0.272915
7731.000000;0.272881
7730.000000;0.272803
7729.000000;0.272768
7728.000000;0.272810
7727.000000;0.272912
7726.000000;0.273053
7725.000000;0.273223
7724.000000;0.273391
7723.000000;0.273508
7722.000000;0.273553
7721.000000;0.273561
7720.000000;0.273592
7719.000000;0.273693
7718.000000;0.273873
7717.000000;0.274106
7716.000000;0.274341
7715.000000;0.274526
7714.000000;0.274635
7713.000000;0.274682
7712.000000;0.274722
7711.000000;0.274819
7710.000000;0.274981
7709.000000;0.275142
7708.000000;0.275222
7707.000000;0.275225
7706.000000;0.275240
7705.000000;0.275347
7704.000000;0.275558
7703.000000;0.275826
7702.000000;0.276074
7701.000000;0.276225
7700.000000;0.276251
7699.000000;0.276218
7698.000000;0.276231
7697.000000;0.276325
7696.000000;0.276443
7695.000000;0.276542
7694.000000;0.276649
7693.000000;0.276788
7692.000000;0.276924
7691.000000;0.277017
7690.000000;0.277086
7689.000000;0.277179
7688.000000;0.277309
7687.000000;0.277456
7686.000000;0.277596
7685.000000;0.277704
7684.000000;0.277772
7683.000000;0.277864
7682.000000;0.278075
7681.000000;0.278399
7680.000000;0.278682
7679.000000;0.278793
7678.000000;0.278795
7677.000000;0.278864
7676.000000;0.279077
7675.000000;0.279342
7674.000000;0.279557
7673.000000;0.279720
7672.000000;0.279897
7671.000000;0.280117
7670.000000;0.280347
7669.000000;0.280517
7668.000000;0.280575
7667.000000;0.280525
7666.000000;0.280451
7665.000000;0.280464
7664.000000;0.280622
7663.000000;0.280903
7662.000000;0.281217
7661.000000;0.281461
7660.000000;0.281582
7659.000000;0.281616
7658.000000;0.281664
7657.000000;0.281795
7656.000000;0.281991
7655.000000;0.282206
7654.000000;0.282428
7653.000000;0.282643
7652.000000;0.282807
7651.000000;0.282890
7650.000000;0.282947
7649.000000;0.283065
7648.000000;0.283262
7647.000000;0.283484
7646.000000;0.283701
7645.000000;0.283938
7644.000000;0.284213
7643.000000;0.284492
7642.000000;0.284743
7641.000000;0.284975
7640.000000;0.285219
7639.000000;0.285478
7638.000000;0.285713
7637.000000;0.285875
7636.000000;0.285945
7635.000000;0.285963
7634.000000;0.286015
7633.000000;0.286172
7632.000000;0.286425
7631.000000;0.286701
7630.000000;0.286931
7629.000000;0.287097
7628.000000;0.287223
7627.000000;0.287348
7626.000000;0.287498
7625.000000;0.287675
7624.000000;0.287874
7623.000000;0.288101
7622.000000;0.288370
7621.000000;0.288664
7620.000000;0.288944
7619.000000;0.289193
7618.000000;0.289438
7617.000000;0.289702
7616.000000;0.289971
7615.000000;0.290215
7614.000000;0.290438
7613.000000;0.290654
7612.000000;0.290866
7611.000000;0.291078
7610.000000;0.291311
7609.000000;0.291576
7608.000000;0.291851
7607.000000;0.292104
7606.000000;0.292330
7605.000000;0.292527
7604.000000;0.292684
7603.000000;0.292815
7602.000000;0.292978
7601.000000;0.293222
7600.000000;0.293528
7599.000000;0.293839
7598.000000;0.294118
7597.000000;0.294360
7596.000000;0.294572
7595.000000;0.294776
7594.000000;0.295014
7593.000000;0.295308
7592.000000;0.295631
7591.000000;0.295952
7590.000000;0.296267
7589.000000;0.296575
7588.000000;0.296836
7587.000000;0.297019
7586.000000;0.297156
7585.000000;0.297324
7584.000000;0.297560
7583.000000;0.297851
7582.000000;0.298169
7581.000000;0.298491
7580.000000;0.298799
7579.000000;0.299096
7578.000000;0.299419
7577.000000;0.299776
7576.000000;0.300115
7575.000000;0.300378
7574.000000;0.300596
7573.000000;0.300851
7572.000000;0.301173
7571.000000;0.301512
7570.000000;0.301832
7569.000000;0.302160
7568.000000;0.302543
7567.000000;0.302976
7566.000000;0.303395
7565.000000;0.303729
7564.000000;0.303950
7563.000000;0.304100
7562.000000;0.304254
7561.000000;0.304466
7560.000000;0.304736
7559.000000;0.305043
7558.000000;0.305375
7557.000000;0.305720
7556.000000;0.306056
7555.000000;0.306380
7554.000000;0.306719
7553.000000;0.307089
7552.000000;0.307468
7551.000000;0.307825
7550.000000;0.308158
7549.000000;0.308464
7548.000000;0.308712
7547.000000;0.308893
7546.000000;0.309072
7545.000000;0.309339
7544.000000;0.309719
7543.000000;0.310152
7542.000000;0.310559
7541.000000;0.310891
7540.000000;0.311144
7539.000000;0.311353
7538.000000;0.311582
7537.000000;0.311865
7536.000000;0.312181
7535.000000;0.312503
7534.000000;0.312844
7533.000000;0.313231
7532.000000;0.313644
7531.000000;0.314041
7530.000000;0.314413
7529.000000;0.314785
7528.000000;0.315175
7527.000000;0.315585
7526.000000;0.316012
7525.000000;0.316434
7524.000000;0.316804
7523.000000;0.317101
7522.000000;0.317384
7521.000000;0.317748
7520.000000;0.318222
7519.000000;0.318740
7518.000000;0.319207
7517.000000;0.319581
7516.000000;0.319889
7515.000000;0.320198
7514.000000;0.320574
7513.000000;0.321029
7512.000000;0.321507
7511.000000;0.321940
7510.000000;0.322306
7509.000000;0.322616
7508.000000;0.322886
7507.000000;0.323138
7506.000000;0.323421
7505.000000;0.323780
7504.000000;0.324210
7503.000000;0.324664
7502.000000;0.325097
7501.000000;0.325493
7500.000000;0.325871
7499.000000;0.326272
7498.000000;0.326735
7497.000000;0.327256
7496.000000;0.327782
7495.000000;0.328266
7494.000000;0.328694
7493.000000;0.329089
7492.000000;0.329403
7491.000000;0.329665
7490.000000;0.329892
7489.000000;0.330096
7488.000000;0.330319
7487.000000;0.330589
7486.000000;0.330939
7485.000000;0.331370
7484.000000;0.331848
7483.000000;0.332349
7482.000000;0.332878
7481.000000;0.333434
7480.000000;0.333972
7479.000000;0.334442
7478.000000;0.334832
7477.000000;0.335168
7476.000000;0.335493
7475.000000;0.335857
7474.000000;0.336285
7473.000000;0.336753
7472.000000;0.337202
7471.000000;0.337609
7470.000000;0.338006
7469.000000;0.338419
7468.000000;0.338840
7467.000000;0.339266
7466.000000;0.339712
7465.000000;0.340159
7464.000000;0.340548
7463.000000;0.340859
7462.000000;0.341150
7461.000000;0.341491
7460.000000;0.341887
7459.000000;0.342322
7458.000000;0.342800
7457.000000;0.343306
7456.000000;0.343782
7455.000000;0.344172
7454.000000;0.344483
7453.000000;0.344753
7452.000000;0.345018
7451.000000;0.345328
7450.000000;0.345735
7449.000000;0.346233
7448.000000;0.346742
7447.000000;0.347208
7446.000000;0.347646
7445.000000;0.348069
7444.000000;0.348448
7443.000000;0.348780
7442.000000;0.349133
7441.000000;0.349556
7440.000000;0.350011
7439.000000;0.350436
7438.000000;0.350835
7437.000000;0.351238
7436.000000;0.351634
7435.000000;0.352004
7434.000000;0.352381
7433.000000;0.352796
7432.000000;0.353224
7431.000000;0.353627
7430.000000;0.354022
7429.000000;0.354418
7428.000000;0.354780
7427.000000;0.355091
7426.000000;0.355416
7425.000000;0.355827
7424.000000;0.356315
7423.000000;0.356806
7422.000000;0.357240
7421.000000;0.357605
7420.000000;0.357919
7419.000000;0.358215
7418.000000;0.358528
7417.000000;0.358855
7416.000000;0.359176
7415.000000;0.359510
7414.000000;0.359900
7413.000000;0.360333
7412.000000;0.360725
7411.000000;0.361046
7410.000000;0.361399
7409.000000;0.361873
7408.000000;0.362407
7407.000000;0.362878
7406.000000;0.363255
7405.000000;0.363598
7404.000000;0.363948
7403.000000;0.364290
7402.000000;0.364613
7401.000000;0.364922
7400.000000;0.365200
7399.000000;0.365471
7398.000000;0.365852
7397.000000;0.366369
7396.000000;0.366860
7395.000000;0.367194
7394.000000;0.367424
7393.000000;0.367590
7392.000000;0.367607
7391.000000;0.367472
7390.000000;0.367461
7389.000000;0.367877
7388.000000;0.368687
7387.000000;0.369579
7386.000000;0.370305
7385.000000;0.370811
7384.000000;0.371168
7383.000000;0.371499
7382.000000;0.371884
7381.000000;0.372303
7380.000000;0.372695
7379.000000;0.373053
7378.000000;0.373407
7377.000000;0.373734
7376.000000;0.374034
7375.000000;0.374442
7374.000000;0.375089
7373.000000;0.375870
7372.000000;0.376479
7371.000000;0.376705
7370.000000;0.376644
7369.000000;0.376558
7368.000000;0.376645
7367.000000;0.377042
7366.000000;0.377811
7365.000000;0.378687
7364.000000;0.379190
7363.000000;0.379193
7362.000000;0.379060
7361.000000;0.379244
7360.000000;0.379909
7359.000000;0.380880
7358.000000;0.381766
7357.000000;0.382195
7356.000000;0.382147
7355.000000;0.382024
7354.000000;0.382361
7353.000000;0.383264
7352.000000;0.384280
7351.000000;0.384844
7350.000000;0.384833
7349.000000;0.384627
7348.000000;0.384719
7347.000000;0.385261
7346.000000;0.385924
7345.000000;0.386275
7344.000000;0.386325
7343.000000;0.386638
7342.000000;0.387670
7341.000000;0.389096
7340.000000;0.390120
7339.000000;0.390444
7338.000000;0.390598
7337.000000;0.391093
7336.000000;0.391812
7335.000000;0.392387
7334.000000;0.392719
7333.000000;0.393008
7332.000000;0.393518
7331.000000;0.394246
7330.000000;0.394897
7329.000000;0.395253
7328.000000;0.395483
7327.000000;0.395955
7326.000000;0.396769
7325.000000;0.397633
7324.000000;0.398151
7323.000000;0.398305
7322.000000;0.398561
7321.000000;0.399371
7320.000000;0.400632
7319.000000;0.401831
7318.000000;0.402710
7317.000000;0.403440
7316.000000;0.404200
7315.000000;0.404937
7314.000000;0.405518
7313.000000;0.406006
7312.000000;0.406697
7311.000000;0.407732
7310.000000;0.408843
7309.000000;0.409587
7308.000000;0.409779
7307.000000;0.409693
7306.000000;0.409880
7305.000000;0.410794
7304.000000;0.412396
7303.000000;0.413994
7302.000000;0.414861
7301.000000;0.414941
7300.000000;0.414851
7299.000000;0.415330
7298.000000;0.416611
7297.000000;0.418263
7296.000000;0.419573
7295.000000;0.420240
7294.000000;0.420688
7293.000000;0.421596
7292.000000;0.423245
7291.000000;0.425268
7290.000000;0.427058
7289.000000;0.428408
7288.000000;0.429568
7287.000000;0.430755
7286.000000;0.431862
7285.000000;0.432765
7284.000000;0.433636
7283.000000;0.434659
7282.000000;0.435802
7281.000000;0.436973
7280.000000;0.438192
7279.000000;0.439547
7278.000000;0.441028
7277.000000;0.442538
7276.000000;0.444063
7275.000000;0.445623
7274.000000;0.447126
7273.000000;0.448500
7272.000000;0.449858
7271.000000;0.451347
7270.000000;0.452927
7269.000000;0.454475
7268.000000;0.456004
7267.000000;0.457640
7266.000000;0.459436
7265.000000;0.461330
7264.000000;0.463241
7263.000000;0.465105
7262.000000;0.466858
7261.000000;0.468527
7260.000000;0.470239
7259.000000;0.472055
7258.000000;0.473928
7257.000000;0.475836
7256.000000;0.477845
7255.000000;0.479989
7254.000000;0.482187
7253.000000;0.484345
7252.000000;0.486422
7251.000000;0.488473
7250.000000;0.490554
7249.000000;0.492600
7248.000000;0.494643
7247.000000;0.496887
7246.000000;0.499388
7245.000000;0.501927
7244.000000;0.504322
7243.000000;0.506659
7242.000000;0.509155
7241.000000;0.511901
7240.000000;0.514776
7239.000000;0.517506
7238.000000;0.519939
7237.000000;0.522287
7236.000000;0.524944
7235.000000;0.528042
7234.000000;0.531299
7233.000000;0.534309
7232.000000;0.536881
7231.000000;0.539329
7230.000000;0.542146
7229.000000;0.545307
7228.000000;0.548433
7227.000000;0.551389
7226.000000;0.554329
7225.000000;0.557444
7224.000000;0.560831
7223.000000;0.564386
7222.000000;0.567809
7221.000000;0.570913
7220.000000;0.573917
7219.000000;0.577196
7218.000000;0.580831
7217.000000;0.584598
7216.000000;0.588283
7215.000000;0.591832
7214.000000;0.595323
7213.000000;0.598918
7212.000000;0.602746
7211.000000;0.606790
7210.000000;0.610926
7209.000000;0.615088
7208.000000;0.619395
7207.000000;0.623974
7206.000000;0.628694
7205.000000;0.633314
7204.000000;0.637796
7203.000000;0.642249
7202.000000;0.646658
7201.000000;0.650934
7200.000000;0.655160
7199.000000;0.659527
7198.000000;0.664103
7197.000000;0.668816
7196.000000;0.673621
7195.000000;0.678523
7194.000000;0.683474
7193.000000;0.688433
7192.000000;0.693424
7191.000000;0.698482
7190.000000;0.703568
7189.000000;0.708663
7188.000000;0.713840
7187.000000;0.719107
7186.000000;0.724343
7185.000000;0.729411
7184.000000;0.734299
7183.000000;0.739139
7182.000000;0.744184
7181.000000;0.749728
7180.000000;0.755948
7179.000000;0.762606
7178.000000;0.769052
7177.000000;0.774800
7176.000000;0.780060
7175.000000;0.785383
7174.000000;0.791034
7173.000000;0.796933
7172.000000;0.802928
7171.000000;0.809001
7170.000000;0.815171
7169.000000;0.821401
7168.000000;0.827538
7167.000000;0.833359
7166.000000;0.838949
7165.000000;0.844697
7164.000000;0.850774
7163.000000;0.856840
7162.000000;0.862525
7161.000000;0.868023
7160.000000;0.873960
7159.000000;0.880659
7158.000000;0.887784
7157.000000;0.894774
7156.000000;0.901419
7155.000000;0.907780
7154.000000;0.913919
7153.000000;0.919990
7152.000000;0.926206
7151.000000;0.932661
7150.000000;0.939292
7149.000000;0.945976
7148.000000;0.952555
7147.000000;0.958947
7146.000000;0.965275
7145.000000;0.971791
7144.000000;0.978660
7143.000000;0.985673
7142.000000;0.992269
7141.000000;0.998045
7140.000000;1.003314
7139.000000;1.008948
7138.000000;1.015532
7137.000000;1.022704
7136.000000;1.029506
7135.000000;1.035371
7134.000000;1.040643
7133.000000;1.046171
7132.000000;1.052472
7131.000000;1.059363
7130.000000;1.066344
7129.000000;1.073026
7128.000000;1.079309
7127.000000;1.085370
7126.000000;1.091502
7125.000000;1.097821
7124.000000;1.104136
7123.000000;1.110195
7122.000000;1.116039
7121.000000;1.121861
7120.000000;1.127607
7119.000000;1.133013
7118.000000;1.138118
7117.000000;1.143408
7116.000000;1.149247
7115.000000;1.155303
7114.000000;1.160924
7113.000000;1.166023
7112.000000;1.171211
7111.000000;1.177014
7110.000000;1.183291
7109.000000;1.189485
7108.000000;1.195202
7107.000000;1.200415
7106.000000;1.205381
7105.000000;1.210450
7104.000000;1.215759
7103.000000;1.221204
7102.000000;1.226616
7101.000000;1.231795
7100.000000;1.236551
7099.000000;1.240921
7098.000000;1.245216
7097.000000;1.249712
7096.000000;1.254352
7095.000000;1.258900
7094.000000;1.263359
7093.000000;1.267973
7092.000000;1.272787
7091.000000;1.277570
7090.000000;1.282219
7089.000000;1.286892
7088.000000;1.291625
7087.000000;1.296174
7086.000000;1.300417
7085.000000;1.304528
7084.000000;1.308539
7083.000000;1.312163
7082.000000;1.315376
7081.000000;1.318770
7080.000000;1.322922
7079.000000;1.327625
7078.000000;1.332112
7077.000000;1.335990
7076.000000;1.339509
7075.000000;1.342883
7074.000000;1.345924
7073.000000;1.348563
7072.000000;1.351290
7071.000000;1.354749
7070.000000;1.359039
7069.000000;1.363566
7068.000000;1.367549
7067.000000;1.370635
7066.000000;1.373182
7065.000000;1.375923
7064.000000;1.379187
7063.000000;1.382518
7062.000000;1.385273
7061.000000;1.387453
7060.000000;1.389672
7059.000000;1.392385
7058.000000;1.395329
7057.000000;1.397833
7056.000000;1.399577
7055.000000;1.400915
7054.000000;1.402610
7053.000000;1.405271
7052.000000;1.408838
7051.000000;1.412602
7050.000000;1.415906
7049.000000;1.418733
7048.000000;1.421415
7047.000000;1.423976
7046.000000;1.426109
7045.000000;1.427705
7044.000000;1.429034
7043.000000;1.430414
7042.000000;1.432071
7041.000000;1.434225
7040.000000;1.436891
7039.000000;1.439609
7038.000000;1.441782
7037.000000;1.443383
7036.000000;1.444948
7035.000000;1.446788
7034.000000;1.448654
7033.000000;1.450311
7032.000000;1.451959
7031.000000;1.453786
7030.000000;1.455538
7029.000000;1.456937
7028.000000;1.458241
7027.000000;1.459973
7026.000000;1.462202
7025.000000;1.464450
7024.000000;1.466245
7023.000000;1.467454
7022.000000;1.468138
7021.000000;1.468448
7020.000000;1.468696
7019.000000;1.469261
7018.000000;1.470296
7017.000000;1.471690
7016.000000;1.473331
7015.000000;1.475242
7014.000000;1.477341
7013.000000;1.479211
7012.000000;1.480376
7011.000000;1.480830
7010.000000;1.481046
7009.000000;1.481357
7008.000000;1.481599
7007.000000;1.481620
7006.000000;1.481907
7005.000000;1.483211
7004.000000;1.485467
7003.000000;1.487554
7002.000000;1.488398
7001.000000;1.488074
7000.000000;1.487517
6999.000000;1.487472
6998.000000;1.488110
6997.000000;1.489369
6996.000000;1.491080
6995.000000;1.492694
6994.000000;1.493405
6993.000000;1.492888
6992.000000;1.491787
6991.000000;1.491241
6990.000000;1.491899
6989.000000;1.493417
6988.000000;1.494863
6987.000000;1.495669
6986.000000;1.496171
6985.000000;1.497083
6984.000000;1.498534
6983.000000;1.499953
6982.000000;1.500884
6981.000000;1.501470
6980.000000;1.501933
6979.000000;1.502049
6978.000000;1.501556
6977.000000;1.500782
6976.000000;1.500387
6975.000000;1.500597
6974.000000;1.501080
6973.000000;1.501467
6972.000000;1.501665
6971.000000;1.501732
6970.000000;1.501838
6969.000000;1.502260
6968.000000;1.503042
6967.000000;1.503677
6966.000000;1.503550
6965.000000;1.502694
6964.000000;1.501807
6963.000000;1.501468
6962.000000;1.501578
6961.000000;1.501555
6960.000000;1.500936
6959.000000;1.499797
6958.000000;1.498797
6957.000000;1.498772
6956.000000;1.499937
6955.000000;1.501472
6954.000000;1.502166
6953.000000;1.501502
6952.000000;1.499994
6951.000000;1.498573
6950.000000;1.497875
6949.000000;1.497928
6948.000000;1.498190
6947.000000;1.498037
6946.000000;1.497488
6945.000000;1.497279
6944.000000;1.497892
6943.000000;1.498785
6942.000000;1.499015
6941.000000;1.498431
6940.000000;1.497642
6939.000000;1.496948
6938.000000;1.495962
6937.000000;1.494428
6936.000000;1.492837
6935.000000;1.491956
6934.000000;1.492068
6933.000000;1.492823
6932.000000;1.493599
6931.000000;1.493888
6930.000000;1.493613
6929.000000;1.493125
6928.000000;1.492702
6927.000000;1.492173
6926.000000;1.491344
6925.000000;1.490584
6924.000000;1.490440
6923.000000;1.490719
6922.000000;1.490594
6921.000000;1.489682
6920.000000;1.488444
6919.000000;1.487427
6918.000000;1.486684
6917.000000;1.486152
6916.000000;1.486022
6915.000000;1.486307
6914.000000;1.486439
6913.000000;1.485738
6912.000000;1.484140
6911.000000;1.482202
6910.000000;1.480598
6909.000000;1.479793
6908.000000;1.479886
6907.000000;1.480491
6906.000000;1.480964
6905.000000;1.480964
6904.000000;1.480639
6903.000000;1.480164
6902.000000;1.479429
6901.000000;1.478351
6900.000000;1.477129
6899.000000;1.475968
6898.000000;1.474829
6897.000000;1.473670
6896.000000;1.472680
6895.000000;1.472012
6894.000000;1.471516
6893.000000;1.471005
6892.000000;1.470555
6891.000000;1.470245
6890.000000;1.469813
6889.000000;1.468975
6888.000000;1.467989
6887.000000;1.467538
6886.000000;1.468021
6885.000000;1.469122
6884.000000;1.470041
6883.000000;1.470061
6882.000000;1.468934
6881.000000;1.466937
6880.000000;1.464683
6879.000000;1.462838
6878.000000;1.461833
6877.000000;1.461658
6876.000000;1.461839
6875.000000;1.461729
6874.000000;1.461002
6873.000000;1.459870
6872.000000;1.458686
6871.000000;1.457463
6870.000000;1.456028
6869.000000;1.454536
6868.000000;1.453435
6867.000000;1.452850
6866.000000;1.452408
6865.000000;1.451833
6864.000000;1.451340
6863.000000;1.451150
6862.000000;1.450964
6861.000000;1.450312
6860.000000;1.449190
6859.000000;1.447957
6858.000000;1.446706
6857.000000;1.445170
6856.000000;1.443279
6855.000000;1.441445
6854.000000;1.440119
6853.000000;1.439314
6852.000000;1.438660
6851.000000;1.437790
6850.000000;1.436572
6849.000000;1.435124
6848.000000;1.433691
6847.000000;1.432470
6846.000000;1.431466
6845.000000;1.430537
6844.000000;1.429539
6843.000000;1.428402
6842.000000;1.427114
6841.000000;1.425681
6840.000000;1.424109
6839.000000;1.422403
6838.000000;1.420641
6837.000000;1.419021
6836.000000;1.417726
6835.000000;1.416657
6834.000000;1.415426
6833.000000;1.413770
6832.000000;1.411843
6831.000000;1.409945
6830.000000;1.408057
6829.000000;1.405854
6828.000000;1.403172
6827.000000;1.400314
6826.000000;1.397830
6825.000000;1.396062
6824.000000;1.394907
6823.000000;1.393882
6822.000000;1.392401
6821.000000;1.390145
6820.000000;1.387309
6819.000000;1.384504
6818.000000;1.382306
6817.000000;1.380767
6816.000000;1.379365
6815.000000;1.377488
6814.000000;1.375050
6813.000000;1.372560
6812.000000;1.370511
6811.000000;1.368777
6810.000000;1.366771
6809.000000;1.364180
6808.000000;1.361334
6807.000000;1.358747
6806.000000;1.356495
6805.000000;1.354219
6804.000000;1.351670
6803.000000;1.349005
6802.000000;1.346508
6801.000000;1.344173
6800.000000;1.341722
6799.000000;1.338967
6798.000000;1.336070
6797.000000;1.333385
6796.000000;1.331054
6795.000000;1.328811
6794.000000;1.326218
6793.000000;1.323128
6792.000000;1.319871
6791.000000;1.316976
6790.000000;1.314704
6789.000000;1.312837
6788.000000;1.310886
6787.000000;1.308510
6786.000000;1.305763
6785.000000;1.302956
6784.000000;1.300320
6783.000000;1.297846
6782.000000;1.295411
6781.000000;1.292930
6780.000000;1.290340
6779.000000;1.287552
6778.000000;1.284520
6777.000000;1.281342
6776.000000;1.278166
6775.000000;1.275055
6774.000000;1.272015
6773.000000;1.269078
6772.000000;1.266240
6771.000000;1.263337
6770.000000;1.260187
6769.000000;1.256879
6768.000000;1.253776
6767.000000;1.251169
6766.000000;1.249034
6765.000000;1.247132
6764.000000;1.245220
6763.000000;1.243070
6762.000000;1.240451
6761.000000;1.237309
6760.000000;1.233939
6759.000000;1.230798
6758.000000;1.228077
6757.000000;1.225548
6756.000000;1.222856
6755.000000;1.219894
6754.000000;1.216839
6753.000000;1.213877
6752.000000;1.211022
6751.000000;1.208214
6750.000000;1.205485
6749.000000;1.202921
6748.000000;1.200482
6747.000000;1.197958
6746.000000;1.195157
6745.000000;1.192099
6744.000000;1.189012
6743.000000;1.186151
6742.000000;1.183641
6741.000000;1.181403
6740.000000;1.179159
6739.000000;1.176564
6738.000000;1.173470
6737.000000;1.170102
6736.000000;1.166893
6735.000000;1.164118
6734.000000;1.161718
6733.000000;1.159421
6732.000000;1.156967
6731.000000;1.154234
6730.000000;1.151285
6729.000000;1.148351
6728.000000;1.145673
6727.000000;1.143281
6726.000000;1.140951
6725.000000;1.138435
6724.000000;1.135687
6723.000000;1.132840
6722.000000;1.130007
6721.000000;1.127181
6720.000000;1.124284
6719.000000;1.121258
6718.000000;1.118109
6717.000000;1.114938
6716.000000;1.111923
6715.000000;1.109201
6714.000000;1.106728
6713.000000;1.104294
6712.000000;1.101705
6711.000000;1.098960
6710.000000;1.096185
6709.000000;1.093526
6708.000000;1.091020
6707.000000;1.088563
6706.000000;1.086109
6705.000000;1.083644
6704.000000;1.081127
6703.000000;1.078526
6702.000000;1.075888
6701.000000;1.073299
6700.000000;1.070796
6699.000000;1.068301
6698.000000;1.065692
6697.000000;1.062901
6696.000000;1.060015
6695.000000;1.057152
6694.000000;1.054439
6693.000000;1.051938
6692.000000;1.049609
6691.000000;1.047327
6690.000000;1.044984
6689.000000;1.042572
6688.000000;1.040144
6687.000000;1.037714
6686.000000;1.035206
6685.000000;1.032509
6684.000000;1.029579
6683.000000;1.026515
6682.000000;1.023532
6681.000000;1.020827
6680.000000;1.018432
6679.000000;1.016223
6678.000000;1.014063
6677.000000;1.011889
6676.000000;1.009670
6675.000000;1.007358
6674.000000;1.004935
6673.000000;1.002445
6672.000000;0.999914
6671.000000;0.997312
6670.000000;0.994651
6669.000000;0.992067
6668.000000;0.989715
6667.000000;0.987575
6666.000000;0.985450
6665.000000;0.983155
6664.000000;0.980674
6663.000000;0.978134
6662.000000;0.975681
6661.000000;0.973375
6660.000000;0.971156
6659.000000;0.968908
6658.000000;0.966579
6657.000000;0.964228
6656.000000;0.961927
6655.000000;0.959656
6654.000000;0.957341
6653.000000;0.954964
6652.000000;0.952576
6651.000000;0.950219
6650.000000;0.947891
6649.000000;0.945577
6648.000000;0.943244
6647.000000;0.940850
6646.000000;0.938407
6645.000000;0.936030
6644.000000;0.933819
6643.000000;0.931714
6642.000000;0.929543
6641.000000;0.927229
6640.000000;0.924868
6639.000000;0.922584
6638.000000;0.920387
6637.000000;0.918203
6636.000000;0.915971
6635.000000;0.913676
6634.000000;0.911356
6633.000000;0.909104
6632.000000;0.907010
6631.000000;0.905050
6630.000000;0.903074
6629.000000;0.900951
6628.000000;0.898695
6627.000000;0.896426
6626.000000;0.894246
6625.000000;0.892167
6624.000000;0.890127
6623.000000;0.888037
6622.000000;0.885848
6621.000000;0.883596
6620.000000;0.881368
6619.000000;0.879200
6618.000000;0.877048
6617.000000;0.874865
6616.000000;0.872663
6615.000000;0.870488
6614.000000;0.868377
6613.000000;0.866346
6612.000000;0.864387
6611.000000;0.862450
6610.000000;0.860478
6609.000000;0.858490
6608.000000;0.856569
6607.000000;0.854752
6606.000000;0.852959
6605.000000;0.851067
6604.000000;0.849017
6603.000000;0.846825
6602.000000;0.844578
6601.000000;0.842431
6600.000000;0.840533
6599.000000;0.838863
6598.000000;0.837187
6597.000000;0.835274
6596.000000;0.833135
6595.000000;0.830983
6594.000000;0.828975
6593.000000;0.827062
6592.000000;0.825118
6591.000000;0.823108
6590.000000;0.821089
6589.000000;0.819120
6588.000000;0.817219
6587.000000;0.815410
6586.000000;0.813733
6585.000000;0.812181
6584.000000;0.810653
6583.000000;0.808991
6582.000000;0.807090
6581.000000;0.804986
6580.000000;0.802822
6579.000000;0.800729
6578.000000;0.798753
6577.000000;0.796882
6576.000000;0.795106
6575.000000;0.793408
6574.000000;0.791730
6573.000000;0.789993
6572.000000;0.788164
6571.000000;0.786282
6570.000000;0.784401
6569.000000;0.782552
6568.000000;0.780748
6567.000000;0.779002
6566.000000;0.777315
6565.000000;0.775654
6564.000000;0.773979
6563.000000;0.772286
6562.000000;0.770606
6561.000000;0.768967
6560.000000;0.767359
6559.000000;0.765736
6558.000000;0.764060
6557.000000;0.762326
6556.000000;0.760549
6555.000000;0.758744
6554.000000;0.756922
6553.000000;0.755113
6552.000000;0.753365
6551.000000;0.751709
6550.000000;0.750122
6549.000000;0.748535
6548.000000;0.746886
6547.000000;0.745164
6546.000000;0.743425
6545.000000;0.741740
6544.000000;0.740143
6543.000000;0.738592
6542.000000;0.737019
6541.000000;0.735403
6540.000000;0.733787
6539.000000;0.732223
6538.000000;0.730701
6537.000000;0.729170
6536.000000;0.727593
6535.000000;0.725990
6534.000000;0.724406
6533.000000;0.722872
6532.000000;0.721381
6531.000000;0.719906
6530.000000;0.718421
6529.000000;0.716911
6528.000000;0.715350
6527.000000;0.713726
6526.000000;0.712079
6525.000000;0.710509
6524.000000;0.709077
6523.000000;0.707721
6522.000000;0.706300
6521.000000;0.704759
6520.000000;0.703190
6519.000000;0.701710
6518.000000;0.700306
6517.000000;0.698873
6516.000000;0.697358
6515.000000;0.695806
6514.000000;0.694274
6513.000000;0.692778
6512.000000;0.691322
6511.000000;0.689932
6510.000000;0.688600
6509.000000;0.687265
6508.000000;0.685877
6507.000000;0.684454
6506.000000;0.683048
6505.000000;0.681670
6504.000000;0.680294
6503.000000;0.678906
6502.000000;0.677509
6501.000000;0.676096
6500.000000;0.674669
6499.000000;0.673275
6498.000000;0.671978
6497.000000;0.670775
6496.000000;0.669581
6495.000000;0.668311
6494.000000;0.666960
6493.000000;0.665580
6492.000000;0.664212
6491.000000;0.662864
6490.000000;0.661527
6489.000000;0.660199
6488.000000;0.658882
6487.000000;0.657586
6486.000000;0.656333
6485.000000;0.655121
6484.000000;0.653907
6483.000000;0.652631
6482.000000;0.651282
6481.000000;0.649918
6480.000000;0.648610
6479.000000;0.647372
6478.000000;0.646150
6477.000000;0.644882
6476.000000;0.643561
6475.000000;0.642234
6474.000000;0.640947
6473.000000;0.639706
6472.000000;0.638497
6471.000000;0.637307
6470.000000;0.636130
6469.000000;0.634941
6468.000000;0.633719
6467.000000;0.632491
6466.000000;0.631311
6465.000000;0.630193
6464.000000;0.629080
6463.000000;0.627906
6462.000000;0.626673
6461.000000;0.625441
6460.000000;0.624257
6459.000000;0.623117
6458.000000;0.621996
6457.000000;0.620864
6456.000000;0.619695
6455.000000;0.618483
6454.000000;0.617273
6453.000000;0.616128
6452.000000;0.615067
6451.000000;0.614038
6450.000000;0.612968
6449.000000;0.611834
6448.000000;0.610665
6447.000000;0.609506
6446.000000;0.608380
6445.000000;0.607285
6444.000000;0.606196
6443.000000;0.605085
6442.000000;0.603942
6441.000000;0.602779
6440.000000;0.601618
6439.000000;0.600480
6438.000000;0.599394
6437.000000;0.598382
6436.000000;0.597430
6435.000000;0.596484
6434.000000;0.595499
6433.000000;0.594478
6432.000000;0.593453
6431.000000;0.592439
6430.000000;0.591431
6429.000000;0.590427
6428.000000;0.589437
6427.000000;0.588469
6426.000000;0.587506
6425.000000;0.586517
6424.000000;0.585485
6423.000000;0.584416
6422.000000;0.583334
6421.000000;0.582256
6420.000000;0.581186
6419.000000;0.580132
6418.000000;0.579124
6417.000000;0.578179
6416.000000;0.577264
6415.000000;0.576313
6414.000000;0.575304
6413.000000;0.574280
6412.000000;0.573300
6411.000000;0.572370
6410.000000;0.571458
6409.000000;0.570550
6408.000000;0.569652
6407.000000;0.568761
6406.000000;0.567858
6405.000000;0.566933
6404.000000;0.565999
6403.000000;0.565071
6402.000000;0.564148
6401.000000;0.563220
6400.000000;0.562286
6399.000000;0.561361
6398.000000;0.560464
6397.000000;0.559603
6396.000000;0.558762
6395.000000;0.557917
6394.000000;0.557062
6393.000000;0.556207
6392.000000;0.555346
6391.000000;0.554454
6390.000000;0.553528
6389.000000;0.552611
6388.000000;0.551747
6387.000000;0.550930
6386.000000;0.550102
6385.000000;0.549216
6384.000000;0.548279
6383.000000;0.547336
6382.000000;0.546432
6381.000000;0.545583
6380.000000;0.544770
6379.000000;0.543964
6378.000000;0.543151
6377.000000;0.542322
6376.000000;0.541466
6375.000000;0.540578
6374.000000;0.539701
6373.000000;0.538897
6372.000000;0.538176
6371.000000;0.537469
6370.000000;0.536708
6369.000000;0.535895
6368.000000;0.535075
6367.000000;0.534267
6366.000000;0.533467
6365.000000;0.532699
6364.000000;0.531993
6363.000000;0.531327
6362.000000;0.530635
6361.000000;0.529886
6360.000000;0.529101
6359.000000;0.528294
6358.000000;0.527450
6357.000000;0.526581
6356.000000;0.525749
6355.000000;0.525008
6354.000000;0.524341
6353.000000;0.523691
6352.000000;0.523016
6351.000000;0.522304
6350.000000;0.521566
6349.000000;0.520840
6348.000000;0.520170
6347.000000;0.519547
6346.000000;0.518897
6345.000000;0.518152
6344.000000;0.517332
6343.000000;0.516521
6342.000000;0.515775
6341.000000;0.515083
6340.000000;0.514404
6339.000000;0.513712
6338.000000;0.513001
6337.000000;0.512280
6336.000000;0.511569
6335.000000;0.510879
6334.000000;0.510205
6333.000000;0.509537
6332.000000;0.508876
6331.000000;0.508220
6330.000000;0.507547
6329.000000;0.506832
6328.000000;0.506088
6327.000000;0.505360
6326.000000;0.504680
6325.000000;0.504028
6324.000000;0.503363
6323.000000;0.502663
6322.000000;0.501947
6321.000000;0.501254
6320.000000;0.500604
6319.000000;0.499983
6318.000000;0.499361
6317.000000;0.498729
6316.000000;0.498107
6315.000000;0.497526
6314.000000;0.496989
6313.000000;0.496476
6312.000000;0.495960
6311.000000;0.495425
6310.000000;0.494864
6309.000000;0.494276
6308.000000;0.493655
6307.000000;0.492995
6306.000000;0.492309
6305.000000;0.491632
6304.000000;0.491008
6303.000000;0.490439
6302.000000;0.489877
6301.000000;0.489271
6300.000000;0.488621
6299.000000;0.487971
6298.000000;0.487364
6297.000000;0.486806
6296.000000;0.486278
6295.000000;0.485757
6294.000000;0.485228
6293.000000;0.484684
6292.000000;0.484130
6291.000000;0.483574
6290.000000;0.483018
6289.000000;0.482460
6288.000000;0.481901
6287.000000;0.481338
6286.000000;0.480764
6285.000000;0.480173
6284.000000;0.479586
6283.000000;0.479033
6282.000000;0.478522
6281.000000;0.478019
6280.000000;0.477489
6279.000000;0.476943
6278.000000;0.476423
6277.000000;0.475937
6276.000000;0.475444
6275.000000;0.474899
6274.000000;0.474315
6273.000000;0.473745
6272.000000;0.473219
6271.000000;0.472718
6270.000000;0.472206
6269.000000;0.471674
6268.000000;0.471135
6267.000000;0.470608
6266.000000;0.470104
6265.000000;0.469629
6264.000000;0.469163
6263.000000;0.468676
6262.000000;0.468156
6261.000000;0.467635
6260.000000;0.467149
6259.000000;0.466698
6258.000000;0.466254
6257.000000;0.465805
6256.000000;0.465366
6255.000000;0.464938
6254.000000;0.464492
6253.000000;0.464003
6252.000000;0.463484
6251.000000;0.462967
6250.000000;0.462473
6249.000000;0.461998
6248.000000;0.461530
6247.000000;0.461056
6246.000000;0.460577
6245.000000;0.460111
6244.000000;0.459666
6243.000000;0.459216
6242.000000;0.458717
6241.000000;0.458162
6240.000000;0.457604
6239.000000;0.457101
6238.000000;0.456666
6237.000000;0.456259
6236.000000;0.455844
6235.000000;0.455415
6234.000000;0.454983
6233.000000;0.454557
6232.000000;0.454133
6231.000000;0.453703
6230.000000;0.453265
6229.000000;0.452824
6228.000000;0.452390
6227.000000;0.451961
6226.000000;0.451537
6225.000000;0.451123
6224.000000;0.450725
6223.000000;0.450333
6222.000000;0.449922
6221.000000;0.449481
6220.000000;0.449031
6219.000000;0.448593
6218.000000;0.448169
6217.000000;0.447756
6216.000000;0.447366
6215.000000;0.447004
6214.000000;0.446650
6213.000000;0.446275
6212.000000;0.445864
6211.000000;0.445425
6210.000000;0.444974
6209.000000;0.444525
6208.000000;0.444097
6207.000000;0.443697
6206.000000;0.443310
6205.000000;0.442909
6204.000000;0.442485
6203.000000;0.442059
6202.000000;0.441656
6201.000000;0.441294
6200.000000;0.440971
6199.000000;0.440674
6198.000000;0.440377
6197.000000;0.440057
6196.000000;0.439700
6195.000000;0.439309
6194.000000;0.438901
6193.000000;0.438498
6192.000000;0.438117
6191.000000;0.437757
6190.000000;0.437401
6189.000000;0.437043
6188.000000;0.436689
6187.000000;0.436338
6186.000000;0.435969
6185.000000;0.435572
6184.000000;0.435171
6183.000000;0.434804
6182.000000;0.434475
6181.000000;0.434154
6180.000000;0.433820
6179.000000;0.433478
6178.000000;0.433142
6177.000000;0.432809
6176.000000;0.432469
6175.000000;0.432117
6174.000000;0.431755
6173.000000;0.431380
6172.000000;0.430995
6171.000000;0.430621
6170.000000;0.430282
6169.000000;0.429986
6168.000000;0.429716
6167.000000;0.429440
6166.000000;0.429130
6165.000000;0.428774
6164.000000;0.428391
6163.000000;0.428011
6162.000000;0.427652
6161.000000;0.427310
6160.000000;0.426979
6159.000000;0.426664
6158.000000;0.426376
6157.000000;0.426100
6156.000000;0.425804
6155.000000;0.425472
6154.000000;0.425131
6153.000000;0.424821
6152.000000;0.424557
6151.000000;0.424311
6150.000000;0.424048
6149.000000;0.423761
6148.000000;0.423464
6147.000000;0.423162
6146.000000;0.422841
6145.000000;0.422488
6144.000000;0.422114
6143.000000;0.421747
6142.000000;0.421411
6141.000000;0.421114
6140.000000;0.420840
6139.000000;0.420561
6138.000000;0.420263
6137.000000;0.419973
6136.000000;0.419725
6135.000000;0.419508
6134.000000;0.419259
6133.000000;0.418933
6132.000000;0.418564
6131.000000;0.418234
6130.000000;0.417978
6129.000000;0.417752
6128.000000;0.417490
6127.000000;0.417176
6126.000000;0.416843
6125.000000;0.416533
6124.000000;0.416255
6123.000000;0.415998
6122.000000;0.415745
6121.000000;0.415487
6120.000000;0.415229
6119.000000;0.414984
6118.000000;0.414755
6117.000000;0.414531
6116.000000;0.414295
6115.000000;0.414042
6114.000000;0.413788
6113.000000;0.413545
6112.000000;0.413308
6111.000000;0.413058
6110.000000;0.412780
6109.000000;0.412479
6108.000000;0.412178
6107.000000;0.411896
6106.000000;0.411641
6105.000000;0.411405
6104.000000;0.411179
6103.000000;0.410952
6102.000000;0.410720
6101.000000;0.410479
6100.000000;0.410228
6099.000000;0.409967
6098.000000;0.409699
6097.000000;0.409429
6096.000000;0.409153
6095.000000;0.408865
6094.000000;0.408574
6093.000000;0.408308
6092.000000;0.408091
6091.000000;0.407915
6090.000000;0.407742
6089.000000;0.407534
6088.000000;0.407284
6087.000000;0.407015
6086.000000;0.406764
6085.000000;0.406555
6084.000000;0.406384
6083.000000;0.406222
6082.000000;0.406030
6081.000000;0.405795
6080.000000;0.405533
6079.000000;0.405276
6078.000000;0.405047
6077.000000;0.404846
6076.000000;0.404657
6075.000000;0.404454
6074.000000;0.404223
6073.000000;0.403972
6072.000000;0.403729
6071.000000;0.403507
6070.000000;0.403300
6069.000000;0.403099
6068.000000;0.402907
6067.000000;0.402724
6066.000000;0.402541
6065.000000;0.402347
6064.000000;0.402146
6063.000000;0.401947
6062.000000;0.401757
6061.000000;0.401577
6060.000000;0.401416
6059.000000;0.401273
6058.000000;0.401124
6057.000000;0.400940
6056.000000;0.400715
6055.000000;0.400473
6054.000000;0.400243
6053.000000;0.400031
6052.000000;0.399827
6051.000000;0.399624
6050.000000;0.399432
6049.000000;0.399268
6048.000000;0.399137
6047.000000;0.399017
6046.000000;0.398878
6045.000000;0.398709
6044.000000;0.398527
6043.000000;0.398357
6042.000000;0.398206
6041.000000;0.398063
6040.000000;0.397914
6039.000000;0.397754
6038.000000;0.397584
6037.000000;0.397415
6036.000000;0.397255
6035.000000;0.397092
6034.000000;0.396902
6033.000000;0.396679
6032.000000;0.396458
6031.000000;0.396279
6030.000000;0.396150
6029.000000;0.396048
6028.000000;0.395955
6027.000000;0.395869
6026.000000;0.395779
6025.000000;0.395654
6024.000000;0.395479
6023.000000;0.395277
6022.000000;0.395092
6021.000000;0.394947
6020.000000;0.394821
6019.000000;0.394680
6018.000000;0.394511
6017.000000;0.394337
6016.000000;0.394189
6015.000000;0.394072
6014.000000;0.393964
6013.000000;0.393845
6012.000000;0.393717
6011.000000;0.393592
6010.000000;0.393479
6009.000000;0.393377
6008.000000;0.393273
6007.000000;0.393150
6006.000000;0.393000
6005.000000;0.392841
6004.000000;0.392709
6003.000000;0.392618
6002.000000;0.392540
6001.000000;0.392441
6000.000000;0.392329
5999.000000;0.392244
5998.000000;0.392195
5997.000000;0.392146
5996.000000;0.392057
5995.000000;0.391935
5994.000000;0.391813
5993.000000;0.391706
5992.000000;0.391608
5991.000000;0.391514
5990.000000;0.391424
5989.000000;0.391334
5988.000000;0.391230
5987.000000;0.391110
5986.000000;0.390992
5985.000000;0.390896
5984.000000;0.390826
5983.000000;0.390762
5982.000000;0.390682
5981.000000;0.390587
5980.000000;0.390498
5979.000000;0.390436
5978.000000;0.390393
5977.000000;0.390343
5976.000000;0.390273
5975.000000;0.390202
5974.000000;0.390154
5973.000000;0.390129
5972.000000;0.390106
5971.000000;0.390074
5970.000000;0.390043
5969.000000;0.390024
5968.000000;0.390007
5967.000000;0.389976
5966.000000;0.389932
5965.000000;0.389896
5964.000000;0.389884
5963.000000;0.389882
5962.000000;0.389851
5961.000000;0.389769
5960.000000;0.389656
5959.000000;0.389558
5958.000000;0.389503
5957.000000;0.389482
5956.000000;0.389470
5955.000000;0.389458
5954.000000;0.389456
5953.000000;0.389459
5952.000000;0.389436
5951.000000;0.389367
5950.000000;0.389278
5949.000000;0.389224
5948.000000;0.389239
5947.000000;0.389302
5946.000000;0.389364
5945.000000;0.389387
5944.000000;0.389371
5943.000000;0.389338
5942.000000;0.389303
5941.000000;0.389262
5940.000000;0.389206
5939.000000;0.389137
5938.000000;0.389076
5937.000000;0.389042
5936.000000;0.389040
5935.000000;0.389066
5934.000000;0.389117
5933.000000;0.389188
5932.000000;0.389261
5931.000000;0.389310
5930.000000;0.389333
5929.000000;0.389346
5928.000000;0.389367
5927.000000;0.389391
5926.000000;0.389406
5925.000000;0.389407
5924.000000;0.389397
5923.000000;0.389378
5922.000000;0.389360
5921.000000;0.389358
5920.000000;0.389381
5919.000000;0.389415
5918.000000;0.389442
5917.000000;0.389463
5916.000000;0.389493
5915.000000;0.389534
5914.000000;0.389574
5913.000000;0.389602
5912.000000;0.389623
5911.000000;0.389647
5910.000000;0.389674
5909.000000;0.389695
5908.000000;0.389701
5907.000000;0.389698
5906.000000;0.389704
5905.000000;0.389738
5904.000000;0.389806
5903.000000;0.389890
5902.000000;0.389966
5901.000000;0.390020
5900.000000;0.390051
5899.000000;0.390068
5898.000000;0.390092
5897.000000;0.390142
5896.000000;0.390210
5895.000000;0.390264
5894.000000;0.390280
5893.000000;0.390280
5892.000000;0.390310
5891.000000;0.390380
5890.000000;0.390458
5889.000000;0.390511
5888.000000;0.390541
5887.000000;0.390568
5886.000000;0.390610
5885.000000;0.390674
5884.000000;0.390766
5883.000000;0.390878
5882.000000;0.390988
5881.000000;0.391085
5880.000000;0.391172
5879.000000;0.391257
5878.000000;0.391340
5877.000000;0.391416
5876.000000;0.391487
5875.000000;0.391553
5874.000000;0.391613
5873.000000;0.391688
5872.000000;0.391817
5871.000000;0.392016
5870.000000;0.392240
5869.000000;0.392414
5868.000000;0.392509
5867.000000;0.392560
5866.000000;0.392625
5865.000000;0.392725
5864.000000;0.392842
5863.000000;0.392963
5862.000000;0.393097
5861.000000;0.393259
5860.000000;0.393438
5859.000000;0.393600
5858.000000;0.393729
5857.000000;0.393852
5856.000000;0.394008
5855.000000;0.394202
5854.000000;0.394402
5853.000000;0.394585
5852.000000;0.394752
5851.000000;0.394909
5850.000000;0.395060
5849.000000;0.395209
5848.000000;0.395373
5847.000000;0.395559
5846.000000;0.395748
5845.000000;0.395927
5844.000000;0.396101
5843.000000;0.396285
5842.000000;0.396480
5841.000000;0.396675
5840.000000;0.396866
5839.000000;0.397057
5838.000000;0.397260
5837.000000;0.397481
5836.000000;0.397715
5835.000000;0.397949
5834.000000;0.398169
5833.000000;0.398379
5832.000000;0.398597
5831.000000;0.398836
5830.000000;0.399084
5829.000000;0.399317
5828.000000;0.399518
5827.000000;0.399695
5826.000000;0.399875
5825.000000;0.400093
5824.000000;0.400359
5823.000000;0.400647
5822.000000;0.400923
5821.000000;0.401183
5820.000000;0.401447
5819.000000;0.401724
5818.000000;0.401996
5817.000000;0.402262
5816.000000;0.402545
5815.000000;0.402851
5814.000000;0.403148
5813.000000;0.403408
5812.000000;0.403645
5811.000000;0.403895
5810.000000;0.404172
5809.000000;0.404475
5808.000000;0.404807
5807.000000;0.405160
5806.000000;0.405498
5805.000000;0.405785
5804.000000;0.406028
5803.000000;0.406275
5802.000000;0.406560
5801.000000;0.406883
5800.000000;0.407231
5799.000000;0.407589
5798.000000;0.407945
5797.000000;0.408288
5796.000000;0.408613
5795.000000;0.408921
5794.000000;0.409218
5793.000000;0.409524
5792.000000;0.409874
5791.000000;0.410276
5790.000000;0.410691
5789.000000;0.411067
5788.000000;0.411393
5787.000000;0.411698
5786.000000;0.412005
5785.000000;0.412319
5784.000000;0.412649
5783.000000;0.413022
5782.000000;0.413446
5781.000000;0.413899
5780.000000;0.414347
5779.000000;0.414774
5778.000000;0.415177
5777.000000;0.415561
5776.000000;0.415939
5775.000000;0.416329
5774.000000;0.416739
5773.000000;0.417163
5772.000000;0.417597
5771.000000;0.418043
5770.000000;0.418499
5769.000000;0.418943
5768.000000;0.419360
5767.000000;0.419758
5766.000000;0.420160
5765.000000;0.420579
5764.000000;0.421013
5763.000000;0.421451
5762.000000;0.421901
5761.000000;0.422378
5760.000000;0.422889
5759.000000;0.423419
5758.000000;0.423934
5757.000000;0.424412
5756.000000;0.424858
5755.000000;0.425297
5754.000000;0.425759
5753.000000;0.426254
5752.000000;0.426774
5751.000000;0.427297
5750.000000;0.427807
5749.000000;0.428308
5748.000000;0.428820
5747.000000;0.429356
5746.000000;0.429910
5745.000000;0.430468
5744.000000;0.431015
5743.000000;0.431537
5742.000000;0.432039
5741.000000;0.432546
5740.000000;0.433080
5739.000000;0.433628
5738.000000;0.434159
5737.000000;0.434676
5736.000000;0.435221
5735.000000;0.435821
5734.000000;0.436450
5733.000000;0.437061
5732.000000;0.437637
5731.000000;0.438190
5730.000000;0.438740
5729.000000;0.439304
5728.000000;0.439903
5727.000000;0.440549
5726.000000;0.441230
5725.000000;0.441917
5724.000000;0.442593
5723.000000;0.443252
5722.000000;0.443891
5721.000000;0.444514
5720.000000;0.445136
5719.000000;0.445768
5718.000000;0.446405
5717.000000;0.447042
5716.000000;0.447675
5715.000000;0.448299
5714.000000;0.448900
5713.000000;0.449482
5712.000000;0.450082
5711.000000;0.450738
5710.000000;0.451448
5709.000000;0.452180
5708.000000;0.452907
5707.000000;0.453621
5706.000000;0.454324
5705.000000;0.455020
5704.000000;0.455718
5703.000000;0.456416
5702.000000;0.457107
5701.000000;0.457788
5700.000000;0.458473
5699.000000;0.459176
5698.000000;0.459880
5697.000000;0.460560
5696.000000;0.461212
5695.000000;0.461864
5694.000000;0.462537
5693.000000;0.463274
5692.000000;0.464040
5691.000000;0.464798
5690.000000;0.465509
5689.000000;0.466177
5688.000000;0.466849
5687.000000;0.467571
5686.000000;0.468339
5685.000000;0.469113
5684.000000;0.469859
5683.000000;0.470573
5682.000000;0.471277
5681.000000;0.471996
5680.000000;0.472748
5679.000000;0.473517
5678.000000;0.474272
5677.000000;0.474993
5676.000000;0.475690
5675.000000;0.476380
5674.000000;0.477070
5673.000000;0.477768
5672.000000;0.478484
5671.000000;0.479212
5670.000000;0.479940
5669.000000;0.480669
5668.000000;0.481413
5667.000000;0.482158
5666.000000;0.482866
5665.000000;0.483525
5664.000000;0.484174
5663.000000;0.484843
5662.000000;0.485516
5661.000000;0.486168
5660.000000;0.486817
5659.000000;0.487494
5658.000000;0.488190
5657.000000;0.488864
5656.000000;0.489504
5655.000000;0.490140
5654.000000;0.490798
5653.000000;0.491480
5652.000000;0.492167
5651.000000;0.492839
5650.000000;0.493486
5649.000000;0.494118
5648.000000;0.494760
5647.000000;0.495418
5646.000000;0.496070
5645.000000;0.496702
5644.000000;0.497322
5643.000000;0.497929
5642.000000;0.498495
5641.000000;0.499015
5640.000000;0.499530
5639.000000;0.500078
5638.000000;0.500646
5637.000000;0.501213
5636.000000;0.501785
5635.000000;0.502375
5634.000000;0.502955
5633.000000;0.503497
5632.000000;0.504011
5631.000000;0.504516
5630.000000;0.504994
5629.000000;0.505431
5628.000000;0.505865
5627.000000;0.506347
5626.000000;0.506872
5625.000000;0.507392
5624.000000;0.507884
5623.000000;0.508360
5622.000000;0.508822
5621.000000;0.509257
5620.000000;0.509667
5619.000000;0.510065
5618.000000;0.510442
5617.000000;0.510790
5616.000000;0.511123
5615.000000;0.511466
5614.000000;0.511815
5613.000000;0.512147
5612.000000;0.512458
5611.000000;0.512756
5610.000000;0.513039
5609.000000;0.513317
5608.000000;0.513625
5607.000000;0.513981
5606.000000;0.514340
5605.000000;0.514649
5604.000000;0.514917
5603.000000;0.515192
5602.000000;0.515471
5601.000000;0.515711
5600.000000;0.515903
5599.000000;0.516087
5598.000000;0.516291
5597.000000;0.516511
5596.000000;0.516754
5595.000000;0.517034
5594.000000;0.517312
5593.000000;0.517514
5592.000000;0.517611
5591.000000;0.517651
5590.000000;0.517699
5589.000000;0.517785
5588.000000;0.517925
5587.000000;0.518112
5586.000000;0.518302
5585.000000;0.518441
5584.000000;0.518525
5583.000000;0.518591
5582.000000;0.518655
5581.000000;0.518704
5580.000000;0.518751
5579.000000;0.518830
5578.000000;0.518933
5577.000000;0.519016
5576.000000;0.519073
5575.000000;0.519142
5574.000000;0.519231
5573.000000;0.519301
5572.000000;0.519334
5571.000000;0.519355
5570.000000;0.519380
5569.000000;0.519387
5568.000000;0.519368
5567.000000;0.519340
5566.000000;0.519310
5565.000000;0.519270
5564.000000;0.519232
5563.000000;0.519214
5562.000000;0.519196
5561.000000;0.519142
5560.000000;0.519070
5559.000000;0.519040
5558.000000;0.519056
5557.000000;0.519067
5556.000000;0.519053
5555.000000;0.519036
5554.000000;0.519000
5553.000000;0.518904
5552.000000;0.518764
5551.000000;0.518643
5550.000000;0.518548
5549.000000;0.518420
5548.000000;0.518258
5547.000000;0.518132
5546.000000;0.518074
5545.000000;0.518025
5544.000000;0.517944
5543.000000;0.517867
5542.000000;0.517827
5541.000000;0.517807
5540.000000;0.517785
5539.000000;0.517755
5538.000000;0.517689
5537.000000;0.517561
5536.000000;0.517406
5535.000000;0.517281
5534.000000;0.517181
5533.000000;0.517058
5532.000000;0.516926
5531.000000;0.516850
5530.000000;0.516828
5529.000000;0.516790
5528.000000;0.516697
5527.000000;0.516589
5526.000000;0.516515
5525.000000;0.516461
5524.000000;0.516407
5523.000000;0.516345
5522.000000;0.516248
5521.000000;0.516105
5520.000000;0.515966
5519.000000;0.515880
5518.000000;0.515827
5517.000000;0.515744
5516.000000;0.515649
5515.000000;0.515624
5514.000000;0.515659
5513.000000;0.515670
5512.000000;0.515645
5511.000000;0.515646
5510.000000;0.515666
5509.000000;0.515620
5508.000000;0.515496
5507.000000;0.515408
5506.000000;0.515425
5505.000000;0.515468
5504.000000;0.515466
5503.000000;0.515467
5502.000000;0.515514
5501.000000;0.515588
5500.000000;0.515637
5499.000000;0.515613
5498.000000;0.515558
5497.000000;0.515558
5496.000000;0.515656
5495.000000;0.515801
5494.000000;0.515893
5493.000000;0.515913
5492.000000;0.515958
5491.000000;0.516108
5490.000000;0.516293
5489.000000;0.516378
5488.000000;0.516354
5487.000000;0.516336
5486.000000;0.516398
5485.000000;0.516496
5484.000000;0.516596
5483.000000;0.516769
5482.000000;0.516986
5481.000000;0.517162
5480.000000;0.517359
5479.000000;0.517671
5478.000000;0.518070
5477.000000;0.518415
5476.000000;0.518638
5475.000000;0.518803
5474.000000;0.518987
5473.000000;0.519182
5472.000000;0.519358
5471.000000;0.519517
5470.000000;0.519667
5469.000000;0.519872
5468.000000;0.520228
5467.000000;0.520695
5466.000000;0.521100
5465.000000;0.521387
5464.000000;0.521731
5463.000000;0.522270
5462.000000;0.522819
5461.000000;0.523199
5460.000000;0.523579
5459.000000;0.524090
5458.000000;0.524531
5457.000000;0.524778
5456.000000;0.525066
5455.000000;0.525577
5454.000000;0.526193
5453.000000;0.526790
5452.000000;0.527429
5451.000000;0.528146
5450.000000;0.528813
5449.000000;0.529474
5448.000000;0.530290
5447.000000;0.531121
5446.000000;0.531734
5445.000000;0.532265
5444.000000;0.533002
5443.000000;0.533916
5442.000000;0.534703
5441.000000;0.535311
5440.000000;0.536076
5439.000000;0.537174
5438.000000;0.538326
5437.000000;0.539308
5436.000000;0.540231
5435.000000;0.541189
5434.000000;0.542170
5433.000000;0.543281
5432.000000;0.544541
5431.000000;0.545734
5430.000000;0.546785
5429.000000;0.547925
5428.000000;0.549293
5427.000000;0.550747
5426.000000;0.552087
5425.000000;0.553298
5424.000000;0.554520
5423.000000;0.555868
5422.000000;0.557382
5421.000000;0.559020
5420.000000;0.560680
5419.000000;0.562356
5418.000000;0.564123
5417.000000;0.566032
5416.000000;0.568033
5415.000000;0.570000
5414.000000;0.571875
5413.000000;0.573718
5412.000000;0.575611
5411.000000;0.577513
5410.000000;0.579380
5409.000000;0.581385
5408.000000;0.583728
5407.000000;0.586291
5406.000000;0.588765
5405.000000;0.591103
5404.000000;0.593557
5403.000000;0.596194
5402.000000;0.598951
5401.000000;0.601837
5400.000000;0.604791
5399.000000;0.607801
5398.000000;0.610937
5397.000000;0.614207
5396.000000;0.617563
5395.000000;0.620955
5394.000000;0.624418
5393.000000;0.628003
5392.000000;0.631719
5391.000000;0.635566
5390.000000;0.639495
5389.000000;0.643447
5388.000000;0.647472
5387.000000;0.651689
5386.000000;0.656083
5385.000000;0.660612
5384.000000;0.665290
5383.000000;0.670070
5382.000000;0.674985
5381.000000;0.680146
5380.000000;0.685489
5379.000000;0.690910
5378.000000;0.696467
5377.000000;0.702188
5376.000000;0.707995
5375.000000;0.713901
5374.000000;0.720075
5373.000000;0.726503
5372.000000;0.732987
5371.000000;0.739533
5370.000000;0.746364
5369.000000;0.753568
5368.000000;0.761015
5367.000000;0.768648
5366.000000;0.776552
5365.000000;0.784804
5364.000000;0.793299
5363.000000;0.801931
5362.000000;0.810841
5361.000000;0.820100
5360.000000;0.829512
5359.000000;0.839047
5358.000000;0.848991
5357.000000;0.859483
5356.000000;0.870280
5355.000000;0.881235
5354.000000;0.892556
5353.000000;0.904423
5352.000000;0.916606
5351.000000;0.928740
5350.000000;0.940950
5349.000000;0.953732
5348.000000;0.967183
5347.000000;0.981031
5346.000000;0.995301
5345.000000;1.010184
5344.000000;1.025575
5343.000000;1.041238
5342.000000;1.057151
5341.000000;1.073264
5340.000000;1.089561
5339.000000;1.106388
5338.000000;1.124170
5337.000000;1.142892
5336.000000;1.162010
5335.000000;1.181086
5334.000000;1.200354
5333.000000;1.220434
5332.000000;1.241434
5331.000000;1.262903
5330.000000;1.284767
5329.000000;1.307360
5328.000000;1.330625
5327.000000;1.354322
5326.000000;1.378714
5325.000000;1.404104
5324.000000;1.430139
5323.000000;1.456394
5322.000000;1.483210
5321.000000;1.511054
5320.000000;1.539442
5319.000000;1.567512
5318.000000;1.595499
5317.000000;1.624477
5316.000000;1.654765
5315.000000;1.685795
5314.000000;1.717257
5313.000000;1.749333
5312.000000;1.781875
5311.000000;1.814529
5310.000000;1.847616
5309.000000;1.881476
5308.000000;1.915143
5307.000000;1.947425
5306.000000;1.979157
5305.000000;2.012054
5304.000000;2.045599
5303.000000;2.077801
5302.000000;2.108776
5301.000000;2.140479
5300.000000;2.172873
5299.000000;2.203849
5298.000000;2.233156
5297.000000;2.262492
5296.000000;2.291538
5295.000000;2.318007
5294.000000;2.341686
5293.000000;2.364402
5292.000000;2.386003
5291.000000;2.404826
5290.000000;2.421898
5289.000000;2.439772
5288.000000;2.457597
5287.000000;2.472322
5286.000000;2.483913
5285.000000;2.494248
5284.000000;2.502555
5283.000000;2.507782
5282.000000;2.513419
5281.000000;2.523719
5280.000000;2.536926
5279.000000;2.547555
5278.000000;2.554388
5277.000000;2.560696
5276.000000;2.567787
5275.000000;2.573969
5274.000000;2.578069
5273.000000;2.579209
5272.000000;2.575701
5271.000000;2.568628
5270.000000;2.563369
5269.000000;2.563260
5268.000000;2.565188
5267.000000;2.565205
5266.000000;2.564361
5265.000000;2.564579
5264.000000;2.563776
5263.000000;2.560499
5262.000000;2.558756
5261.000000;2.562172
5260.000000;2.567909
5259.000000;2.571642
5258.000000;2.574567
5257.000000;2.579786
5256.000000;2.585323
5255.000000;2.586697
5254.000000;2.583843
5253.000000;2.579468
5252.000000;2.573873
5251.000000;2.567424
5250.000000;2.564499
5249.000000;2.569020
5248.000000;2.577807
5247.000000;2.583435
5246.000000;2.583271
5245.000000;2.580390
5244.000000;2.577324
5243.000000;2.574501
5242.000000;2.572380
5241.000000;2.571001
5240.000000;2.569724
5239.000000;2.569804
5238.000000;2.573715
5237.000000;2.579749
5236.000000;2.581689
5235.000000;2.577117
5234.000000;2.571051
5233.000000;2.567583
5232.000000;2.564027
5231.000000;2.557525
5230.000000;2.552233
5229.000000;2.554283
5228.000000;2.563639
5227.000000;2.575673
5226.000000;2.587060
5225.000000;2.595288
5224.000000;2.596262
5223.000000;2.589029
5222.000000;2.579355
5221.000000;2.573071
5220.000000;2.570167
5219.000000;2.568788
5218.000000;2.570156
5217.000000;2.575045
5216.000000;2.579353
5215.000000;2.578871
5214.000000;2.575683
5213.000000;2.573889
5212.000000;2.572701
5211.000000;2.569447
5210.000000;2.565778
5209.000000;2.565202
5208.000000;2.567326
5207.000000;2.569379
5206.000000;2.570700
5205.000000;2.571121
5204.000000;2.568324
5203.000000;2.562016
5202.000000;2.556922
5201.000000;2.556730
5200.000000;2.558836
5199.000000;2.559385
5198.000000;2.560102
5197.000000;2.564712
5196.000000;2.571610
5195.000000;2.575884
5194.000000;2.576334
5193.000000;2.574742
5192.000000;2.571576
5191.000000;2.567926
5190.000000;2.567759
5189.000000;2.572792
5188.000000;2.577838
5187.000000;2.576887
5186.000000;2.571759
5185.000000;2.568091
5184.000000;2.566172
5183.000000;2.562583
5182.000000;2.558069
5181.000000;2.556885
5180.000000;2.560209
5179.000000;2.565490
5178.000000;2.570710
5177.000000;2.575145
5176.000000;2.576725
5175.000000;2.573571
5174.000000;2.568094
5173.000000;2.564466
5172.000000;2.563109
5171.000000;2.562157
5170.000000;2.562307
5169.000000;2.565127
5168.000000;2.568177
5167.000000;2.567429
5166.000000;2.563816
5165.000000;2.562050
5164.000000;2.563729
5163.000000;2.566366
5162.000000;2.568478
5161.000000;2.571123
5160.000000;2.574334
5159.000000;2.576286
5158.000000;2.576196
5157.000000;2.574519
5156.000000;2.570705
5155.000000;2.564262
5154.000000;2.557316
5153.000000;2.553120
5152.000000;2.553009
5151.000000;2.556407
5150.000000;2.561931
5149.000000;2.566725
5148.000000;2.567084
5147.000000;2.562942
5146.000000;2.559082
5145.000000;2.558881
5144.000000;2.560265
5143.000000;2.560087
5142.000000;2.559155
5141.000000;2.559445
5140.000000;2.559445
5139.000000;2.557036
5138.000000;2.554292
5137.000000;2.554635
5136.000000;2.557118
5135.000000;2.558211
5134.000000;2.558596
5133.000000;2.562408
5132.000000;2.569888
5131.000000;2.576073
5130.000000;2.576894
5129.000000;2.572941
5128.000000;2.566806
5127.000000;2.560539
5126.000000;2.555773
5125.000000;2.552923
5124.000000;2.550635
5123.000000;2.548151
5122.000000;2.547014
5121.000000;2.548561
5120.000000;2.551370
5119.000000;2.553235
5118.000000;2.554138
5117.000000;2.554786
5116.000000;2.554106
5115.000000;2.551559
5114.000000;2.549667
5113.000000;2.550371
5112.000000;2.551454
5111.000000;2.549994
5110.000000;2.546746
5109.000000;2.543575
5108.000000;2.539635
5107.000000;2.534387
5106.000000;2.531530
5105.000000;2.535031
5104.000000;2.543123
5103.000000;2.550242
5102.000000;2.554064
5101.000000;2.556706
5100.000000;2.559575
5099.000000;2.561515
5098.000000;2.561629
5097.000000;2.559867
5096.000000;2.555320
5095.000000;2.548024
5094.000000;2.541565
5093.000000;2.539793
5092.000000;2.541772
5091.000000;2.543234
5090.000000;2.542398
5089.000000;2.540854
5088.000000;2.539407
5087.000000;2.537172
5086.000000;2.534195
5085.000000;2.531339
5084.000000;2.528413
5083.000000;2.525788
5082.000000;2.526630
5081.000000;2.533706
5080.000000;2.544056
5079.000000;2.550333
5078.000000;2.548727
5077.000000;2.542051
5076.000000;2.534390
5075.000000;2.527393
5074.000000;2.522166
5073.000000;2.520428
5072.000000;2.522157
5071.000000;2.524321
5070.000000;2.523556
5069.000000;2.519337
5068.000000;2.514079
5067.000000;2.511060
5066.000000;2.512066
5065.000000;2.515801
5064.000000;2.518946
5063.000000;2.519766
5062.000000;2.519432
5061.000000;2.518971
5060.000000;2.517198
5059.000000;2.513506
5058.000000;2.510505
5057.000000;2.511075
5056.000000;2.514290
5055.000000;2.516798
5054.000000;2.517245
5053.000000;2.516682
5052.000000;2.515499
5051.000000;2.513151
5050.000000;2.510565
5049.000000;2.510067
5048.000000;2.512843
5047.000000;2.518050
5046.000000;2.523787
5045.000000;2.527567
5044.000000;2.527030
5043.000000;2.522024
5042.000000;2.514921
5041.000000;2.507646
5040.000000;2.500266
5039.000000;2.493625
5038.000000;2.490703
5037.000000;2.493216
5036.000000;2.498726
5035.000000;2.503282
5034.000000;2.505499
5033.000000;2.505460
5032.000000;2.501677
5031.000000;2.492946
5030.000000;2.481774
5029.000000;2.472421
5028.000000;2.466522
5027.000000;2.463013
5026.000000;2.461074
5025.000000;2.460595
5024.000000;2.460516
5023.000000;2.459316
5022.000000;2.456845
5021.000000;2.453722
5020.000000;2.449898
5019.000000;2.445667
5018.000000;2.442499
5017.000000;2.440793
5016.000000;2.437974
5015.000000;2.431309
5014.000000;2.422396
5013.000000;2.415858
5012.000000;2.413738
5011.000000;2.413924
5010.000000;2.413817
5009.000000;2.413224
5008.000000;2.413098
5007.000000;2.413094
5006.000000;2.411229
5005.000000;2.405605
5004.000000;2.396733
5003.000000;2.388200
5002.000000;2.383787
5001.000000;2.383338
5000.000000;2.382680
4999.000000;2.378849
4998.000000;2.373965
4997.000000;2.371745
4996.000000;2.371734
4995.000000;2.369540
4994.000000;2.362481
4993.000000;2.352607
4992.000000;2.343630
4991.000000;2.337282
4990.000000;2.333155
4989.000000;2.330220
4988.000000;2.327746
4987.000000;2.325372
4986.000000;2.322739
4985.000000;2.319080
4984.000000;2.313715
4983.000000;2.307310
4982.000000;2.301719
4981.000000;2.297771
4980.000000;2.294102
4979.000000;2.289019
4978.000000;2.282715
4977.000000;2.276659
4976.000000;2.271382
4975.000000;2.266140
4974.000000;2.260444
4973.000000;2.254844
4972.000000;2.250043
4971.000000;2.246004
4970.000000;2.242122
4969.000000;2.237780
4968.000000;2.232874
4967.000000;2.227773
4966.000000;2.222524
4965.000000;2.216310
4964.000000;2.208533
4963.000000;2.200222
4962.000000;2.193191
4961.000000;2.187834
4960.000000;2.182888
4959.000000;2.177509
4958.000000;2.172339
4957.000000;2.168066
4956.000000;2.164077
4955.000000;2.159246
4954.000000;2.153066
4953.000000;2.145598
4952.000000;2.137298
4951.000000;2.129370
4950.000000;2.123241
4949.000000;2.119059
4948.000000;2.115698
4947.000000;2.112354
4946.000000;2.108995
4945.000000;2.105023
4944.000000;2.099125
4943.000000;2.091275
4942.000000;2.083441
4941.000000;2.077147
4940.000000;2.071423
4939.000000;2.064403
4938.000000;2.056048
4937.000000;2.047975
4936.000000;2.041243
4935.000000;2.035616
4934.000000;2.030530
4933.000000;2.025601
4932.000000;2.020349
4931.000000;2.014440
4930.000000;2.008141
4929.000000;2.001901
4928.000000;1.995669
4927.000000;1.989206
4926.000000;1.982758
4925.000000;1.976880
4924.000000;1.971721
4923.000000;1.966891
4922.000000;1.961800
4921.000000;1.955892
4920.000000;1.948911
4919.000000;1.941300
4918.000000;1.934033
4917.000000;1.927775
4916.000000;1.922446
4915.000000;1.917654
4914.000000;1.913026
4913.000000;1.908047
4912.000000;1.902285
4911.000000;1.896064
4910.000000;1.890199
4909.000000;1.884746
4908.000000;1.878754
4907.000000;1.871760
4906.000000;1.864784
4905.000000;1.859107
4904.000000;1.854621
4903.000000;1.850067
4902.000000;1.844618
4901.000000;1.838599
4900.000000;1.832729
4899.000000;1.827200
4898.000000;1.821551
4897.000000;1.815291
4896.000000;1.808696
4895.000000;1.802895
4894.000000;1.798733
4893.000000;1.795533
4892.000000;1.791565
4891.000000;1.785946
4890.000000;1.779437
4889.000000;1.773119
4888.000000;1.767131
4887.000000;1.761160
4886.000000;1.755349
4885.000000;1.749965
4884.000000;1.744664
4883.000000;1.738860
4882.000000;1.732625
4881.000000;1.726617
4880.000000;1.721241
4879.000000;1.716336
4878.000000;1.711547
4877.000000;1.706641
4876.000000;1.701588
4875.000000;1.696552
4874.000000;1.691636
4873.000000;1.686514
4872.000000;1.680703
4871.000000;1.674381
4870.000000;1.668430
4869.000000;1.663331
4868.000000;1.658483
4867.000000;1.653038
4866.000000;1.647031
4865.000000;1.641169
4864.000000;1.635870
4863.000000;1.631057
4862.000000;1.626647
4861.000000;1.622625
4860.000000;1.618696
4859.000000;1.614382
4858.000000;1.609509
4857.000000;1.604240
4856.000000;1.598717
4855.000000;1.593000
4854.000000;1.587325
4853.000000;1.582068
4852.000000;1.577374
4851.000000;1.573028
4850.000000;1.568671
4849.000000;1.564008
4848.000000;1.558950
4847.000000;1.553713
4846.000000;1.548707
4845.000000;1.544113
4844.000000;1.539674
4843.000000;1.535035
4842.000000;1.530122
4841.000000;1.525043
4840.000000;1.519806
4839.000000;1.514435
4838.000000;1.509206
4837.000000;1.504457
4836.000000;1.500190
4835.000000;1.496053
4834.000000;1.491718
4833.000000;1.487146
4832.000000;1.482542
4831.000000;1.478165
4830.000000;1.474085
4829.000000;1.470061
4828.000000;1.465738
4827.000000;1.461035
4826.000000;1.456246
4825.000000;1.451705
4824.000000;1.447494
4823.000000;1.443484
4822.000000;1.439427
4821.000000;1.434997
4820.000000;1.430028
4819.000000;1.424836
4818.000000;1.420019
4817.000000;1.415766
4816.000000;1.411640
4815.000000;1.407222
4814.000000;1.402682
4813.000000;1.398427
4812.000000;1.394436
4811.000000;1.390296
4810.000000;1.385800
4809.000000;1.381160
4808.000000;1.376758
4807.000000;1.372779
4806.000000;1.369156
4805.000000;1.365609
4804.000000;1.361786
4803.000000;1.357598
4802.000000;1.353302
4801.000000;1.349231
4800.000000;1.345401
4799.000000;1.341565
4798.000000;1.337567
4797.000000;1.333431
4796.000000;1.329172
4795.000000;1.324758
4794.000000;1.320271
4793.000000;1.315924
4792.000000;1.311852
4791.000000;1.307959
4790.000000;1.304010
4789.000000;1.299848
4788.000000;1.295549
4787.000000;1.291398
4786.000000;1.287648
4785.000000;1.284228
4784.000000;1.280755
4783.000000;1.276903
4782.000000;1.272723
4781.000000;1.268558
4780.000000;1.264722
4779.000000;1.261284
4778.000000;1.258078
4777.000000;1.254834
4776.000000;1.251366
4775.000000;1.247715
4774.000000;1.244087
4773.000000;1.240627
4772.000000;1.237305
4771.000000;1.234007
4770.000000;1.230627
4769.000000;1.227065
4768.000000;1.223301
4767.000000;1.219483
4766.000000;1.215837
4765.000000;1.212396
4764.000000;1.208977
4763.000000;1.205444
4762.000000;1.201877
4761.000000;1.198401
4760.000000;1.195012
4759.000000;1.191659
4758.000000;1.188362
4757.000000;1.185135
4756.000000;1.181895
4755.000000;1.178553
4754.000000;1.175104
4753.000000;1.171575
4752.000000;1.167999
4751.000000;1.164503
4750.000000;1.161284
4749.000000;1.158383
4748.000000;1.155582
4747.000000;1.152623
4746.000000;1.149450
4745.000000;1.146149
4744.000000;1.142801
4743.000000;1.139474
4742.000000;1.136257
4741.000000;1.133186
4740.000000;1.130202
4739.000000;1.127280
4738.000000;1.124489
4737.000000;1.121818
4736.000000;1.119075
4735.000000;1.116092
4734.000000;1.112957
4733.000000;1.109906
4732.000000;1.107041
4731.000000;1.104251
4730.000000;1.101357
4729.000000;1.098269
4728.000000;1.095054
4727.000000;1.091939
4726.000000;1.089175
4725.000000;1.086798
4724.000000;1.084561
4723.000000;1.082163
4722.000000;1.079499
4721.000000;1.076642
4720.000000;1.073712
4719.000000;1.070817
4718.000000;1.068042
4717.000000;1.065391
4716.000000;1.062789
4715.000000;1.060231
4714.000000;1.057802
4713.000000;1.055490
4712.000000;1.053096
4711.000000;1.050460
4710.000000;1.047689
4709.000000;1.045035
4708.000000;1.042600
4707.000000;1.040287
4706.000000;1.037975
4705.000000;1.035638
4704.000000;1.033310
4703.000000;1.031048
4702.000000;1.028913
4701.000000;1.026881
4700.000000;1.024815
4699.000000;1.022577
4698.000000;1.020164
4697.000000;1.017677
4696.000000;1.015198
4695.000000;1.012772
4694.000000;1.010437
4693.000000;1.008194
4692.000000;1.005967
4691.000000;1.003682
4690.000000;1.001373
4689.000000;0.999151
4688.000000;0.997102
4687.000000;0.995250
4686.000000;0.993567
4685.000000;0.991947
4684.000000;0.990230
4683.000000;0.988316
4682.000000;0.986249
4681.000000;0.984141
4680.000000;0.982061
4679.000000;0.980029
4678.000000;0.978050
4677.000000;0.976117
4676.000000;0.974223
4675.000000;0.972385
4674.000000;0.970608
4673.000000;0.968820
4672.000000;0.966919
4671.000000;0.964937
4670.000000;0.963040
4669.000000;0.961333
4668.000000;0.959721
4667.000000;0.958049
4666.000000;0.956288
4665.000000;0.954517
4664.000000;0.952806
4663.000000;0.951165
4662.000000;0.949554
4661.000000;0.947873
4660.000000;0.946030
4659.000000;0.944079
4658.000000;0.942228
4657.000000;0.940642
4656.000000;0.939281
4655.000000;0.937977
4654.000000;0.936589
4653.000000;0.935045
4652.000000;0.933330
4651.000000;0.931554
4650.000000;0.929916
4649.000000;0.928532
4648.000000;0.927301
4647.000000;0.926027
4646.000000;0.924594
4645.000000;0.922989
4644.000000;0.921267
4643.000000;0.919586
4642.000000;0.918174
4641.000000;0.917106
4640.000000;0.916158
4639.000000;0.915001
4638.000000;0.913523
4637.000000;0.911893
4636.000000;0.910350
4635.000000;0.909030
4634.000000;0.907966
4633.000000;0.907113
4632.000000;0.906330
4631.000000;0.905402
4630.000000;0.904153
4629.000000;0.902568
4628.000000;0.900846
4627.000000;0.899317
4626.000000;0.898206
4625.000000;0.897437
4624.000000;0.896694
4623.000000;0.895740
4622.000000;0.894605
4621.000000;0.893463
4620.000000;0.892420
4619.000000;0.891472
4618.000000;0.890578
4617.000000;0.889689
4616.000000;0.888747
4615.000000;0.887738
4614.000000;0.886709
4613.000000;0.885682
4612.000000;0.884629
4611.000000;0.883550
4610.000000;0.882517
4609.000000;0.881587
4608.000000;0.880730
4607.000000;0.879891
4606.000000;0.879048
4605.000000;0.878176
4604.000000;0.877257
4603.000000;0.876353
4602.000000;0.875567
4601.000000;0.874875
4600.000000;0.874113
4599.000000;0.873220
4598.000000;0.872347
4597.000000;0.871647
4596.000000;0.871061
4595.000000;0.870442
4594.000000;0.869772
4593.000000;0.869136
4592.000000;0.868552
4591.000000;0.867972
4590.000000;0.867384
4589.000000;0.866780
4588.000000;0.866098
4587.000000;0.865333
4586.000000;0.864644
4585.000000;0.864216
4584.000000;0.864014
4583.000000;0.863813
4582.000000;0.863447
4581.000000;0.862943
4580.000000;0.862424
4579.000000;0.861985
4578.000000;0.861637
4577.000000;0.861302
4576.000000;0.860887
4575.000000;0.860421
4574.000000;0.860076
4573.000000;0.859965
4572.000000;0.859977
4571.000000;0.859908
4570.000000;0.859689
4569.000000;0.859384
4568.000000;0.859044
4567.000000;0.858679
4566.000000;0.858341
4565.000000;0.858105
4564.000000;0.857984
4563.000000;0.857962
4562.000000;0.858068
4561.000000;0.858288
4560.000000;0.858477
4559.000000;0.858487
4558.000000;0.858374
4557.000000;0.858333
4556.000000;0.858447
4555.000000;0.858619
4554.000000;0.858754
4553.000000;0.858875
4552.000000;0.859040
4551.000000;0.859256
4550.000000;0.859501
4549.000000;0.859758
4548.000000;0.860016
4547.000000;0.860294
4546.000000;0.860631
4545.000000;0.860996
4544.000000;0.861254
4543.000000;0.861313
4542.000000;0.861297
4541.000000;0.861420
4540.000000;0.861737
4539.000000;0.862115
4538.000000;0.862461
4537.000000;0.862833
4536.000000;0.863307
4535.000000;0.863851
4534.000000;0.864365
4533.000000;0.864783
4532.000000;0.865085
4531.000000;0.865305
4530.000000;0.865530
4529.000000;0.865843
4528.000000;0.866235
4527.000000;0.866639
4526.000000;0.867032
4525.000000;0.867438
4524.000000;0.867849
4523.000000;0.868222
4522.000000;0.868556
4521.000000;0.868902
4520.000000;0.869275
4519.000000;0.869630
4518.000000;0.869932
4517.000000;0.870194
4516.000000;0.870449
4515.000000;0.870726
4514.000000;0.871058
4513.000000;0.871456
4512.000000;0.871893
4511.000000;0.872362
4510.000000;0.872914
4509.000000;0.873582
4508.000000;0.874282
4507.000000;0.874876
4506.000000;0.875332
4505.000000;0.875754
4504.000000;0.876254
4503.000000;0.876838
4502.000000;0.877405
4501.000000;0.877827
4500.000000;0.878067
4499.000000;0.878248
4498.000000;0.878587
4497.000000;0.879206
4496.000000;0.880043
4495.000000;0.880964
4494.000000;0.881896
4493.000000;0.882791
4492.000000;0.883558
4491.000000;0.884150
4490.000000;0.884666
4489.000000;0.885268
4488.000000;0.886026
4487.000000;0.886940
4486.000000;0.888020
4485.000000;0.889238
4484.000000;0.890436
4483.000000;0.891431
4482.000000;0.892219
4481.000000;0.892968
4480.000000;0.893830
4479.000000;0.894839
4478.000000;0.895967
4477.000000;0.897166
4476.000000;0.898364
4475.000000;0.899515
4474.000000;0.900687
4473.000000;0.901984
4472.000000;0.903397
4471.000000;0.904791
4470.000000;0.906052
4469.000000;0.907181
4468.000000;0.908264
4467.000000;0.909413
4466.000000;0.910715
4465.000000;0.912142
4464.000000;0.913573
4463.000000;0.914957
4462.000000;0.916427
4461.000000;0.918114
4460.000000;0.919903
4459.000000;0.921513
4458.000000;0.922825
4457.000000;0.924020
4456.000000;0.925357
4455.000000;0.926939
4454.000000;0.928700
4453.000000;0.930521
4452.000000;0.932290
4451.000000;0.933931
4450.000000;0.935449
4449.000000;0.936939
4448.000000;0.938531
4447.000000;0.940315
4446.000000;0.942293
4445.000000;0.944358
4444.000000;0.946369
4443.000000;0.948269
4442.000000;0.950100
4441.000000;0.951893
4440.000000;0.953627
4439.000000;0.955350
4438.000000;0.957224
4437.000000;0.959355
4436.000000;0.961633
4435.000000;0.963875
4434.000000;0.966025
4433.000000;0.968144
4432.000000;0.970264
4431.000000;0.972386
4430.000000;0.974549
4429.000000;0.976757
4428.000000;0.978888
4427.000000;0.980840
4426.000000;0.982727
4425.000000;0.984773
4424.000000;0.987058
4423.000000;0.989498
4422.000000;0.992030
4421.000000;0.994642
4420.000000;0.997223
4419.000000;0.999604
4418.000000;1.001781
4417.000000;1.003942
4416.000000;1.006240
4415.000000;1.008666
4414.000000;1.011184
4413.000000;1.013810
4412.000000;1.016490
4411.000000;1.019031
4410.000000;1.021306
4409.000000;1.023481
4408.000000;1.025922
4407.000000;1.028862
4406.000000;1.032145
4405.000000;1.035310
4404.000000;1.037980
4403.000000;1.040215
4402.000000;1.042462
4401.000000;1.045122
4400.000000;1.048226
4399.000000;1.051528
4398.000000;1.054776
4397.000000;1.057777
4396.000000;1.060394
4395.000000;1.062700
4394.000000;1.065088
4393.000000;1.067954
4392.000000;1.071242
4391.000000;1.074462
4390.000000;1.077235
4389.000000;1.079698
4388.000000;1.082312
4387.000000;1.085375
4386.000000;1.088774
4385.000000;1.092139
4384.000000;1.095185
4383.000000;1.097959
4382.000000;1.100787
4381.000000;1.103936
4380.000000;1.107369
4379.000000;1.110862
4378.000000;1.114300
4377.000000;1.117742
4376.000000;1.121226
4375.000000;1.124654
4374.000000;1.127893
4373.000000;1.130931
4372.000000;1.133902
4371.000000;1.137019
4370.000000;1.140438
4369.000000;1.144128
4368.000000;1.147860
4367.000000;1.151366
4366.000000;1.154543
4365.000000;1.157521
4364.000000;1.160606
4363.000000;1.164125
4362.000000;1.168188
4361.000000;1.172535
4360.000000;1.176704
4359.000000;1.180437
4358.000000;1.183845
4357.000000;1.187209
4356.000000;1.190756
4355.000000;1.194675
4354.000000;1.199093
4353.000000;1.203867
4352.000000;1.208547
4351.000000;1.212735
4350.000000;1.216445
4349.000000;1.220026
4348.000000;1.223841
4347.000000;1.228069
4346.000000;1.232615
4345.000000;1.237113
4344.000000;1.241210
4343.000000;1.244987
4342.000000;1.248964
4341.000000;1.253553
4340.000000;1.258664
4339.000000;1.263908
4338.000000;1.268948
4337.000000;1.273506
4336.000000;1.277388
4335.000000;1.280768
4334.000000;1.284226
4333.000000;1.288212
4332.000000;1.292667
4331.000000;1.297376
4330.000000;1.302428
4329.000000;1.307960
4328.000000;1.313638
4327.000000;1.318792
4326.000000;1.323147
4325.000000;1.327142
4324.000000;1.331508
4323.000000;1.336618
4322.000000;1.342202
4321.000000;1.347618
4320.000000;1.352493
4319.000000;1.357125
4318.000000;1.362016
4317.000000;1.367121
4316.000000;1.371989
4315.000000;1.376634
4314.000000;1.381623
4313.000000;1.387094
4312.000000;1.392379
4311.000000;1.397070
4310.000000;1.401840
4309.000000;1.407577
4308.000000;1.414136
4307.000000;1.420585
4306.000000;1.426326
4305.000000;1.431391
4304.000000;1.435975
4303.000000;1.440400
4302.000000;1.445271
4301.000000;1.450985
4300.000000;1.457176
4299.000000;1.463174
4298.000000;1.468811
4297.000000;1.474257
4296.000000;1.479409
4295.000000;1.484131
4294.000000;1.488878
4293.000000;1.494324
4292.000000;1.500530
4291.000000;1.507090
4290.000000;1.513896
4289.000000;1.521037
4288.000000;1.528126
4287.000000;1.534485
4286.000000;1.539960
4285.000000;1.544909
4284.000000;1.549568
4283.000000;1.554168
4282.000000;1.559423
4281.000000;1.565985
4280.000000;1.573459
4279.000000;1.580747
4278.000000;1.587332
4277.000000;1.593462
4276.000000;1.599288
4275.000000;1.604863
4274.000000;1.610906
4273.000000;1.618324
4272.000000;1.626627
4271.000000;1.633900
4270.000000;1.638994
4269.000000;1.643068
4268.000000;1.648307
4267.000000;1.655651
4266.000000;1.664163
4265.000000;1.672063
4264.000000;1.678146
4263.000000;1.682702
4262.000000;1.687330
4261.000000;1.693568
4260.000000;1.701523
4259.000000;1.709967
4258.000000;1.717645
4257.000000;1.724162
4256.000000;1.729844
4255.000000;1.735466
4254.000000;1.741989
4253.000000;1.749787
4252.000000;1.758056
4251.000000;1.765533
4250.000000;1.771857
4249.000000;1.777702
4248.000000;1.783674
4247.000000;1.789695
4246.000000;1.795410
4245.000000;1.800718
4244.000000;1.805851
4243.000000;1.811590
4242.000000;1.818708
4241.000000;1.826926
4240.000000;1.834749
4239.000000;1.841189
4238.000000;1.847121
4237.000000;1.854030
4236.000000;1.862081
4235.000000;1.870488
4234.000000;1.879222
4233.000000;1.888951
4232.000000;1.899448
4231.000000;1.909438
4230.000000;1.918217
4229.000000;1.926307
4228.000000;1.934439
4227.000000;1.942915
4226.000000;1.951753
4225.000000;1.960279
4224.000000;1.966774
4223.000000;1.969986
4222.000000;1.971386
4221.000000;1.974459
4220.000000;1.981410
4219.000000;1.991677
4218.000000;2.003038
4217.000000;2.013312
4216.000000;2.021539
4215.000000;2.027875
4214.000000;2.032860
4213.000000;2.037465
4212.000000;2.043431
4211.000000;2.052312
4210.000000;2.063315
4209.000000;2.072941
4208.000000;2.078791
4207.000000;2.083367
4206.000000;2.091258
4205.000000;2.102813
4204.000000;2.113770
4203.000000;2.121607
4202.000000;2.128850
4201.000000;2.138884
4200.000000;2.151963
4199.000000;2.166771
4198.000000;2.182528
4197.000000;2.196620
4196.000000;2.203354
4195.000000;2.200342
4194.000000;2.194213
4193.000000;2.194884
4192.000000;2.205763
4191.000000;2.221247
4190.000000;2.232093
4189.000000;2.233381
4188.000000;2.228790
4187.000000;2.227253
4186.000000;2.234255
4185.000000;2.245774
4184.000000;2.252415
4183.000000;2.252146
4182.000000;2.254257
4181.000000;2.267089
4180.000000;2.288251
4179.000000;2.308691
4178.000000;2.322993
4177.000000;2.332560
4176.000000;2.340295
4175.000000;2.347780
4174.000000;2.356266
4173.000000;2.365321
4172.000000;2.372622
4171.000000;2.378597
4170.000000;2.388062
4169.000000;2.403372
4168.000000;2.418685
4167.000000;2.427863
4166.000000;2.435424
4165.000000;2.449782
4164.000000;2.469360
4163.000000;2.483713
4162.000000;2.487064
4161.000000;2.482694
4160.000000;2.474717
4159.000000;2.465622
4158.000000;2.460652
4157.000000;2.465382
4156.000000;2.477505
4155.000000;2.486580
4154.000000;2.485002
4153.000000;2.475648
4152.000000;2.466917
4151.000000;2.465984
4150.000000;2.475833
4149.000000;2.492302
4148.000000;2.506195
4147.000000;2.514863
4146.000000;2.526226
4145.000000;2.546024
4144.000000;2.569087
4143.000000;2.587720
4142.000000;2.603276
4141.000000;2.619912
4140.000000;2.633647
4139.000000;2.641353
4138.000000;2.653108
4137.000000;2.680214
4136.000000;2.714911
4135.000000;2.733260
4134.000000;2.726299
4133.000000;2.710488
4132.000000;2.698750
4131.000000;2.689318
4130.000000;2.681255
4129.000000;2.681963
4128.000000;2.697581
4127.000000;2.727781
4126.000000;2.769031
4125.000000;2.812221
4124.000000;2.838709
4123.000000;2.836003
4122.000000;2.813998
4121.000000;2.788030
4120.000000;2.763187
4119.000000;2.744552
4118.000000;2.742334
4117.000000;2.754313
4116.000000;2.754404
4115.000000;2.722835
4114.000000;2.682193
4113.000000;2.671399
4112.000000;2.705459
4111.000000;2.769173
4110.000000;2.833930
4109.000000;2.875951
4108.000000;2.876036
4107.000000;2.834173
4106.000000;2.784149
4105.000000;2.755374
4104.000000;2.750774
4103.000000;2.764488
4102.000000;2.799163
4101.000000;2.860437
4100.000000;2.937664
4099.000000;2.999041
4098.000000;3.023104
4097.000000;3.025626
4096.000000;3.012743
4095.000000;2.967879
4094.000000;2.915760
4093.000000;2.890647
4092.000000;2.886441
4091.000000;2.877755
4090.000000;2.858390
4089.000000;2.841524
4088.000000;2.838513
4087.000000;2.852516
4086.000000;2.877877
4085.000000;2.895465
4084.000000;2.882682
4083.000000;2.843214
4082.000000;2.805671
4081.000000;2.790113
4080.000000;2.795648
4079.000000;2.816311
4078.000000;2.857164
4077.000000;2.920982
4076.000000;2.981752
4075.000000;3.014280
4074.000000;3.038342
4073.000000;3.075467
4072.000000;3.105832
4071.000000;3.109030
4070.000000;3.105244
4069.000000;3.092997
4068.000000;3.058212
4067.000000;3.014410
4066.000000;2.989053
4065.000000;3.000660
4064.000000;3.020936
4063.000000;2.997383
4062.000000;2.942259
4061.000000;2.914020
4060.000000;2.936355
4059.000000;2.983683
4058.000000;3.019421
4057.000000;3.043444
4056.000000;3.064155
4055.000000;3.045915
4054.000000;2.963994
4053.000000;2.871965
4052.000000;2.827949
4051.000000;2.843741
4050.000000;2.892202
4049.000000;2.930150
4048.000000;2.940509
4047.000000;2.945490
4046.000000;2.983104
4045.000000;3.091043
4044.000000;3.290923
4043.000000;3.566346
4042.000000;3.573498
4041.000000;3.333971
4040.000000;3.190816
4039.000000;3.151738
4038.000000;3.166182
4037.000000;3.196553
4036.000000;3.212891
4035.000000;3.180517
4034.000000;3.133514
4033.000000;3.113208
4032.000000;3.120228
4031.000000;3.130160
4030.000000;3.124148
4029.000000;3.128014
4028.000000;3.095252
4027.000000;2.991497
4026.000000;2.941533
4025.000000;2.996771
4024.000000;3.103885
4023.000000;3.143055
4022.000000;3.095464
4021.000000;3.050006
4020.000000;3.046176
4019.000000;3.084855
4018.000000;3.181420
4017.000000;3.355960
4016.000000;3.331559
4015.000000;3.222142
4014.000000;3.252479
4013.000000;3.279938
4012.000000;3.226215
4011.000000;3.202947
4010.000000;3.231397
4009.000000;3.383740
4008.000000;3.626192
4007.000000;3.416142
4006.000000;3.288840
4005.000000;3.229190
4004.000000;3.140718
4003.000000;3.068950
4002.000000;3.048251
4001.000000;3.061036
4000.000000;3.064626
3999.000000;3.071770
3998.000000;3.142209
3997.000000;3.253421
3996.000000;3.233107
3995.000000;3.137614
3994.000000;3.109964
3993.000000;3.152922
3992.000000;3.211402
3991.000000;3.216074
3990.000000;3.226294
3989.000000;3.332019
3988.000000;3.560849
3987.000000;3.748007
3986.000000;3.560463
3985.000000;3.292397
3984.000000;3.129546
3983.000000;3.064890
3982.000000;3.071436
3981.000000;3.135927
3980.000000;3.249000
3979.000000;3.313167
3978.000000;3.313430
3977.000000;3.417363
3976.000000;3.806864
3975.000000;3.940370
3974.000000;3.387210
3973.000000;3.198280
3972.000000;3.156199
3971.000000;3.226681
3970.000000;3.330603
3969.000000;3.355286
3968.000000;3.304779
3967.000000;3.262138
3966.000000;3.292386
3965.000000;3.414094
3964.000000;3.511485
3963.000000;3.375646
3962.000000;3.170954
3961.000000;3.054682
3960.000000;3.027967
3959.000000;3.036091
3958.000000;3.014377
3957.000000;2.979608
3956.000000;2.980685
3955.000000;3.025904
3954.000000;3.112165
3953.000000;3.269640
3952.000000;3.436765
3951.000000;3.379002
3950.000000;3.345763
3949.000000;3.534948
3948.000000;3.897023
3947.000000;3.998340
3946.000000;4.016633
3945.000000;3.603548
3944.000000;3.301756
3943.000000;3.182317
3942.000000;3.167471
3941.000000;3.269999
3940.000000;3.450996
3939.000000;3.452751
3938.000000;3.503689
3937.000000;3.755797
3936.000000;3.520985
3935.000000;3.360445
3934.000000;3.491710
3933.000000;3.804843
3932.000000;3.662772
3931.000000;3.540139
3930.000000;3.483826
3929.000000;3.360087
3928.000000;3.401851
3927.000000;3.826390
3926.000000;3.676664
3925.000000;3.361625
3924.000000;3.357697
3923.000000;3.450064
3922.000000;3.499207
3921.000000;3.447278
3920.000000;3.353652
3919.000000;3.245926
3918.000000;3.107121
3917.000000;3.004068
3916.000000;2.974912
3915.000000;3.005282
3914.000000;3.066273
3913.000000;3.134458
3912.000000;3.202240
3911.000000;3.298741
3910.000000;3.549662
3909.000000;3.687383
3908.000000;3.496791
3907.000000;3.509419
3906.000000;3.716111
3905.000000;3.950530
3904.000000;3.729953
3903.000000;3.445604
3902.000000;3.282185
3901.000000;3.213711
3900.000000;3.213908
3899.000000;3.236371
3898.000000;3.248895
3897.000000;3.287690
3896.000000;3.374952
3895.000000;3.334300
3894.000000;3.229014
3893.000000;3.256695
3892.000000;3.392993
3891.000000;3.613346
3890.000000;3.788174
3889.000000;3.803905
3888.000000;4.274271
3887.000000;4.154481
3886.000000;3.749875
3885.000000;3.720497
3884.000000;3.658743
3883.000000;3.582515
3882.000000;3.569791
3881.000000;3.609194
3880.000000;3.738618
3879.000000;4.371155
3878.000000;3.580901
3877.000000;3.249373
3876.000000;3.331086
3875.000000;3.746073
3874.000000;3.619126
3873.000000;3.278692
3872.000000;3.138132
3871.000000;3.160857
3870.000000;3.333963
3869.000000;3.568576
3868.000000;3.795469
3867.000000;3.928619
3866.000000;4.092077
3865.000000;4.238639
3864.000000;3.832579
3863.000000;3.600094
3862.000000;3.532322
3861.000000;3.609593
3860.000000;3.810520
3859.000000;3.673878
3858.000000;3.417480
3857.000000;3.476045
3856.000000;4.105736
3855.000000;4.304058
3854.000000;4.400885
3853.000000;4.310269
3852.000000;3.990757
3851.000000;3.885784
3850.000000;3.893251
3849.000000;3.983990
3848.000000;4.001344
3847.000000;3.728377
3846.000000;3.407521
3845.000000;3.252823
3844.000000;3.269826
3843.000000;3.346495
3842.000000;3.300796
3841.000000;3.208108
3840.000000;3.216539
3839.000000;3.397323
3838.000000;3.999668
3837.000000;4.417872
3836.000000;3.932562
3835.000000;4.002568
3834.000000;3.984831
3833.000000;3.758282
3832.000000;3.540814
3831.000000;3.419558
3830.000000;3.346090
3829.000000;3.294137
3828.000000;3.306447
3827.000000;3.382467
3826.000000;3.466636
3825.000000;3.477035
3824.000000;3.375365
3823.000000;3.289278
3822.000000;3.334179
3821.000000;3.523169
3820.000000;3.839261
3819.000000;4.284047
3818.000000;4.279403
3817.000000;3.799788
3816.000000;3.710878
3815.000000;3.797402
3814.000000;4.189021
3813.000000;4.055548
3812.000000;3.547273
3811.000000;3.385307
3810.000000;3.430826
3809.000000;3.592907
3808.000000;3.354563
3807.000000;3.206444
3806.000000;3.229158
3805.000000;3.232531
3804.000000;3.308947
3803.000000;3.580905
3802.000000;4.366615
3801.000000;3.999861
3800.000000;3.703387
3799.000000;3.653797
3798.000000;3.713704
3797.000000;3.764530
3796.000000;3.574259
3795.000000;3.294541
3794.000000;3.069337
3793.000000;2.957028
3792.000000;2.932100
3791.000000;2.924586
3790.000000;2.927570
3789.000000;2.960594
3788.000000;2.991872
3787.000000;3.038842
3786.000000;3.249904
3785.000000;3.553224
3784.000000;3.674105
3783.000000;3.832123
3782.000000;3.527031
3781.000000;3.304365
3780.000000;3.207703
3779.000000;3.103043
3778.000000;3.033334
3777.000000;3.005754
3776.000000;3.035094
3775.000000;3.108703
3774.000000;3.303757
3773.000000;3.689416
3772.000000;3.408312
3771.000000;3.207272
3770.000000;3.196795
3769.000000;3.214965
3768.000000;3.261140
3767.000000;3.222251
3766.000000;3.174610
3765.000000;3.193604
3764.000000;3.238306
3763.000000;3.518289
3762.000000;4.152091
3761.000000;3.565337
3760.000000;3.348115
3759.000000;3.206391
3758.000000;3.112415
3757.000000;3.091421
3756.000000;3.096961
3755.000000;3.136861
3754.000000;3.257580
3753.000000;3.542824
3752.000000;3.973290
3751.000000;4.336466
3750.000000;4.421102
3749.000000;4.118799
3748.000000;3.890777
3747.000000;3.777271
3746.000000;3.774343
3745.000000;3.887981
3744.000000;4.007937
3743.000000;3.765734
3742.000000;3.516782
3741.000000;3.491603
3740.000000;3.785844
3739.000000;4.163906
3738.000000;3.627879
3737.000000;3.437064
3736.000000;3.328247
3735.000000;3.176029
3734.000000;3.159195
3733.000000;3.357230
3732.000000;3.801067
3731.000000;3.853293
3730.000000;3.619213
3729.000000;3.349547
3728.000000;3.172418
3727.000000;3.095489
3726.000000;3.090322
3725.000000;3.080352
3724.000000;3.152461
3723.000000;3.706199
3722.000000;3.486639
3721.000000;3.043153
3720.000000;2.934198
3719.000000;2.936956
3718.000000;3.160913
3717.000000;3.454358
3716.000000;3.158741
3715.000000;2.908751
3714.000000;2.785583
3713.000000;2.775810
3712.000000;2.881495
3711.000000;3.021042
3710.000000;3.028482
3709.000000;2.959320
3708.000000;2.917583
3707.000000;2.894656
3706.000000;2.896862
3705.000000;2.904521
3704.000000;3.068581
3703.000000;3.162639
3702.000000;2.886430
3701.000000;2.783745
3700.000000;2.823008
3699.000000;2.920775
3698.000000;2.962060
3697.000000;2.892686
3696.000000;2.820368
3695.000000;2.850201
3694.000000;3.057354
3693.000000;3.223444
3692.000000;3.130170
3691.000000;3.046922
3690.000000;3.001362
3689.000000;3.012661
3688.000000;3.082455
3687.000000;3.157018
3686.000000;3.193187
3685.000000;3.149639
3684.000000;2.988195
3683.000000;2.772963
3682.000000;2.608804
3681.000000;2.562023
3680.000000;2.658761
3679.000000;2.912938
3678.000000;3.241157
3677.000000;3.345237
3676.000000;3.396199
3675.000000;3.399328
3674.000000;3.388923
3673.000000;3.772484
3672.000000;3.811816
3671.000000;3.456586
3670.000000;3.481047
3669.000000;3.510350
3668.000000;3.441523
3667.000000;3.354437
3666.000000;3.374515
3665.000000;3.288149
3664.000000;3.080977
3663.000000;3.029980
3662.000000;3.046387
3661.000000;2.960205
3660.000000;2.878363
3659.000000;2.905174
3658.000000;2.958007
3657.000000;2.950766
3656.000000;2.993133
3655.000000;3.008305
3654.000000;3.046865
3653.000000;3.204442
3652.000000;3.124063
3651.000000;2.958813
3650.000000;2.826110
3649.000000;2.783626
3648.000000;2.929063
3647.000000;3.267572
3646.000000;3.587622
3645.000000;3.329250
3644.000000;3.019465
3643.000000;2.864837
3642.000000;2.813031
3641.000000;2.818680
3640.000000;2.884705
3639.000000;2.864992
3638.000000;2.696110
3637.000000;2.576166
3636.000000;2.495411
3635.000000;2.368929
3634.000000;2.245824
3633.000000;2.194292
3632.000000;2.270371
3631.000000;2.481841
3630.000000;2.624064
3629.000000;2.668355
3628.000000;2.787394
3627.000000;2.906758
3626.000000;2.996992
3625.000000;2.928002
3624.000000;2.772616
3623.000000;2.734626
3622.000000;2.783108
3621.000000;2.790902
3620.000000;2.744301
3619.000000;2.823505
3618.000000;3.138163
3617.000000;3.004261
3616.000000;2.690831
3615.000000;2.591732
3614.000000;2.576288
3613.000000;2.595409
3612.000000;2.607530
3611.000000;2.611945
3610.000000;2.649201
3609.000000;2.696946
3608.000000;2.671390
3607.000000;2.518293
3606.000000;2.374306
3605.000000;2.351460
3604.000000;2.453715
3603.000000;2.634491
3602.000000;2.808616
3601.000000;2.950950
3600.000000;2.981968
3599.000000;3.078064
3598.000000;3.233168
3597.000000;2.985566
3596.000000;2.824449
3595.000000;2.782964
3594.000000;3.061541
3593.000000;3.109117
3592.000000;2.574550
3591.000000;2.365588
3590.000000;2.284745
3589.000000;2.252548
3588.000000;2.221161
3587.000000;2.170680
3586.000000;2.130131
3585.000000;2.143086
3584.000000;2.247596
3583.000000;2.474590
3582.000000;2.884860
3581.000000;3.039226
3580.000000;2.832565
3579.000000;2.752866
3578.000000;2.650109
3577.000000;2.503110
3576.000000;2.444975
3575.000000;2.491242
3574.000000;2.482180
3573.000000;2.405699
3572.000000;2.540792
3571.000000;2.693588
3570.000000;2.471099
3569.000000;2.406827
3568.000000;2.526050
3567.000000;2.748044
3566.000000;2.692563
3565.000000;2.489603
3564.000000;2.433039
3563.000000;2.425013
3562.000000;2.427828
3561.000000;2.428141
3560.000000;2.461827
3559.000000;2.535325
3558.000000;2.541814
3557.000000;2.460704
3556.000000;2.427747
3555.000000;2.418277
3554.000000;2.347913
3553.000000;2.330166
3552.000000;2.413531
3551.000000;2.432083
3550.000000;2.374002
3549.000000;2.412056
3548.000000;2.636128
3547.000000;2.995051
3546.000000;3.249092
3545.000000;2.988110
3544.000000;2.530610
3543.000000;2.373540
3542.000000;2.361657
3541.000000;2.342006
3540.000000;2.346948
3539.000000;2.438542
3538.000000;2.605577
3537.000000;2.778012
3536.000000;2.962159
3535.000000;3.112445
3534.000000;3.162116
3533.000000;3.030750
3532.000000;2.811754
3531.000000;2.724344
3530.000000;2.716506
3529.000000;2.666278
3528.000000;2.643329
3527.000000;2.632386
3526.000000;2.601679
3525.000000;2.643171
3524.000000;2.789436
3523.000000;2.932343
3522.000000;2.890025
3521.000000;2.794769
3520.000000;2.824454
3519.000000;2.990940
3518.000000;3.356478
3517.000000;3.121939
3516.000000;2.756056
3515.000000;2.670701
3514.000000;2.739884
3513.000000;3.128084
3512.000000;3.220005
3511.000000;2.905217
3510.000000;2.960566
3509.000000;2.984658
3508.000000;2.843294
3507.000000;2.659699
3506.000000;2.580526
3505.000000;2.658394
3504.000000;2.745546
3503.000000;2.709325
3502.000000;2.686553
3501.000000;2.652460
3500.000000;2.670923
3499.000000;2.663913
3498.000000;2.418026
3497.000000;2.269140
3496.000000;2.294498
3495.000000;2.490393
3494.000000;2.708819
3493.000000;2.624302
3492.000000;2.692850
3491.000000;3.093046
3490.000000;3.007734
3489.000000;2.751039
3488.000000;2.663377
3487.000000;2.622179
3486.000000;2.679605
3485.000000;2.834250
3484.000000;3.196999
3483.000000;3.233126
3482.000000;2.917263
3481.000000;2.793152
3480.000000;2.662628
3479.000000;2.523919
3478.000000;2.416072
3477.000000;2.406840
3476.000000;2.488444
3475.000000;2.582211
3474.000000;2.655170
3473.000000;2.723099
3472.000000;2.758128
3471.000000;2.759961
3470.000000;2.864273
3469.000000;2.734321
3468.000000;2.477712
3467.000000;2.454947
3466.000000;2.835844
3465.000000;3.132409
3464.000000;2.679600
3463.000000;2.781370
3462.000000;3.124483
3461.000000;3.057843
3460.000000;2.859047
3459.000000;2.753747
3458.000000;2.733903
3457.000000;2.738397
3456.000000;2.764296
3455.000000;2.754428
3454.000000;2.552992
3453.000000;2.362788
3452.000000;2.321401
3451.000000;2.461841
3450.000000;2.828929
3449.000000;2.815134
3448.000000;2.632996
3447.000000;2.646935
3446.000000;2.658368
3445.000000;2.640663
3444.000000;2.657895
3443.000000;2.884746
3442.000000;3.186800
3441.000000;2.911288
3440.000000;2.872418
3439.000000;2.896390
3438.000000;3.053890
3437.000000;3.482087
3436.000000;2.887718
3435.000000;2.607942
3434.000000;2.530355
3433.000000;2.529196
3432.000000;2.540569
3431.000000;2.511232
3430.000000;2.472086
3429.000000;2.446621
3428.000000;2.461438
3427.000000;2.531432
3426.000000;2.671732
3425.000000;2.883402
3424.000000;3.027206
3423.000000;3.198779
3422.000000;3.632494
3421.000000;3.320349
3420.000000;2.875623
3419.000000;2.697387
3418.000000;2.643414
3417.000000;2.786938
3416.000000;3.242738
3415.000000;2.921471
3414.000000;2.653809
3413.000000;2.647717
3412.000000;2.786136
3411.000000;3.079978
3410.000000;3.004121
3409.000000;2.705793
3408.000000;2.596756
3407.000000;2.666025
3406.000000;2.763277
3405.000000;2.831494
3404.000000;3.010005
3403.000000;2.873819
3402.000000;2.658783
3401.000000;2.635626
3400.000000;2.712318
3399.000000;2.807076
3398.000000;2.870303
3397.000000;2.839177
3396.000000;2.806287
3395.000000;3.116379
3394.000000;3.163366
3393.000000;2.721503
3392.000000;2.614405
3391.000000;2.684520
3390.000000;2.840503
3389.000000;2.897465
3388.000000;2.761143
3387.000000;2.642790
3386.000000;2.619760
3385.000000;2.695486
3384.000000;2.804897
3383.000000;2.880856
3382.000000;2.925913
3381.000000;3.021381
3380.000000;3.532457
3379.000000;3.881642
3378.000000;3.234972
3377.000000;3.062917
3376.000000;2.842321
3375.000000;2.676749
3374.000000;2.619039
3373.000000;2.693077
3372.000000;2.938282
3371.000000;3.147446
3370.000000;3.045082
3369.000000;2.955318
3368.000000;2.890959
3367.000000;2.757873
3366.000000;2.658995
3365.000000;2.652702
3364.000000;2.729150
3363.000000;2.776027
3362.000000;2.861962
3361.000000;3.269056
3360.000000;3.333335
3359.000000;3.162694
3358.000000;3.573726
3357.000000;3.574729
3356.000000;3.096072
3355.000000;2.852162
3354.000000;2.792271
3353.000000;2.847928
3352.000000;2.856694
3351.000000;2.849637
3350.000000;2.906767
3349.000000;2.908491
3348.000000;2.907340
3347.000000;3.011976
3346.000000;3.273360
3345.000000;3.978044
3344.000000;3.506100
3343.000000;3.203949
3342.000000;3.341389
3341.000000;3.897482
3340.000000;4.344006
3339.000000;3.511130
3338.000000;3.117329
3337.000000;2.907549
3336.000000;2.823132
3335.000000;2.940441
3334.000000;3.120206
3333.000000;2.872539
3332.000000;2.663691
3331.000000;2.558883
3330.000000;2.534208
3329.000000;2.606009
3328.000000;2.757850
3327.000000;2.797479
3326.000000;2.829723
3325.000000;3.101214
3324.000000;2.837016
3323.000000;2.561839
3322.000000;2.538227
3321.000000;2.599103
3320.000000;2.683105
3319.000000;2.757886
3318.000000;3.023734
3317.000000;3.374248
3316.000000;2.836399
3315.000000;2.549924
3314.000000;2.412914
3313.000000;2.339640
3312.000000;2.350887
3311.000000;2.457552
3310.000000;2.691690
3309.000000;2.858782
3308.000000;2.718244
3307.000000;2.657875
3306.000000;2.698767
3305.000000;2.744580
3304.000000;2.779701
3303.000000;2.838981
3302.000000;2.798967
3301.000000;2.645166
3300.000000;2.578290
3299.000000;2.625129
3298.000000;2.720361
3297.000000;2.728569
3296.000000;2.681873
3295.000000;2.696464
3294.000000;2.759066
3293.000000;2.769902
3292.000000;2.684296
3291.000000;2.557667
3290.000000;2.507874
3289.000000;2.567145
3288.000000;2.795951
3287.000000;3.329462
3286.000000;3.036369
3285.000000;2.779219
3284.000000;2.718485
3283.000000;2.728057
3282.000000;2.838580
3281.000000;2.986548
3280.000000;3.095361
3279.000000;3.358325
3278.000000;3.493110
3277.000000;2.989700
3276.000000;2.818412
3275.000000;2.791731
3274.000000;3.004471
3273.000000;3.449275
3272.000000;3.019684
3271.000000;2.790799
3270.000000;2.858272
3269.000000;3.273686
3268.000000;3.278114
3267.000000;3.053025
3266.000000;3.073978
3265.000000;2.891045
3264.000000;2.840559
3263.000000;3.021182
3262.000000;2.949921
3261.000000;2.687992
3260.000000;2.566561
3259.000000;2.568986
3258.000000;2.690907
3257.000000;2.733483
3256.000000;2.572398
3255.000000;2.487946
3254.000000;2.516214
3253.000000;2.642340
3252.000000;2.915090
3251.000000;3.272500
3250.000000;3.575554
3249.000000;3.847769
3248.000000;3.147486
3247.000000;2.814602
3246.000000;2.744258
3245.000000;2.856516
3244.000000;2.904455
3243.000000;2.913261
3242.000000;3.155313
3241.000000;3.302536
3240.000000;3.098947
3239.000000;2.906264
3238.000000;2.797387
3237.000000;2.767669
3236.000000;2.747488
3235.000000;2.712513
3234.000000;2.709794
3233.000000;2.779530
3232.000000;2.907660
3231.000000;2.977960
3230.000000;2.844186
3229.000000;2.702805
3228.000000;2.659656
3227.000000;2.671500
3226.000000;2.731819
3225.000000;2.833875
3224.000000;3.157575
3223.000000;3.799754
3222.000000;3.063484
3221.000000;2.929771
3220.000000;3.111140
3219.000000;3.138611
3218.000000;2.882096
3217.000000;2.843529
3216.000000;3.014521
3215.000000;3.245403
3214.000000;3.273597
3213.000000;3.355973
3212.000000;3.465610
3211.000000;3.222375
3210.000000;3.017752
3209.000000;2.977516
3208.000000;3.095706
3207.000000;3.182088
3206.000000;2.997578
3205.000000;2.840744
3204.000000;2.816837
3203.000000;2.868980
3202.000000;2.878258
3201.000000;2.861528
3200.000000;2.847231
3199.000000;2.773570
3198.000000;2.714261
3197.000000;2.798322
3196.000000;2.985769
3195.000000;2.857867
3194.000000;2.685177
3193.000000;2.648996
3192.000000;2.674757
3191.000000;2.703988
3190.000000;2.713479
3189.000000;2.753240
3188.000000;2.897139
3187.000000;3.074826
3186.000000;2.985927
3185.000000;2.858290
3184.000000;2.822162
3183.000000;2.842486
3182.000000;2.920428
3181.000000;3.019975
3180.000000;3.251795
3179.000000;3.221267
3178.000000;2.872163
3177.000000;2.747049
3176.000000;2.764592
3175.000000;2.816608
3174.000000;2.868760
3173.000000;2.957163
3172.000000;3.017672
3171.000000;2.947312
3170.000000;2.923681
3169.000000;3.077486
3168.000000;3.445616
3167.000000;3.958098
3166.000000;3.753265
3165.000000;3.047255
3164.000000;2.716198
3163.000000;2.609201
3162.000000;2.685423
3161.000000;3.101095
3160.000000;3.046741
3159.000000;2.722739
3158.000000;2.739734
3157.000000;2.924805
3156.000000;3.267111
3155.000000;3.062404
3154.000000;2.771387
3153.000000;2.636845
3152.000000;2.583055
3151.000000;2.591986
3150.000000;2.645570
3149.000000;2.771780
3148.000000;2.967894
3147.000000;2.979293
3146.000000;2.862469
3145.000000;2.819306
3144.000000;2.836132
3143.000000;2.900103
3142.000000;2.893232
3141.000000;2.754527
3140.000000;2.661094
3139.000000;2.657293
3138.000000;2.699382
3137.000000;2.715186
3136.000000;2.689757
3135.000000;2.690463
3134.000000;2.786409
3133.000000;2.917159
3132.000000;2.886023
3131.000000;2.843752
3130.000000;2.894413
3129.000000;2.932780
3128.000000;2.919939
3127.000000;2.996972
3126.000000;3.270277
3125.000000;3.146542
3124.000000;2.989014
3123.000000;3.203054
3122.000000;3.464739
3121.000000;2.974336
3120.000000;2.902162
3119.000000;2.996557
3118.000000;3.173814
3117.000000;3.586826
3116.000000;3.222931
3115.000000;3.086665
3114.000000;3.175422
3113.000000;3.157131
3112.000000;3.079728
3111.000000;3.124001
3110.000000;3.520897
3109.000000;3.224067
3108.000000;2.817404
3107.000000;2.778751
3106.000000;3.073772
3105.000000;3.422144
3104.000000;3.025423
3103.000000;2.972626
3102.000000;3.330976
3101.000000;3.618755
3100.000000;3.296841
3099.000000;3.150483
3098.000000;2.996841
3097.000000;2.962454
3096.000000;3.227384
3095.000000;3.347673
3094.000000;2.943683
3093.000000;2.748827
3092.000000;2.665652
3091.000000;2.690213
3090.000000;2.817873
3089.000000;3.118167
3088.000000;3.708638
3087.000000;3.468350
3086.000000;3.307246
3085.000000;3.257575
3084.000000;3.126590
3083.000000;2.948359
3082.000000;2.879175
3081.000000;2.901972
3080.000000;2.904945
3079.000000;2.857553
3078.000000;2.842944
3077.000000;2.890971
3076.000000;2.975805
3075.000000;3.255519
3074.000000;3.555710
3073.000000;3.094155
3072.000000;2.944248
3071.000000;3.043476
3070.000000;3.302283
3069.000000;3.103334
3068.000000;2.819367
3067.000000;2.676013
3066.000000;2.675189
3065.000000;2.867036
3064.000000;3.004837
3063.000000;2.803039
3062.000000;2.760047
3061.000000;2.794525
3060.000000;2.811861
3059.000000;2.838338
3058.000000;2.967490
3057.000000;3.426495
3056.000000;3.765813
3055.000000;3.370719
3054.000000;3.435742
3053.000000;3.050044
3052.000000;2.755995
3051.000000;2.658209
3050.000000;2.652355
3049.000000;2.662054
3048.000000;2.667918
3047.000000;2.702586
3046.000000;2.747836
3045.000000;2.733343
3044.000000;2.672081
3043.000000;2.627145
3042.000000;2.625106
3041.000000;2.676673
3040.000000;2.808585
3039.000000;3.023579
3038.000000;3.033090
3037.000000;2.940139
3036.000000;2.984337
3035.000000;3.138254
3034.000000;3.182466
3033.000000;3.011193
3032.000000;2.902476
3031.000000;2.888786
3030.000000;2.961904
3029.000000;3.068605
3028.000000;3.260602
3027.000000;3.238086
3026.000000;2.910935
3025.000000;2.761196
3024.000000;2.764068
3023.000000;2.928491
3022.000000;3.156260
3021.000000;3.015600
3020.000000;2.947817
3019.000000;3.056896
3018.000000;3.086978
3017.000000;3.010647
3016.000000;2.905858
3015.000000;2.801676
3014.000000;2.744084
3013.000000;2.775155
3012.000000;2.919063
3011.000000;3.143240
3010.000000;3.184349
3009.000000;3.118823
3008.000000;3.275397
3007.000000;3.628029
3006.000000;3.615915
3005.000000;3.844336
3004.000000;3.397269
3003.000000;3.155076
3002.000000;3.244088
3001.000000;3.463251
3000.000000;3.418344
2999.000000;3.198661
2998.000000;2.998484
2997.000000;2.908364
2996.000000;2.974686
2995.000000;3.663443
2994.000000;3.207464
2993.000000;2.907772
2992.000000;2.977976
2991.000000;3.214719
2990.000000;3.361625
2989.000000;3.625229
2988.000000;3.174876
2987.000000;2.925618
2986.000000;3.017353
2985.000000;3.451360
2984.000000;3.232240
2983.000000;3.079147
2982.000000;2.904435
2981.000000;2.858772
2980.000000;2.874769
2979.000000;2.761272
2978.000000;2.688552
2977.000000;2.731953
2976.000000;2.852962
2975.000000;3.009290
2974.000000;3.144826
2973.000000;3.365799
2972.000000;3.289792
2971.000000;2.965491
2970.000000;2.853062
2969.000000;2.868468
2968.000000;2.874618
2967.000000;2.791914
2966.000000;2.740966
2965.000000;2.809519
2964.000000;3.041892
2963.000000;3.164008
2962.000000;3.039297
2961.000000;3.037788
2960.000000;3.162118
2959.000000;3.186089
2958.000000;3.216960
2957.000000;3.597090
2956.000000;3.906579
2955.000000;3.515920
2954.000000;3.320346
2953.000000;3.168520
2952.000000;3.203167
2951.000000;3.611818
2950.000000;3.594260
2949.000000;2.969104
2948.000000;2.784549
2947.000000;2.744160
2946.000000;2.823159
2945.000000;3.128008
2944.000000;3.314405
2943.000000;2.925582
2942.000000;2.794311
2941.000000;2.830598
2940.000000;2.894309
2939.000000;2.866192
2938.000000;2.844708
2937.000000;2.947798
2936.000000;3.208297
2935.000000;3.143184
2934.000000;3.094275
2933.000000;3.171808
2932.000000;3.001854
2931.000000;2.877363
2930.000000;2.877832
2929.000000;2.928127
2928.000000;2.954997
2927.000000;2.954646
2926.000000;3.000349
2925.000000;3.087533
2924.000000;3.131676
2923.000000;3.152970
2922.000000;3.112369
2921.000000;3.046372
2920.000000;2.993784
2919.000000;2.945367
2918.000000;2.917565
2917.000000;2.941278
2916.000000;3.039686
2915.000000;3.125087
2914.000000;3.094522
2913.000000;3.051056
2912.000000;2.975216
2911.000000;2.864078
2910.000000;2.849060
2909.000000;3.011712
2908.000000;3.376327
2907.000000;3.104342
2906.000000;3.044265
2905.000000;3.268180
2904.000000;4.365647
2903.000000;3.271412
2902.000000;3.029967
2901.000000;2.929988
2900.000000;2.906267
2899.000000;2.924019
2898.000000;2.962698
2897.000000;3.002528
2896.000000;2.996711
2895.000000;2.864449
2894.000000;2.709734
2893.000000;2.622919
2892.000000;2.633054
2891.000000;2.759027
2890.000000;2.925056
2889.000000;3.034285
2888.000000;3.257924
2887.000000;3.037731
2886.000000;2.822390
2885.000000;2.833393
2884.000000;3.021358
2883.000000;3.231851
2882.000000;3.173753
2881.000000;3.180597
2880.000000;3.341585
2879.000000;3.128428
2878.000000;2.927623
2877.000000;2.989679
2876.000000;3.424850
2875.000000;3.640154
2874.000000;3.397759
2873.000000;3.571482
2872.000000;3.580544
2871.000000;3.484752
2870.000000;3.421177
2869.000000;3.366735
2868.000000;3.203766
2867.000000;3.093745
2866.000000;3.026803
2865.000000;3.085174
2864.000000;3.311889
2863.000000;3.860553
2862.000000;3.283496
2861.000000;2.888334
2860.000000;2.769939
2859.000000;2.735955
2858.000000;2.738555
2857.000000;2.798730
2856.000000;2.960053
2855.000000;3.150931
2854.000000;3.049396
2853.000000;2.925748
2852.000000;2.952247
2851.000000;3.157881
2850.000000;3.356562
2849.000000;3.564648
2848.000000;3.979544
2847.000000;3.372320
2846.000000;3.646329
2845.000000;3.611230
2844.000000;3.179309
2843.000000;3.109571
2842.000000;3.300342
2841.000000;3.466880
2840.000000;3.098798
2839.000000;3.036802
2838.000000;3.146545
2837.000000;3.193001
2836.000000;3.085435
2835.000000;2.993815
2834.000000;3.033044
2833.000000;3.089131
2832.000000;2.949660
2831.000000;2.868889
2830.000000;2.919034
2829.000000;3.070457
2828.000000;3.334158
2827.000000;3.383252
2826.000000;3.185581
2825.000000;3.148350
2824.000000;3.151903
2823.000000;3.084752
2822.000000;3.040726
2821.000000;2.934520
2820.000000;2.849253
2819.000000;2.900401
2818.000000;3.128259
2817.000000;3.614806
2816.000000;3.542690
2815.000000;3.134800
2814.000000;3.090217
2813.000000;3.095985
2812.000000;2.976939
2811.000000;2.894962
2810.000000;2.930328
2809.000000;3.044907
2808.000000;3.155115
2807.000000;3.223185
2806.000000;3.306235
2805.000000;3.670346
2804.000000;3.727916
2803.000000;3.159669
2802.000000;2.876623
2801.000000;2.740181
2800.000000;2.724159
2799.000000;2.830628
2798.000000;3.063780
2797.000000;3.444091
2796.000000;3.829791
2795.000000;3.410236
2794.000000;3.243328
2793.000000;3.355802
2792.000000;3.854075
2791.000000;3.202095
2790.000000;2.937086
2789.000000;2.895898
2788.000000;3.031618
2787.000000;3.334699
2786.000000;3.460861
2785.000000;3.277438
2784.000000;3.121883
2783.000000;3.014227
2782.000000;3.027158
2781.000000;3.268147
2780.000000;3.570092
2779.000000;3.758587
2778.000000;3.903061
2777.000000;4.035001
2776.000000;3.538858
2775.000000;3.231504
2774.000000;3.197451
2773.000000;3.236644
2772.000000;3.124308
2771.000000;2.958947
2770.000000;2.893863
2769.000000;2.962040
2768.000000;3.106079
2767.000000;3.079851
2766.000000;2.998866
2765.000000;3.011703
2764.000000;3.076804
2763.000000;3.147842
2762.000000;3.171539
2761.000000;3.178660
2760.000000;3.344444
2759.000000;3.643127
2758.000000;3.536938
2757.000000;3.389557
2756.000000;3.284234
2755.000000;3.269029
2754.000000;3.430024
2753.000000;3.545727
2752.000000;3.572358
2751.000000;3.270304
2750.000000;3.076084
2749.000000;3.133059
2748.000000;3.154075
2747.000000;2.961237
2746.000000;2.917323
2745.000000;3.063074
2744.000000;3.367438
2743.000000;3.746807
2742.000000;3.573255
2741.000000;3.190360
2740.000000;3.097588
2739.000000;3.145577
2738.000000;3.167244
2737.000000;3.117425
2736.000000;3.152773
2735.000000;3.266096
2734.000000;3.244992
2733.000000;3.287788
2732.000000;3.376302
2731.000000;3.211603
2730.000000;3.243598
2729.000000;3.402902
2728.000000;3.249225
2727.000000;3.012269
2726.000000;2.909732
2725.000000;2.975810
2724.000000;3.346998
2723.000000;3.752559
2722.000000;3.404593
2721.000000;3.506424
2720.000000;3.730121
2719.000000;3.303622
2718.000000;3.283712
2717.000000;3.883390
2716.000000;3.505272
2715.000000;3.431428
2714.000000;3.838363
2713.000000;3.539682
2712.000000;3.334216
2711.000000;3.162876
2710.000000;3.105331
2709.000000;3.436248
2708.000000;3.473541
2707.000000;3.054287
2706.000000;3.242400
2705.000000;3.599587
2704.000000;3.193559
2703.000000;2.981549
2702.000000;2.954172
2701.000000;2.941625
2700.000000;2.900338
2699.000000;2.879577
2698.000000;2.947257
2697.000000;3.040196
2696.000000;3.000897
2695.000000;3.008128
2694.000000;3.381169
2693.000000;3.411849
2692.000000;3.042563
2691.000000;3.013411
2690.000000;3.265167
2689.000000;3.938416
2688.000000;3.183090
2687.000000;3.100019
2686.000000;3.258358
2685.000000;3.595606
2684.000000;3.528826
2683.000000;3.366086
2682.000000;3.245958
2681.000000;3.207400
2680.000000;3.183067
2679.000000;3.098111
2678.000000;3.029411
2677.000000;3.077787
2676.000000;3.489577
2675.000000;3.294644
2674.000000;3.027731
2673.000000;3.305149
2672.000000;3.243691
2671.000000;2.986468
2670.000000;2.984850
2669.000000;3.172223
2668.000000;3.390283
2667.000000;3.275058
2666.000000;3.196677
2665.000000;3.130434
2664.000000;3.090618
2663.000000;3.159836
2662.000000;3.164328
2661.000000;3.026984
2660.000000;2.877917
2659.000000;2.821389
2658.000000;2.892268
2657.000000;3.005123
2656.000000;2.996822
2655.000000;2.923904
2654.000000;2.918088
2653.000000;3.055027
2652.000000;3.511869
2651.000000;3.783472
2650.000000;3.698957
2649.000000;3.535861
2648.000000;3.166868
2647.000000;3.034529
2646.000000;3.006448
2645.000000;3.132550
2644.000000;3.407596
2643.000000;3.975225
2642.000000;3.372427
2641.000000;2.993038
2640.000000;2.876234
2639.000000;2.894165
2638.000000;2.974240
2637.000000;3.094702
2636.000000;3.296197
2635.000000;3.330796
2634.000000;3.331619
2633.000000;3.476080
2632.000000;3.300670
2631.000000;3.074200
2630.000000;2.992236
2629.000000;3.031532
2628.000000;3.203301
2627.000000;3.377099
2626.000000;3.135944
2625.000000;2.942615
2624.000000;2.968074
2623.000000;3.198027
2622.000000;3.605524
2621.000000;3.672350
2620.000000;3.322094
2619.000000;3.088569
2618.000000;3.011392
2617.000000;3.085712
2616.000000;3.327761
2615.000000;4.299546
2614.000000;3.554938
2613.000000;3.220032
2612.000000;3.153132
2611.000000;3.206400
2610.000000;3.182770
2609.000000;2.983913
2608.000000;2.880481
2607.000000;2.922379
2606.000000;3.034134
2605.000000;2.960757
2604.000000;2.814026
2603.000000;2.772319
2602.000000;2.864428
2601.000000;3.122539
2600.000000;3.334159
2599.000000;3.557550
2598.000000;3.732048
2597.000000;3.255882
2596.000000;3.141259
2595.000000;3.214787
2594.000000;3.340477
2593.000000;3.352322
2592.000000;3.431296
2591.000000;3.460991
2590.000000;3.304750
2589.000000;3.180533
2588.000000;3.223486
2587.000000;3.481525
2586.000000;3.136965
2585.000000;2.944876
2584.000000;2.967598
2583.000000;3.060006
2582.000000;2.988795
2581.000000;2.851708
2580.000000;2.819624
2579.000000;2.897111
2578.000000;3.091280
2577.000000;3.375846
2576.000000;3.264116
2575.000000;3.124970
2574.000000;3.023730
2573.000000;2.819268
2572.000000;2.713780
2571.000000;2.737953
2570.000000;2.893366
2569.000000;3.225727
2568.000000;3.878657
2567.000000;3.885677
2566.000000;3.381896
2565.000000;3.276029
2564.000000;3.607015
2563.000000;3.452292
2562.000000;3.289076
2561.000000;3.679583
2560.000000;3.539506
2559.000000;3.318502
2558.000000;3.461559
2557.000000;3.940793
2556.000000;3.525603
2555.000000;3.500135
2554.000000;4.040715
2553.000000;3.462805
2552.000000;3.212565
2551.000000;3.217099
2550.000000;3.344913
2549.000000;3.149631
2548.000000;2.835631
2547.000000;2.668642
2546.000000;2.613441
2545.000000;2.657272
2544.000000;2.774605
2543.000000;2.889874
2542.000000;2.928534
2541.000000;2.966043
2540.000000;3.087265
2539.000000;3.245742
2538.000000;3.250171
2537.000000;3.102726
2536.000000;2.966485
2535.000000;2.890840
2534.000000;2.878998
2533.000000;2.986223
2532.000000;3.198728
2531.000000;3.068280
2530.000000;3.014212
2529.000000;3.231716
2528.000000;3.666368
2527.000000;3.657314
2526.000000;3.292193
2525.000000;3.138211
2524.000000;3.212157
2523.000000;3.415121
2522.000000;3.479141
2521.000000;3.680749
2520.000000;3.222699
2519.000000;2.846415
2518.000000;2.747882
2517.000000;2.784187
2516.000000;2.925819
2515.000000;3.155157
2514.000000;3.605398
2513.000000;3.553064
2512.000000;3.292309
2511.000000;3.277899
2510.000000;3.171263
2509.000000;3.043882
2508.000000;2.987857
2507.000000;3.109177
2506.000000;3.621856
2505.000000;3.582943
2504.000000;3.265472
2503.000000;3.278447
2502.000000;3.685913
2501.000000;3.243902
2500.000000;2.926723
2499.000000;2.870949
2498.000000;2.965437
2497.000000;3.149544
2496.000000;3.181672
2495.000000;3.101106
2494.000000;3.108898
2493.000000;3.369027
2492.000000;3.867968
2491.000000;3.437309
2490.000000;3.487625
2489.000000;3.735609
2488.000000;3.230927
2487.000000;2.987970
2486.000000;2.929069
2485.000000;2.955972
2484.000000;3.038815
2483.000000;3.152815
2482.000000;3.305100
2481.000000;3.436008
2480.000000;3.470204
2479.000000;3.465117
2478.000000;3.464569
2477.000000;3.589331
2476.000000;3.543675
2475.000000;3.276403
2474.000000;3.157860
2473.000000;3.183797
2472.000000;3.247671
2471.000000;3.194261
2470.000000;3.113902
2469.000000;3.087350
2468.000000;3.075841
2467.000000;3.048273
2466.000000;3.054186
2465.000000;3.142004
2464.000000;3.407707
2463.000000;3.602026
2462.000000;3.349104
2461.000000;3.236342
2460.000000;3.395424
2459.000000;3.832251
2458.000000;3.753146
2457.000000;4.000733
2456.000000;3.416656
2455.000000;3.094909
2454.000000;3.104027
2453.000000;3.143912
2452.000000;3.107595
2451.000000;3.137364
2450.000000;3.251512
2449.000000;3.253453
2448.000000;3.177627
2447.000000;3.070411
2446.000000;2.938954
2445.000000;2.874122
2444.000000;2.904950
2443.000000;3.009109
2442.000000;3.091761
2441.000000;3.084613
2440.000000;3.084525
2439.000000;3.185602
2438.000000;3.341982
2437.000000;3.260401
2436.000000;3.100709
2435.000000;3.054708
2434.000000;3.096875
2433.000000;3.183061
2432.000000;3.188252
2431.000000;3.100082
2430.000000;3.046021
2429.000000;3.058028
2428.000000;3.074889
2427.000000;3.003607
2426.000000;2.897887
2425.000000;2.850657
2424.000000;2.897096
2423.000000;3.061006
2422.000000;3.377868
2421.000000;3.603947
2420.000000;3.378579
2419.000000;3.243024
2418.000000;3.442556
2417.000000;3.776044
2416.000000;3.445519
2415.000000;3.433402
2414.000000;3.247943
2413.000000;3.037665
2412.000000;3.036712
2411.000000;3.155505
2410.000000;3.282628
2409.000000;3.293763
2408.000000;3.131089
2407.000000;3.050664
2406.000000;3.054060
2405.000000;2.957570
2404.000000;2.910530
2403.000000;3.101021
2402.000000;3.515654
2401.000000;3.318155
2400.000000;3.268188
2399.000000;3.669175
2398.000000;3.879272
2397.000000;3.417031
2396.000000;3.149319
2395.000000;3.041452
2394.000000;3.011942
2393.000000;2.995095
2392.000000;2.986984
2391.000000;3.000278
2390.000000;2.993305
2389.000000;3.013316
2388.000000;3.153640
2387.000000;3.325328
2386.000000;3.332151
2385.000000;3.216866
2384.000000;3.224665
2383.000000;3.518843
2382.000000;3.194870
2381.000000;2.860793
2380.000000;2.816377
2379.000000;2.896159
2378.000000;3.004071
2377.000000;2.980256
2376.000000;2.860306
2375.000000;2.766839
2374.000000;2.710545
2373.000000;2.683319
2372.000000;2.685177
2371.000000;2.730464
2370.000000;2.799532
2369.000000;2.823807
2368.000000;2.776726
2367.000000;2.712952
2366.000000;2.714336
2365.000000;2.784687
2364.000000;3.083451
2363.000000;3.908450
2362.000000;3.484822
2361.000000;3.228065
2360.000000;3.064554
2359.000000;3.061053
2358.000000;3.147387
2357.000000;3.436335
2356.000000;3.703992
2355.000000;3.592725
2354.000000;3.998916
2353.000000;3.742298
2352.000000;3.326636
2351.000000;3.343518
2350.000000;3.559802
2349.000000;3.679500
2348.000000;3.643448
2347.000000;3.891461
2346.000000;3.999133
2345.000000;3.296476
2344.000000;2.972070
2343.000000;2.853548
2342.000000;2.872813
2341.000000;3.012571
2340.000000;3.289430
2339.000000;3.849854
2338.000000;3.864598
2337.000000;3.552757
2336.000000;3.369018
2335.000000;3.301295
2334.000000;3.203815
2333.000000;3.294484
2332.000000;2.959810
2331.000000;2.754520
2330.000000;2.872990
2329.000000;2.854507
2328.000000;2.880994
2327.000000;2.910293
2326.000000;2.950050
2325.000000;2.902225
2324.000000;2.958358
2323.000000;3.107856
2322.000000;3.160286
2321.000000;3.170515
2320.000000;3.286593
2319.000000;3.444011
2318.000000;3.291084
2317.000000;3.237267
2316.000000;3.431999
2315.000000;3.712986
2314.000000;3.701737
2313.000000;3.353931
2312.000000;3.298523
2311.000000;3.493047
2310.000000;3.286141
2309.000000;3.085546
2308.000000;3.067291
2307.000000;3.064018
2306.000000;3.021082
2305.000000;2.975238
2304.000000;2.949684
2303.000000;2.903542
2302.000000;2.857221
2301.000000;2.858124
2300.000000;2.925154
2299.000000;2.994084
2298.000000;3.002868
2297.000000;2.996827
2296.000000;3.054951
2295.000000;3.200030
2294.000000;3.446062
2293.000000;3.484378
2292.000000;3.219910
2291.000000;3.034774
2290.000000;3.050841
2289.000000;3.209164
2288.000000;3.194088
2287.000000;3.145543
2286.000000;3.262966
2285.000000;3.483668
2284.000000;3.448085
2283.000000;3.217142
2282.000000;3.237298
2281.000000;3.411948
2280.000000;3.307536
2279.000000;3.157085
2278.000000;2.987118
2277.000000;2.847128
2276.000000;2.865010
2275.000000;3.023352
2274.000000;3.193823
2273.000000;3.192184
2272.000000;3.101716
2271.000000;3.141175
2270.000000;3.253617
2269.000000;3.254029
2268.000000;3.242150
2267.000000;3.116514
2266.000000;3.014695
2265.000000;3.074903
2264.000000;3.185337
2263.000000;3.149937
2262.000000;3.017084
2261.000000;2.947334
2260.000000;2.984690
2259.000000;3.126974
2258.000000;3.342930
2257.000000;3.448055
2256.000000;3.271006
2255.000000;3.126137
2254.000000;3.133971
2253.000000;3.449309
2252.000000;3.815122
2251.000000;3.264831
2250.000000;3.044223
2249.000000;2.994530
2248.000000;3.119045
2247.000000;3.433510
2246.000000;3.364770
2245.000000;3.193085
2244.000000;3.180831
2243.000000;3.243407
2242.000000;3.371567
2241.000000;3.394406
2240.000000;3.334329
2239.000000;3.229573
2238.000000;3.111873
2237.000000;3.029532
2236.000000;2.966452
2235.000000;2.988832
2234.000000;3.159068
2233.000000;3.347432
2232.000000;3.273864
2231.000000;3.217669
2230.000000;3.267862
2229.000000;3.461414
2228.000000;3.663509
2227.000000;3.590924
2226.000000;3.641289
2225.000000;3.824410
2224.000000;4.062005
2223.000000;3.666895
2222.000000;3.357728
2221.000000;3.207655
2220.000000;3.094785
2219.000000;3.085548
2218.000000;3.257470
2217.000000;3.621867
2216.000000;3.568876
2215.000000;3.610308
2214.000000;4.007561
2213.000000;3.552493
2212.000000;3.379646
2211.000000;3.576194
2210.000000;3.563031
2209.000000;3.255697
2208.000000;3.160955
2207.000000;3.230224
2206.000000;3.290336
2205.000000;3.468520
2204.000000;3.722301
2203.000000;3.374340
2202.000000;3.215153
2201.000000;3.301911
2200.000000;3.394013
2199.000000;3.276386
2198.000000;3.098693
2197.000000;3.011877
2196.000000;3.022598
2195.000000;3.145111
2194.000000;3.744684
2193.000000;3.932706
2192.000000;3.472383
2191.000000;3.692765
2190.000000;3.311732
2189.000000;3.065580
2188.000000;3.090350
2187.000000;3.171681
2186.000000;3.265729
2185.000000;3.353639
2184.000000;3.228470
2183.000000;3.125940
2182.000000;3.128661
2181.000000;3.093857
2180.000000;3.070865
2179.000000;3.113942
2178.000000;3.244219
2177.000000;3.457103
2176.000000;3.573232
2175.000000;3.418652
2174.000000;3.261708
2173.000000;3.211185
2172.000000;3.425044
2171.000000;3.725343
2170.000000;3.450244
2169.000000;3.344875
2168.000000;3.362332
2167.000000;3.454096
2166.000000;3.320143
2165.000000;3.090891
2164.000000;3.071400
2163.000000;3.273834
2162.000000;3.554822
2161.000000;3.467789
2160.000000;3.455742
2159.000000;3.810420
2158.000000;3.782867
2157.000000;3.263437
2156.000000;3.120675
2155.000000;3.141013
2154.000000;3.159258
2153.000000;3.158325
2152.000000;3.434799
2151.000000;3.964614
2150.000000;3.269362
2149.000000;3.127613
2148.000000;3.220887
2147.000000;3.372358
2146.000000;3.434897
2145.000000;3.295808
2144.000000;3.354030
2143.000000;3.505937
2142.000000;3.296525
2141.000000;3.177808
2140.000000;3.294143
2139.000000;3.402066
2138.000000;3.202656
2137.000000;2.993695
2136.000000;2.933516
2135.000000;3.044125
2134.000000;3.482842
2133.000000;3.723469
2132.000000;3.290716
2131.000000;3.157160
2130.000000;3.208146
2129.000000;3.460016
2128.000000;3.818623
2127.000000;3.748887
2126.000000;3.649838
2125.000000;3.596123
2124.000000;3.304239
2123.000000;3.069500
2122.000000;3.051438
2121.000000;3.107140
2120.000000;3.010727
2119.000000;2.969813
2118.000000;3.016400
2117.000000;3.049731
2116.000000;3.145044
2115.000000;3.336248
2114.000000;3.538187
2113.000000;3.268101
2112.000000;2.993524
2111.000000;2.936746
2110.000000;3.023885
2109.000000;3.180450
2108.000000;3.286562
2107.000000;3.315744
2106.000000;3.414445
2105.000000;3.706259
2104.000000;3.682063
2103.000000;3.506427
2102.000000;3.593255
2101.000000;3.480680
2100.000000;3.267602
2099.000000;3.192832
2098.000000;3.362452
2097.000000;3.828630
2096.000000;3.528982
2095.000000;3.238776
2094.000000;3.105633
2093.000000;3.016341
2092.000000;3.025695
2091.000000;3.213529
2090.000000;3.364250
2089.000000;3.283265
2088.000000;3.469129
2087.000000;3.585313
2086.000000;3.528349
2085.000000;3.436363
2084.000000;3.135053
2083.000000;3.015852
2082.000000;3.123267
2081.000000;3.315652
2080.000000;3.144140
2079.000000;2.973611
2078.000000;2.978392
2077.000000;3.038869
2076.000000;2.975182
2075.000000;2.908250
2074.000000;2.925852
2073.000000;3.145003
2072.000000;3.773648
2071.000000;3.453602
2070.000000;3.368477
2069.000000;3.318799
2068.000000;3.371294
2067.000000;3.841715
2066.000000;3.331047
2065.000000;3.126008
2064.000000;3.260458
2063.000000;3.717131
2062.000000;3.899186
2061.000000;3.627240
2060.000000;3.474237
2059.000000;3.287789
2058.000000;3.302864
2057.000000;3.613613
2056.000000;3.703160
2055.000000;3.261794
2054.000000;3.088149
2053.000000;3.072207
2052.000000;3.190646
2051.000000;3.620056
2050.000000;3.774284
2049.000000;3.310489
2048.000000;3.087162
2047.000000;2.996589
2046.000000;3.082276
2045.000000;3.281263
2044.000000;3.218532
2043.000000;3.289066
2042.000000;3.486014
2041.000000;3.235046
2040.000000;3.256848
2039.000000;3.396336
2038.000000;3.149593
2037.000000;3.030819
2036.000000;3.113894
2035.000000;3.339246
2034.000000;3.462882
2033.000000;3.246475
2032.000000;3.043326
2031.000000;2.967381
2030.000000;3.011380
2029.000000;3.114560
2028.000000;3.166228
2027.000000;3.131307
2026.000000;3.124434
2025.000000;3.174758
2024.000000;3.143981
2023.000000;3.081589
2022.000000;3.081140
2021.000000;3.121442
2020.000000;3.214837
2019.000000;3.361779
2018.000000;3.381660
2017.000000;3.319221
2016.000000;3.395736
2015.000000;3.604264
2014.000000;3.906355
2013.000000;3.642672
2012.000000;3.781945
2011.000000;4.004456
2010.000000;3.325951
2009.000000;3.215085
2008.000000;3.230386
2007.000000;3.392642
2006.000000;3.818563
2005.000000;3.510684
2004.000000;3.307035
2003.000000;3.334541
2002.000000;3.187787
2001.000000;2.976650
2000.000000;2.895328
1999.000000;2.959769
1998.000000;3.162238
1997.000000;3.142797
1996.000000;2.982066
1995.000000;2.986370
1994.000000;3.120383
1993.000000;3.395656
1992.000000;3.433251
1991.000000;3.087887
1990.000000;2.902451
1989.000000;2.846374
1988.000000;2.899629
1987.000000;3.083657
1986.000000;3.410636
1985.000000;3.630482
1984.000000;3.635273
1983.000000;4.011680
1982.000000;3.724005
1981.000000;3.328094
1980.000000;3.234929
1979.000000;3.281636
1978.000000;3.471699
1977.000000;3.449501
1976.000000;3.393526
1975.000000;3.535972
1974.000000;3.433866
1973.000000;3.287186
1972.000000;3.283230
1971.000000;3.368321
1970.000000;3.418971
1969.000000;3.341158
1968.000000;3.293833
1967.000000;3.244485
1966.000000;3.180470
1965.000000;3.144367
1964.000000;3.278118
1963.000000;3.767872
1962.000000;3.635080
1961.000000;3.332770
1960.000000;3.421659
1959.000000;3.779532
1958.000000;3.505744
1957.000000;3.262859
1956.000000;3.247594
1955.000000;3.293789
1954.000000;3.527535
1953.000000;3.509521
1952.000000;3.192807
1951.000000;3.100132
1950.000000;3.112387
1949.000000;3.173435
1948.000000;3.252236
1947.000000;3.265009
1946.000000;3.319294
1945.000000;3.288395
1944.000000;3.320410
1943.000000;3.593174
1942.000000;3.429179
1941.000000;3.305947
1940.000000;3.575552
1939.000000;3.939766
1938.000000;3.527684
1937.000000;3.550838
1936.000000;3.780575
1935.000000;3.389090
1934.000000;3.165443
1933.000000;3.110181
1932.000000;3.187127
1931.000000;3.503300
1930.000000;3.658102
1929.000000;3.367001
1928.000000;3.728141
1927.000000;3.731516
1926.000000;3.161792
1925.000000;3.091923
1924.000000;3.183382
1923.000000;3.352341
1922.000000;3.438358
1921.000000;3.381848
1920.000000;3.395645
1919.000000;3.563253
1918.000000;3.238044
1917.000000;2.972752
1916.000000;2.949638
1915.000000;3.144478
1914.000000;3.627790
1913.000000;3.406665
1912.000000;3.233028
1911.000000;3.230882
1910.000000;3.250043
1909.000000;3.379819
1908.000000;3.505823
1907.000000;3.605246
1906.000000;3.657855
1905.000000;3.542473
1904.000000;3.370386
1903.000000;3.258353
1902.000000;3.301793
1901.000000;3.538708
1900.000000;3.996755
1899.000000;3.796517
1898.000000;3.336671
1897.000000;3.213056
1896.000000;3.433376
1895.000000;3.703749
1894.000000;3.351134
1893.000000;3.262586
1892.000000;3.341650
1891.000000;3.308361
1890.000000;3.191586
1889.000000;3.041984
1888.000000;2.952442
1887.000000;2.943064
1886.000000;2.985114
1885.000000;3.080396
1884.000000;3.179903
1883.000000;3.186997
1882.000000;3.172192
1881.000000;3.105649
1880.000000;3.012529
1879.000000;3.014520
1878.000000;3.060395
1877.000000;3.054184
1876.000000;3.049032
1875.000000;3.121709
1874.000000;3.278025
1873.000000;3.331961
1872.000000;3.278679
1871.000000;3.272217
1870.000000;3.215136
1869.000000;3.162572
1868.000000;3.194137
1867.000000;3.285096
1866.000000;3.353605
1865.000000;3.310132
1864.000000;3.201557
1863.000000;3.100637
1862.000000;3.073573
1861.000000;3.160910
1860.000000;3.324273
1859.000000;3.395104
1858.000000;3.262932
1857.000000;3.103839
1856.000000;3.046852
1855.000000;3.089748
1854.000000;3.150342
1853.000000;3.103233
1852.000000;2.972697
1851.000000;2.891877
1850.000000;2.911043
1849.000000;3.023784
1848.000000;3.166329
1847.000000;3.194534
1846.000000;3.102721
1845.000000;3.019002
1844.000000;3.001165
1843.000000;3.032679
1842.000000;3.041849
1841.000000;3.020012
1840.000000;3.039948
1839.000000;3.208821
1838.000000;3.771448
1837.000000;4.698450
1836.000000;3.567385
1835.000000;3.180409
1834.000000;3.102199
1833.000000;3.268345
1832.000000;3.535869
1831.000000;3.804243
1830.000000;3.804354
1829.000000;3.568151
1828.000000;3.438584
1827.000000;3.269178
1826.000000;3.191118
1825.000000;3.306177
1824.000000;3.759082
1823.000000;4.377284
1822.000000;3.544094
1821.000000;3.190650
1820.000000;3.064153
1819.000000;3.120076
1818.000000;3.193863
1817.000000;3.116992
1816.000000;3.030695
1815.000000;3.007396
1814.000000;3.030574
1813.000000;3.071295
1812.000000;3.121062
1811.000000;3.223290
1810.000000;3.386207
1809.000000;3.365868
1808.000000;3.255287
1807.000000;3.315481
1806.000000;3.400684
1805.000000;3.291754
1804.000000;3.402579
1803.000000;3.447289
1802.000000;3.166547
1801.000000;3.094365
1800.000000;3.163178
1799.000000;3.314289
1798.000000;3.517240
1797.000000;3.547736
1796.000000;3.338364
1795.000000;3.179969
1794.000000;3.118718
1793.000000;3.215760
1792.000000;3.394905
1791.000000;3.275926
1790.000000;3.209418
1789.000000;3.302933
1788.000000;3.249920
1787.000000;3.182222
1786.000000;3.281542
1785.000000;3.289082
1784.000000;3.238930
1783.000000;3.286604
1782.000000;3.368830
1781.000000;3.479345
1780.000000;3.580915
1779.000000;3.460776
1778.000000;3.283927
1777.000000;3.187432
1776.000000;3.174006
1775.000000;3.242828
1774.000000;3.534165
1773.000000;3.647723
1772.000000;3.217177
1771.000000;3.151081
1770.000000;3.239295
1769.000000;3.390332
1768.000000;3.487384
1767.000000;3.415080
1766.000000;3.437512
1765.000000;3.592277
1764.000000;3.713572
1763.000000;3.546685
1762.000000;3.337300
1761.000000;3.241088
1760.000000;3.199893
1759.000000;3.165615
1758.000000;3.175063
1757.000000;3.186860
1756.000000;3.154923
1755.000000;3.157388
1754.000000;3.148181
1753.000000;3.093773
1752.000000;3.106771
1751.000000;3.303431
1750.000000;3.708171
1749.000000;4.056425
1748.000000;3.875244
1747.000000;3.493544
1746.000000;3.332753
1745.000000;3.303373
1744.000000;3.327404
1743.000000;3.486532
1742.000000;3.786647
1741.000000;3.835570
1740.000000;3.691996
1739.000000;3.358163
1738.000000;3.193982
1737.000000;3.184729
1736.000000;3.186055
1735.000000;3.105688
1734.000000;3.043045
1733.000000;3.077263
1732.000000;3.101274
1731.000000;3.064858
1730.000000;3.074019
1729.000000;3.182652
1728.000000;3.387929
1727.000000;3.395144
1726.000000;3.151483
1725.000000;3.001647
1724.000000;2.984341
1723.000000;3.030766
1722.000000;3.077285
1721.000000;3.156287
1720.000000;3.271764
1719.000000;3.352384
1718.000000;3.358343
1717.000000;3.296884
1716.000000;3.247247
1715.000000;3.240638
1714.000000;3.275880
1713.000000;3.334940
1712.000000;3.349832
1711.000000;3.290858
1710.000000;3.248796
1709.000000;3.326896
1708.000000;3.481641
1707.000000;3.424790
1706.000000;3.353069
1705.000000;3.423122
1704.000000;3.450737
1703.000000;3.385343
1702.000000;3.389055
1701.000000;3.473063
1700.000000;3.344980
1699.000000;3.336094
1698.000000;3.419397
1697.000000;3.505635
1696.000000;3.929599
1695.000000;3.383891
1694.000000;3.313771
1693.000000;3.625243
1692.000000;3.736191
1691.000000;3.743967
1690.000000;3.362679
1689.000000;3.033256
1688.000000;2.925854
1687.000000;2.930007
1686.000000;3.012283
1685.000000;3.202291
1684.000000;3.247269
1683.000000;3.165037
1682.000000;3.185449
1681.000000;3.262069
1680.000000;3.365602
1679.000000;3.462043
1678.000000;3.534628
1677.000000;3.596294
1676.000000;3.729883
1675.000000;4.023426
1674.000000;3.735734
1673.000000;3.440064
1672.000000;3.353440
1671.000000;3.379518
1670.000000;3.426599
1669.000000;3.581519
1668.000000;4.083894
1667.000000;3.927746
1666.000000;3.991820
1665.000000;3.885165
1664.000000;3.376130
1663.000000;3.292817
1662.000000;3.381204
1661.000000;3.556073
1660.000000;3.688714
1659.000000;4.105468
1658.000000;4.036718
1657.000000;3.363489
1656.000000;3.188105
1655.000000;2.994098
1654.000000;2.785341
1653.000000;2.750802
1652.000000;2.962925
1651.000000;3.239379
1650.000000;3.262593
1649.000000;3.237845
1648.000000;3.251109
1647.000000;3.269161
1646.000000;3.304238
1645.000000;3.419437
1644.000000;3.742787
1643.000000;4.167770
1642.000000;4.169411
1641.000000;4.026174
1640.000000;3.388196
1639.000000;3.144765
1638.000000;3.103542
1637.000000;3.261043
1636.000000;3.600313
1635.000000;3.473133
1634.000000;3.390625
1633.000000;3.438261
1632.000000;3.470100
1631.000000;3.730416
1630.000000;3.967473
1629.000000;3.458128
1628.000000;3.286221
1627.000000;3.284399
1626.000000;3.400319
1625.000000;3.888383
1624.000000;3.846127
1623.000000;3.475082
1622.000000;3.450199
1621.000000;3.300810
1620.000000;3.141011
1619.000000;3.118845
1618.000000;3.200831
1617.000000;3.232689
1616.000000;3.309754
1615.000000;3.389361
1614.000000;3.299920
1613.000000;3.230064
1612.000000;3.218678
1611.000000;3.257684
1610.000000;3.301811
1609.000000;3.227420
1608.000000;3.090540
1607.000000;3.040880
1606.000000;3.117543
1605.000000;3.277231
1604.000000;3.389725
1603.000000;3.398997
1602.000000;3.420585
1601.000000;3.618602
1600.000000;3.635217
1599.000000;3.399404
1598.000000;3.231937
1597.000000;3.093976
1596.000000;3.061783
1595.000000;3.094286
1594.000000;3.071320
1593.000000;3.087440
1592.000000;3.321504
1591.000000;3.942943
1590.000000;3.389672
1589.000000;3.225295
1588.000000;3.119611
1587.000000;3.022663
1586.000000;2.992430
1585.000000;3.033479
1584.000000;3.134260
1583.000000;3.174672
1582.000000;3.045046
1581.000000;2.886698
1580.000000;2.807847
1579.000000;2.830745
1578.000000;2.918707
1577.000000;3.015479
1576.000000;3.048611
1575.000000;2.994041
1574.000000;3.002708
1573.000000;3.060844
1572.000000;3.087951
1571.000000;3.158877
1570.000000;3.404981
1569.000000;3.870277
1568.000000;4.601259
1567.000000;4.015036
1566.000000;3.573582
1565.000000;3.506679
1564.000000;3.773994
1563.000000;3.912450
1562.000000;3.994292
1561.000000;3.264829
1560.000000;2.959993
1559.000000;3.074413
1558.000000;3.556459
1557.000000;3.678521
1556.000000;3.277574
1555.000000;3.053148
1554.000000;2.952624
1553.000000;2.980343
1552.000000;3.080441
1551.000000;3.157526
1550.000000;3.197736
1549.000000;3.169424
1548.000000;3.129451
1547.000000;3.191359
1546.000000;3.342661
1545.000000;3.450970
1544.000000;3.467326
1543.000000;3.482668
1542.000000;3.493704
1541.000000;3.443427
1540.000000;3.399827
1539.000000;3.415592
1538.000000;3.400469
1537.000000;3.335128
1536.000000;3.325528
1535.000000;3.343674
1534.000000;3.341106
1533.000000;3.389271
1532.000000;3.531519
1531.000000;3.627955
1530.000000;3.445194
1529.000000;3.202234
1528.000000;3.057308
1527.000000;3.038917
1526.000000;3.126965
1525.000000;3.291333
1524.000000;3.464311
1523.000000;3.490349
1522.000000;3.371593
1521.000000;3.288152
1520.000000;3.287063
1519.000000;3.353677
1518.000000;3.516832
1517.000000;3.744442
1516.000000;3.905975
1515.000000;3.798081
1514.000000;3.567627
1513.000000;3.456570
1512.000000;3.456095
1511.000000;3.471800
1510.000000;3.506538
1509.000000;3.567343
1508.000000;3.598206
1507.000000;3.609739
1506.000000;3.674174
1505.000000;3.704396
1504.000000;3.478881
1503.000000;3.198470
1502.000000;3.069149
1501.000000;3.106730
1500.000000;3.328013
1499.000000;3.850120
1498.000000;4.004193
1497.000000;3.413781
1496.000000;3.237841
1495.000000;3.235299
1494.000000;3.287766
1493.000000;3.226114
1492.000000;3.214887
1491.000000;3.324542
1490.000000;3.820686
1489.000000;3.883401
1488.000000;3.807898
1487.000000;3.983714
1486.000000;3.555585
1485.000000;3.454521
1484.000000;3.883368
1483.000000;3.871501
1482.000000;3.369009
1481.000000;3.137397
1480.000000;3.074303
1479.000000;3.110712
1478.000000;3.171742
1477.000000;3.196219
1476.000000;3.182767
1475.000000;3.153600
1474.000000;3.120607
1473.000000;3.097949
1472.000000;3.102317
1471.000000;3.119868
1470.000000;3.137987
1469.000000;3.194528
1468.000000;3.336960
1467.000000;3.438881
1466.000000;3.337513
1465.000000;3.171645
1464.000000;3.033309
1463.000000;2.953998
1462.000000;2.925442
1461.000000;2.948123
1460.000000;3.016384
1459.000000;3.122591
1458.000000;3.242768
1457.000000;3.286091
1456.000000;3.188317
1455.000000;3.079258
1454.000000;3.114353
1453.000000;3.368570
1452.000000;3.206731
1451.000000;3.037913
1450.000000;3.121019
1449.000000;3.391377
1448.000000;3.226681
1447.000000;3.019090
1446.000000;2.967546
1445.000000;3.018981
1444.000000;3.115791
1443.000000;3.118166
1442.000000;3.078500
1441.000000;3.062052
1440.000000;3.010816
1439.000000;2.965403
1438.000000;3.016575
1437.000000;3.233888
1436.000000;3.473173
1435.000000;3.379694
1434.000000;3.259079
1433.000000;3.334770
1432.000000;3.432687
1431.000000;3.294890
1430.000000;3.458438
1429.000000;3.522192
1428.000000;3.250381
1427.000000;3.279176
1426.000000;3.852735
1425.000000;3.249386
1424.000000;3.097973
1423.000000;3.163631
1422.000000;3.346422
1421.000000;3.437029
1420.000000;3.200309
1419.000000;3.115042
1418.000000;3.261332
1417.000000;3.773163
1416.000000;4.002896
1415.000000;3.436005
1414.000000;3.283175
1413.000000;3.139396
1412.000000;3.095288
1411.000000;3.080948
1410.000000;3.074007
1409.000000;3.091986
1408.000000;3.147440
1407.000000;3.153969
1406.000000;3.123496
1405.000000;3.126150
1404.000000;3.154359
1403.000000;3.231013
1402.000000;3.435353
1401.000000;3.521997
1400.000000;3.341787
1399.000000;3.289803
1398.000000;3.271702
1397.000000;3.211044
1396.000000;3.183064
1395.000000;3.264199
1394.000000;3.616456
1393.000000;4.049310
1392.000000;3.326998
1391.000000;3.151030
1390.000000;3.081787
1389.000000;3.105507
1388.000000;3.152470
1387.000000;3.245017
1386.000000;3.592799
1385.000000;3.853522
1384.000000;3.497954
1383.000000;3.536503
1382.000000;3.514951
1381.000000;3.248933
1380.000000;3.092020
1379.000000;3.041858
1378.000000;3.109346
1377.000000;3.390773
1376.000000;4.401158
1375.000000;3.939301
1374.000000;3.315351
1373.000000;2.997140
1372.000000;2.870656
1371.000000;2.861888
1370.000000;2.912875
1369.000000;2.932471
1368.000000;2.881599
1367.000000;2.870808
1366.000000;2.970958
1365.000000;3.144800
1364.000000;3.245661
1363.000000;3.259540
1362.000000;3.347755
1361.000000;3.538698
1360.000000;3.526130
1359.000000;3.293435
1358.000000;3.090025
1357.000000;2.953346
1356.000000;2.902104
1355.000000;2.889997
1354.000000;2.842628
1353.000000;2.768849
1352.000000;2.737369
1351.000000;2.776493
1350.000000;2.874061
1349.000000;2.981189
1348.000000;3.032017
1347.000000;3.010323
1346.000000;2.968646
1345.000000;2.959183
1344.000000;3.037163
1343.000000;3.349793
1342.000000;3.946750
1341.000000;3.237991
1340.000000;3.192745
1339.000000;3.280117
1338.000000;3.347174
1337.000000;3.255181
1336.000000;3.185681
1335.000000;3.127536
1334.000000;3.097385
1333.000000;3.123007
1332.000000;3.156976
1331.000000;3.384469
1330.000000;3.498459
1329.000000;3.050141
1328.000000;2.876990
1327.000000;2.916713
1326.000000;3.073317
1325.000000;3.287192
1324.000000;3.581763
1323.000000;3.167467
1322.000000;3.005823
1321.000000;3.115919
1320.000000;3.573809
1319.000000;3.483898
1318.000000;3.565406
1317.000000;3.672255
1316.000000;3.164412
1315.000000;3.038504
1314.000000;2.979995
1313.000000;2.889725
1312.000000;2.815904
1311.000000;2.812818
1310.000000;2.900552
1309.000000;3.288855
1308.000000;3.498509
1307.000000;3.067369
1306.000000;3.048054
1305.000000;3.053395
1304.000000;3.116261
1303.000000;3.164855
1302.000000;3.117888
1301.000000;3.031340
1300.000000;3.030824
1299.000000;3.054596
1298.000000;2.982813
1297.000000;2.971351
1296.000000;3.135736
1295.000000;3.488532
1294.000000;3.643550
1293.000000;3.185691
1292.000000;2.943148
1291.000000;2.907848
1290.000000;3.014921
1289.000000;3.176764
1288.000000;3.363937
1287.000000;3.227877
1286.000000;2.953780
1285.000000;2.866200
1284.000000;2.921751
1283.000000;3.081690
1282.000000;3.188739
1281.000000;3.071608
1280.000000;2.898756
1279.000000;2.833668
1278.000000;2.887085
1277.000000;2.998341
1276.000000;3.038362
1275.000000;3.005203
1274.000000;3.034105
1273.000000;3.156635
1272.000000;3.232907
1271.000000;3.213829
1270.000000;3.132663
1269.000000;3.035489
1268.000000;2.992118
1267.000000;2.983282
1266.000000;2.976715
1265.000000;2.945604
1264.000000;2.846814
1263.000000;2.772127
1262.000000;2.806538
1261.000000;3.015985
1260.000000;3.546028
1259.000000;3.612442
1258.000000;3.345219
1257.000000;3.083883
1256.000000;2.851562
1255.000000;2.777238
1254.000000;2.811676
1253.000000;2.895132
1252.000000;2.944265
1251.000000;2.939499
1250.000000;2.932542
1249.000000;2.998194
1248.000000;3.150902
1247.000000;3.214596
1246.000000;2.990081
1245.000000;2.762899
1244.000000;2.675210
1243.000000;2.712651
1242.000000;2.807221
1241.000000;2.895480
1240.000000;2.994839
1239.000000;3.037844
1238.000000;2.972793
1237.000000;2.865691
1236.000000;2.746458
1235.000000;2.668924
1234.000000;2.683221
1233.000000;2.813833
1232.000000;3.155460
1231.000000;3.654301
1230.000000;3.227220
1229.000000;3.068058
1228.000000;3.030617
1227.000000;3.135442
1226.000000;3.433407
1225.000000;3.610344
1224.000000;3.338031
1223.000000;3.122033
1222.000000;3.017319
1221.000000;3.031515
1220.000000;3.134484
1219.000000;3.255751
1218.000000;3.244755
1217.000000;3.251340
1216.000000;3.539833
1215.000000;3.200281
1214.000000;2.925384
1213.000000;2.861910
1212.000000;2.907601
1211.000000;2.994930
1210.000000;3.084876
1209.000000;3.198824
1208.000000;3.244088
1207.000000;3.202384
1206.000000;3.066195
1205.000000;2.922439
1204.000000;2.923221
1203.000000;3.187756
1202.000000;3.271409
1201.000000;2.937699
1200.000000;2.895992
