Criado como novo conjunto de dados;"0307_DANIEL.spp","78666.1 Secs"
cm-1;Abs
10000.000000;0.524379
9999.000000;0.523246
9998.000000;0.522105
9997.000000;0.520987
9996.000000;0.519810
9995.000000;0.518805
9994.000000;0.518317
9993.000000;0.518260
9992.000000;0.518207
9991.000000;0.517727
9990.000000;0.516821
9989.000000;0.515852
9988.000000;0.515115
9987.000000;0.514570
9986.000000;0.514013
9985.000000;0.513344
9984.000000;0.512595
9983.000000;0.511813
9982.000000;0.511008
9981.000000;0.510161
9980.000000;0.509222
9979.000000;0.508152
9978.000000;0.507045
9977.000000;0.506130
9976.000000;0.505530
9975.000000;0.505091
9974.000000;0.504540
9973.000000;0.503784
9972.000000;0.502931
9971.000000;0.502073
9970.000000;0.501169
9969.000000;0.500173
9968.000000;0.499122
9967.000000;0.498081
9966.000000;0.497103
9965.000000;0.496259
9964.000000;0.495596
9963.000000;0.495027
9962.000000;0.494388
9961.000000;0.493638
9960.000000;0.492863
9959.000000;0.492048
9958.000000;0.491018
9957.000000;0.489697
9956.000000;0.488310
9955.000000;0.487168
9954.000000;0.486368
9953.000000;0.485822
9952.000000;0.485458
9951.000000;0.485218
9950.000000;0.484908
9949.000000;0.484286
9948.000000;0.483313
9947.000000;0.482160
9946.000000;0.480962
9945.000000;0.479737
9944.000000;0.478543
9943.000000;0.477547
9942.000000;0.476818
9941.000000;0.476210
9940.000000;0.475555
9939.000000;0.474866
9938.000000;0.474213
9937.000000;0.473502
9936.000000;0.472554
9935.000000;0.471373
9934.000000;0.470190
9933.000000;0.469189
9932.000000;0.468298
9931.000000;0.467334
9930.000000;0.466293
9929.000000;0.465400
9928.000000;0.464844
9927.000000;0.464540
9926.000000;0.464202
9925.000000;0.463635
9924.000000;0.462888
9923.000000;0.462098
9922.000000;0.461301
9921.000000;0.460454
9920.000000;0.459565
9919.000000;0.458677
9918.000000;0.457744
9917.000000;0.456638
9916.000000;0.455337
9915.000000;0.454002
9914.000000;0.452852
9913.000000;0.451963
9912.000000;0.451210
9911.000000;0.450343
9910.000000;0.449178
9909.000000;0.447792
9908.000000;0.446515
9907.000000;0.445613
9906.000000;0.444987
9905.000000;0.444305
9904.000000;0.443439
9903.000000;0.442586
9902.000000;0.441908
9901.000000;0.441244
9900.000000;0.440332
9899.000000;0.439184
9898.000000;0.438069
9897.000000;0.437171
9896.000000;0.436419
9895.000000;0.435642
9894.000000;0.434777
9893.000000;0.433898
9892.000000;0.433135
9891.000000;0.432550
9890.000000;0.432030
9889.000000;0.431338
9888.000000;0.430344
9887.000000;0.429164
9886.000000;0.427986
9885.000000;0.426815
9884.000000;0.425511
9883.000000;0.424044
9882.000000;0.422579
9881.000000;0.421306
9880.000000;0.420288
9879.000000;0.419477
9878.000000;0.418755
9877.000000;0.417957
9876.000000;0.416978
9875.000000;0.415913
9874.000000;0.414963
9873.000000;0.414180
9872.000000;0.413394
9871.000000;0.412433
9870.000000;0.411307
9869.000000;0.410127
9868.000000;0.408969
9867.000000;0.407886
9866.000000;0.406947
9865.000000;0.406156
9864.000000;0.405380
9863.000000;0.404450
9862.000000;0.403308
9861.000000;0.402016
9860.000000;0.400694
9859.000000;0.399482
9858.000000;0.398479
9857.000000;0.397618
9856.000000;0.396686
9855.000000;0.395577
9854.000000;0.394448
9853.000000;0.393524
9852.000000;0.392788
9851.000000;0.391997
9850.000000;0.390980
9849.000000;0.389783
9848.000000;0.388525
9847.000000;0.387265
9846.000000;0.386030
9845.000000;0.384883
9844.000000;0.383864
9843.000000;0.382914
9842.000000;0.381917
9841.000000;0.380804
9840.000000;0.379618
9839.000000;0.378499
9838.000000;0.377573
9837.000000;0.376805
9836.000000;0.375999
9835.000000;0.374993
9834.000000;0.373840
9833.000000;0.372702
9832.000000;0.371613
9831.000000;0.370487
9830.000000;0.369321
9829.000000;0.368237
9828.000000;0.367244
9827.000000;0.366117
9826.000000;0.364644
9825.000000;0.362935
9824.000000;0.361346
9823.000000;0.360150
9822.000000;0.359331
9821.000000;0.358663
9820.000000;0.357898
9819.000000;0.356889
9818.000000;0.355648
9817.000000;0.354303
9816.000000;0.352977
9815.000000;0.351724
9814.000000;0.350552
9813.000000;0.349452
9812.000000;0.348358
9811.000000;0.347164
9810.000000;0.345865
9809.000000;0.344624
9808.000000;0.343582
9807.000000;0.342654
9806.000000;0.341628
9805.000000;0.340422
9804.000000;0.339126
9803.000000;0.337786
9802.000000;0.336311
9801.000000;0.334670
9800.000000;0.333072
9799.000000;0.331824
9798.000000;0.331026
9797.000000;0.330465
9796.000000;0.329805
9795.000000;0.328834
9794.000000;0.327526
9793.000000;0.325945
9792.000000;0.324179
9791.000000;0.322385
9790.000000;0.320840
9789.000000;0.319759
9788.000000;0.319028
9787.000000;0.318208
9786.000000;0.316950
9785.000000;0.315395
9784.000000;0.314016
9783.000000;0.313072
9782.000000;0.312323
9781.000000;0.311332
9780.000000;0.309929
9779.000000;0.308298
9778.000000;0.306673
9777.000000;0.305096
9776.000000;0.303506
9775.000000;0.301969
9774.000000;0.300694
9773.000000;0.299790
9772.000000;0.299075
9771.000000;0.298210
9770.000000;0.297031
9769.000000;0.295667
9768.000000;0.294324
9767.000000;0.293037
9766.000000;0.291692
9765.000000;0.290193
9764.000000;0.288539
9763.000000;0.286814
9762.000000;0.285188
9761.000000;0.283823
9760.000000;0.282677
9759.000000;0.281488
9758.000000;0.280108
9757.000000;0.278747
9756.000000;0.277704
9755.000000;0.276903
9754.000000;0.275931
9753.000000;0.274563
9752.000000;0.273009
9751.000000;0.271580
9750.000000;0.270303
9749.000000;0.268998
9748.000000;0.267565
9747.000000;0.266069
9746.000000;0.264610
9745.000000;0.263217
9744.000000;0.261813
9743.000000;0.260253
9742.000000;0.258484
9741.000000;0.256681
9740.000000;0.255093
9739.000000;0.253734
9738.000000;0.252403
9737.000000;0.251044
9736.000000;0.249833
9735.000000;0.248817
9734.000000;0.247695
9733.000000;0.246159
9732.000000;0.244291
9731.000000;0.242415
9730.000000;0.240714
9729.000000;0.239213
9728.000000;0.237970
9727.000000;0.237010
9726.000000;0.236119
9725.000000;0.235010
9724.000000;0.233683
9723.000000;0.232356
9722.000000;0.231053
9721.000000;0.229529
9720.000000;0.227685
9719.000000;0.225788
9718.000000;0.224177
9717.000000;0.222899
9716.000000;0.221758
9715.000000;0.220522
9714.000000;0.219002
9713.000000;0.217106
9712.000000;0.214994
9711.000000;0.213065
9710.000000;0.211596
9709.000000;0.210437
9708.000000;0.209182
9707.000000;0.207624
9706.000000;0.205947
9705.000000;0.204456
9704.000000;0.203257
9703.000000;0.202185
9702.000000;0.200982
9701.000000;0.199485
9700.000000;0.197702
9699.000000;0.195772
9698.000000;0.193875
9697.000000;0.192159
9696.000000;0.190702
9695.000000;0.189483
9694.000000;0.188376
9693.000000;0.187199
9692.000000;0.185773
9691.000000;0.183982
9690.000000;0.181842
9689.000000;0.179543
9688.000000;0.177375
9687.000000;0.175512
9686.000000;0.173898
9685.000000;0.172356
9684.000000;0.170786
9683.000000;0.169199
9682.000000;0.167631
9681.000000;0.166127
9680.000000;0.164760
9679.000000;0.163552
9678.000000;0.162345
9677.000000;0.160868
9676.000000;0.158985
9675.000000;0.156852
9674.000000;0.154810
9673.000000;0.153130
9672.000000;0.151837
9671.000000;0.150696
9670.000000;0.149357
9669.000000;0.147586
9668.000000;0.145405
9667.000000;0.143040
9666.000000;0.140797
9665.000000;0.138936
9664.000000;0.137535
9663.000000;0.136349
9662.000000;0.134925
9661.000000;0.132999
9660.000000;0.130765
9659.000000;0.128641
9658.000000;0.126825
9657.000000;0.125198
9656.000000;0.123601
9655.000000;0.122021
9654.000000;0.120509
9653.000000;0.119072
9652.000000;0.117681
9651.000000;0.116259
9650.000000;0.114645
9649.000000;0.112702
9648.000000;0.110517
9647.000000;0.108353
9646.000000;0.106363
9645.000000;0.104479
9644.000000;0.102630
9643.000000;0.100886
9642.000000;0.099310
9641.000000;0.097786
9640.000000;0.096128
9639.000000;0.094267
9638.000000;0.092263
9637.000000;0.090198
9636.000000;0.088188
9635.000000;0.086393
9634.000000;0.084877
9633.000000;0.083458
9632.000000;0.081830
9631.000000;0.079871
9630.000000;0.077782
9629.000000;0.075902
9628.000000;0.074397
9627.000000;0.073097
9626.000000;0.071634
9625.000000;0.069775
9624.000000;0.067626
9623.000000;0.065453
9622.000000;0.063333
9621.000000;0.061097
9620.000000;0.058661
9619.000000;0.056254
9618.000000;0.054195
9617.000000;0.052521
9616.000000;0.050980
9615.000000;0.049363
9614.000000;0.047678
9613.000000;0.046002
9612.000000;0.044269
9611.000000;0.042335
9610.000000;0.040204
9609.000000;0.038087
9608.000000;0.036183
9607.000000;0.034424
9606.000000;0.032505
9605.000000;0.030196
9604.000000;0.027595
9603.000000;0.025028
9602.000000;0.022751
9601.000000;0.020817
9600.000000;0.019175
9599.000000;0.017748
9598.000000;0.016364
9597.000000;0.014771
9596.000000;0.012843
9595.000000;0.010718
9594.000000;0.008643
9593.000000;0.006724
9592.000000;0.004905
9591.000000;0.003135
9590.000000;0.001421
9589.000000;-0.000277
9588.000000;-0.002102
9587.000000;-0.004153
9586.000000;-0.006344
9585.000000;-0.008454
9584.000000;-0.010347
9583.000000;-0.012094
9582.000000;-0.013887
9581.000000;-0.015821
9580.000000;-0.017797
9579.000000;-0.019661
9578.000000;-0.021405
9577.000000;-0.023215
9576.000000;-0.025295
9575.000000;-0.027668
9574.000000;-0.030162
9573.000000;-0.032555
9572.000000;-0.034731
9571.000000;-0.036742
9570.000000;-0.038769
9569.000000;-0.040986
9568.000000;-0.043408
9567.000000;-0.045823
9566.000000;-0.047923
9565.000000;-0.049568
9564.000000;-0.050944
9563.000000;-0.052428
9562.000000;-0.054247
9561.000000;-0.056259
9560.000000;-0.058136
9559.000000;-0.059753
9558.000000;-0.061323
9557.000000;-0.063134
9556.000000;-0.065246
9555.000000;-0.067480
9554.000000;-0.069633
9553.000000;-0.071613
9552.000000;-0.073443
9551.000000;-0.075244
9550.000000;-0.077181
9549.000000;-0.079335
9548.000000;-0.081618
9547.000000;-0.083871
9546.000000;-0.086008
9545.000000;-0.087988
9544.000000;-0.089728
9543.000000;-0.091195
9542.000000;-0.092561
9541.000000;-0.094108
9540.000000;-0.095920
9539.000000;-0.097820
9538.000000;-0.099650
9537.000000;-0.101501
9536.000000;-0.103580
9535.000000;-0.105926
9534.000000;-0.108340
9533.000000;-0.110556
9532.000000;-0.112440
9531.000000;-0.114072
9530.000000;-0.115663
9529.000000;-0.117353
9528.000000;-0.119061
9527.000000;-0.120591
9526.000000;-0.121908
9525.000000;-0.123222
9524.000000;-0.124756
9523.000000;-0.126499
9522.000000;-0.128255
9521.000000;-0.129879
9520.000000;-0.131409
9519.000000;-0.133002
9518.000000;-0.134771
9517.000000;-0.136642
9516.000000;-0.138363
9515.000000;-0.139723
9514.000000;-0.140818
9513.000000;-0.142005
9512.000000;-0.143538
9511.000000;-0.145316
9510.000000;-0.147049
9509.000000;-0.148621
9508.000000;-0.150161
9507.000000;-0.151812
9506.000000;-0.153538
9505.000000;-0.155175
9504.000000;-0.156627
9503.000000;-0.157942
9502.000000;-0.159232
9501.000000;-0.160545
9500.000000;-0.161824
9499.000000;-0.163017
9498.000000;-0.164164
9497.000000;-0.165321
9496.000000;-0.166415
9495.000000;-0.167320
9494.000000;-0.168086
9493.000000;-0.168983
9492.000000;-0.170224
9491.000000;-0.171720
9490.000000;-0.173220
9489.000000;-0.174607
9488.000000;-0.175932
9487.000000;-0.177206
9486.000000;-0.178315
9485.000000;-0.179201
9484.000000;-0.180010
9483.000000;-0.180948
9482.000000;-0.182035
9481.000000;-0.183051
9480.000000;-0.183754
9479.000000;-0.184123
9478.000000;-0.184387
9477.000000;-0.184823
9476.000000;-0.185527
9475.000000;-0.186377
9474.000000;-0.187169
9473.000000;-0.187785
9472.000000;-0.188261
9471.000000;-0.188751
9470.000000;-0.189429
9469.000000;-0.190335
9468.000000;-0.191297
9467.000000;-0.192061
9466.000000;-0.192530
9465.000000;-0.192827
9464.000000;-0.193131
9463.000000;-0.193512
9462.000000;-0.193948
9461.000000;-0.194398
9460.000000;-0.194784
9459.000000;-0.195002
9458.000000;-0.195051
9457.000000;-0.195100
9456.000000;-0.195326
9455.000000;-0.195693
9454.000000;-0.195970
9453.000000;-0.195966
9452.000000;-0.195687
9451.000000;-0.195274
9450.000000;-0.194897
9449.000000;-0.194683
9448.000000;-0.194653
9447.000000;-0.194692
9446.000000;-0.194666
9445.000000;-0.194565
9444.000000;-0.194487
9443.000000;-0.194462
9442.000000;-0.194379
9441.000000;-0.194123
9440.000000;-0.193711
9439.000000;-0.193250
9438.000000;-0.192804
9437.000000;-0.192375
9436.000000;-0.191978
9435.000000;-0.191702
9434.000000;-0.191645
9433.000000;-0.191790
9432.000000;-0.191914
9431.000000;-0.191660
9430.000000;-0.190783
9429.000000;-0.189417
9428.000000;-0.188035
9427.000000;-0.187095
9426.000000;-0.186662
9425.000000;-0.186421
9424.000000;-0.186039
9423.000000;-0.185453
9422.000000;-0.184807
9421.000000;-0.184168
9420.000000;-0.183403
9419.000000;-0.182353
9418.000000;-0.181037
9417.000000;-0.179657
9416.000000;-0.178431
9415.000000;-0.177462
9414.000000;-0.176737
9413.000000;-0.176138
9412.000000;-0.175486
9411.000000;-0.174646
9410.000000;-0.173639
9409.000000;-0.172580
9408.000000;-0.171505
9407.000000;-0.170323
9406.000000;-0.168988
9405.000000;-0.167613
9404.000000;-0.166349
9403.000000;-0.165226
9402.000000;-0.164185
9401.000000;-0.163198
9400.000000;-0.162264
9399.000000;-0.161326
9398.000000;-0.160297
9397.000000;-0.159146
9396.000000;-0.157906
9395.000000;-0.156614
9394.000000;-0.155344
9393.000000;-0.154234
9392.000000;-0.153359
9391.000000;-0.152588
9390.000000;-0.151692
9389.000000;-0.150595
9388.000000;-0.149412
9387.000000;-0.148232
9386.000000;-0.146983
9385.000000;-0.145580
9384.000000;-0.144068
9383.000000;-0.142549
9382.000000;-0.141045
9381.000000;-0.139509
9380.000000;-0.137924
9379.000000;-0.136321
9378.000000;-0.134754
9377.000000;-0.133314
9376.000000;-0.132103
9375.000000;-0.131109
9374.000000;-0.130144
9373.000000;-0.128986
9372.000000;-0.127541
9371.000000;-0.125823
9370.000000;-0.123889
9369.000000;-0.121915
9368.000000;-0.120241
9367.000000;-0.119130
9366.000000;-0.118434
9365.000000;-0.117657
9364.000000;-0.116417
9363.000000;-0.114746
9362.000000;-0.112942
9361.000000;-0.111289
9360.000000;-0.109959
9359.000000;-0.108977
9358.000000;-0.108145
9357.000000;-0.107081
9356.000000;-0.105535
9355.000000;-0.103606
9354.000000;-0.101570
9353.000000;-0.099576
9352.000000;-0.097667
9351.000000;-0.096015
9350.000000;-0.094857
9349.000000;-0.094138
9348.000000;-0.093431
9347.000000;-0.092313
9346.000000;-0.090716
9345.000000;-0.088845
9344.000000;-0.086915
9343.000000;-0.085074
9342.000000;-0.083450
9341.000000;-0.082087
9340.000000;-0.080843
9339.000000;-0.079477
9338.000000;-0.077862
9337.000000;-0.076091
9336.000000;-0.074373
9335.000000;-0.072851
9334.000000;-0.071480
9333.000000;-0.070087
9332.000000;-0.068613
9331.000000;-0.067247
9330.000000;-0.066186
9329.000000;-0.065242
9328.000000;-0.063918
9327.000000;-0.061994
9326.000000;-0.059862
9325.000000;-0.058108
9324.000000;-0.056857
9323.000000;-0.055755
9322.000000;-0.054501
9321.000000;-0.053123
9320.000000;-0.051756
9319.000000;-0.050405
9318.000000;-0.048989
9317.000000;-0.047456
9316.000000;-0.045779
9315.000000;-0.043984
9314.000000;-0.042230
9313.000000;-0.040734
9312.000000;-0.039543
9311.000000;-0.038469
9310.000000;-0.037310
9309.000000;-0.036042
9308.000000;-0.034753
9307.000000;-0.033489
9306.000000;-0.032220
9305.000000;-0.030910
9304.000000;-0.029558
9303.000000;-0.028219
9302.000000;-0.026963
9301.000000;-0.025768
9300.000000;-0.024506
9299.000000;-0.023107
9298.000000;-0.021692
9297.000000;-0.020386
9296.000000;-0.019058
9295.000000;-0.017458
9294.000000;-0.015624
9293.000000;-0.013924
9292.000000;-0.012612
9291.000000;-0.011531
9290.000000;-0.010389
9289.000000;-0.009133
9288.000000;-0.007882
9287.000000;-0.006640
9286.000000;-0.005268
9285.000000;-0.003695
9284.000000;-0.001997
9283.000000;-0.000297
9282.000000;0.001298
9281.000000;0.002681
9280.000000;0.003812
9279.000000;0.004788
9278.000000;0.005768
9277.000000;0.006833
9276.000000;0.007975
9275.000000;0.009172
9274.000000;0.010419
9273.000000;0.011705
9272.000000;0.013041
9271.000000;0.014467
9270.000000;0.015974
9269.000000;0.017460
9268.000000;0.018838
9267.000000;0.020120
9266.000000;0.021343
9265.000000;0.022479
9264.000000;0.023498
9263.000000;0.024470
9262.000000;0.025496
9261.000000;0.026573
9260.000000;0.027618
9259.000000;0.028604
9258.000000;0.029595
9257.000000;0.030688
9256.000000;0.031942
9255.000000;0.033342
9254.000000;0.034792
9253.000000;0.036179
9252.000000;0.037504
9251.000000;0.038852
9250.000000;0.040204
9249.000000;0.041378
9248.000000;0.042257
9247.000000;0.042982
9246.000000;0.043780
9245.000000;0.044681
9244.000000;0.045570
9243.000000;0.046496
9242.000000;0.047733
9241.000000;0.049468
9240.000000;0.051540
9239.000000;0.053546
9238.000000;0.055131
9237.000000;0.056172
9236.000000;0.056800
9235.000000;0.057334
9234.000000;0.058110
9233.000000;0.059251
9232.000000;0.060582
9231.000000;0.061793
9230.000000;0.062732
9229.000000;0.063532
9228.000000;0.064436
9227.000000;0.065509
9226.000000;0.066552
9225.000000;0.067352
9224.000000;0.067975
9223.000000;0.068727
9222.000000;0.069793
9221.000000;0.071034
9220.000000;0.072170
9219.000000;0.073069
9218.000000;0.073775
9217.000000;0.074373
9216.000000;0.074989
9215.000000;0.075821
9214.000000;0.076997
9213.000000;0.078359
9212.000000;0.079556
9211.000000;0.080422
9210.000000;0.081151
9209.000000;0.082055
9208.000000;0.083233
9207.000000;0.084536
9206.000000;0.085764
9205.000000;0.086828
9204.000000;0.087769
9203.000000;0.088692
9202.000000;0.089674
9201.000000;0.090669
9200.000000;0.091560
9199.000000;0.092335
9198.000000;0.093147
9197.000000;0.094118
9196.000000;0.095131
9195.000000;0.095941
9194.000000;0.096513
9193.000000;0.097125
9192.000000;0.098065
9191.000000;0.099316
9190.000000;0.100648
9189.000000;0.101946
9188.000000;0.103297
9187.000000;0.104727
9186.000000;0.106010
9185.000000;0.106858
9184.000000;0.107229
9183.000000;0.107381
9182.000000;0.107659
9181.000000;0.108323
9180.000000;0.109460
9179.000000;0.110886
9178.000000;0.112172
9177.000000;0.112962
9176.000000;0.113319
9175.000000;0.113643
9174.000000;0.114219
9173.000000;0.114977
9172.000000;0.115729
9171.000000;0.116479
9170.000000;0.117354
9169.000000;0.118361
9168.000000;0.119353
9167.000000;0.120227
9166.000000;0.121043
9165.000000;0.121946
9164.000000;0.123031
9163.000000;0.124249
9162.000000;0.125409
9161.000000;0.126304
9160.000000;0.126914
9159.000000;0.127427
9158.000000;0.128021
9157.000000;0.128679
9156.000000;0.129310
9155.000000;0.129950
9154.000000;0.130728
9153.000000;0.131626
9152.000000;0.132443
9151.000000;0.133021
9150.000000;0.133435
9149.000000;0.133913
9148.000000;0.134613
9147.000000;0.135527
9146.000000;0.136547
9145.000000;0.137564
9144.000000;0.138524
9143.000000;0.139417
9142.000000;0.140256
9141.000000;0.141042
9140.000000;0.141771
9139.000000;0.142441
9138.000000;0.143073
9137.000000;0.143725
9136.000000;0.144465
9135.000000;0.145280
9134.000000;0.146027
9133.000000;0.146547
9132.000000;0.146866
9131.000000;0.147221
9130.000000;0.147846
9129.000000;0.148744
9128.000000;0.149717
9127.000000;0.150567
9126.000000;0.151233
9125.000000;0.151774
9124.000000;0.152291
9123.000000;0.152837
9122.000000;0.153357
9121.000000;0.153735
9120.000000;0.153961
9119.000000;0.154226
9118.000000;0.154793
9117.000000;0.155748
9116.000000;0.156917
9115.000000;0.158030
9114.000000;0.158921
9113.000000;0.159608
9112.000000;0.160212
9111.000000;0.160835
9110.000000;0.161474
9109.000000;0.162055
9108.000000;0.162556
9107.000000;0.163075
9106.000000;0.163742
9105.000000;0.164555
9104.000000;0.165348
9103.000000;0.165931
9102.000000;0.166265
9101.000000;0.166482
9100.000000;0.166767
9099.000000;0.167243
9098.000000;0.167939
9097.000000;0.168854
9096.000000;0.169967
9095.000000;0.171171
9094.000000;0.172250
9093.000000;0.173008
9092.000000;0.173456
9091.000000;0.173814
9090.000000;0.174313
9089.000000;0.174984
9088.000000;0.175665
9087.000000;0.176145
9086.000000;0.176309
9085.000000;0.176222
9084.000000;0.176140
9083.000000;0.176399
9082.000000;0.177185
9081.000000;0.178346
9080.000000;0.179457
9079.000000;0.180128
9078.000000;0.180327
9077.000000;0.180395
9076.000000;0.180723
9075.000000;0.181387
9074.000000;0.182125
9073.000000;0.182659
9072.000000;0.182953
9071.000000;0.183138
9070.000000;0.183304
9069.000000;0.183494
9068.000000;0.183845
9067.000000;0.184514
9066.000000;0.185429
9065.000000;0.186257
9064.000000;0.186715
9063.000000;0.186836
9062.000000;0.186875
9061.000000;0.187060
9060.000000;0.187514
9059.000000;0.188285
9058.000000;0.189299
9057.000000;0.190295
9056.000000;0.190977
9055.000000;0.191266
9054.000000;0.191367
9053.000000;0.191561
9052.000000;0.191959
9051.000000;0.192437
9050.000000;0.192802
9049.000000;0.193027
9048.000000;0.193333
9047.000000;0.193984
9046.000000;0.194973
9045.000000;0.195979
9044.000000;0.196659
9043.000000;0.196943
9042.000000;0.196980
9041.000000;0.196926
9040.000000;0.196889
9039.000000;0.197026
9038.000000;0.197515
9037.000000;0.198368
9036.000000;0.199367
9035.000000;0.200229
9034.000000;0.200803
9033.000000;0.201088
9032.000000;0.201169
9031.000000;0.201182
9030.000000;0.201282
9029.000000;0.201560
9028.000000;0.201991
9027.000000;0.202491
9026.000000;0.202981
9025.000000;0.203388
9024.000000;0.203632
9023.000000;0.203700
9022.000000;0.203741
9021.000000;0.203993
9020.000000;0.204596
9019.000000;0.205481
9018.000000;0.206443
9017.000000;0.207265
9016.000000;0.207793
9015.000000;0.207993
9014.000000;0.208006
9013.000000;0.208057
9012.000000;0.208224
9011.000000;0.208360
9010.000000;0.208347
9009.000000;0.208341
9008.000000;0.208604
9007.000000;0.209135
9006.000000;0.209658
9005.000000;0.210033
9004.000000;0.210451
9003.000000;0.211116
9002.000000;0.211909
9001.000000;0.212519
9000.000000;0.212802
8999.000000;0.212841
8998.000000;0.212762
8997.000000;0.212682
8996.000000;0.212747
8995.000000;0.213010
8994.000000;0.213283
8993.000000;0.213313
8992.000000;0.213144
8991.000000;0.213108
8990.000000;0.213447
8989.000000;0.214091
8988.000000;0.214838
8987.000000;0.215571
8986.000000;0.216215
8985.000000;0.216672
8984.000000;0.216894
8983.000000;0.216948
8982.000000;0.216947
8981.000000;0.217002
8980.000000;0.217262
8979.000000;0.217825
8978.000000;0.218540
8977.000000;0.219055
8976.000000;0.219174
8975.000000;0.219071
8974.000000;0.219036
8973.000000;0.219138
8972.000000;0.219255
8971.000000;0.219325
8970.000000;0.219413
8969.000000;0.219581
8968.000000;0.219829
8967.000000;0.220141
8966.000000;0.220500
8965.000000;0.220852
8964.000000;0.221128
8963.000000;0.221289
8962.000000;0.221324
8961.000000;0.221274
8960.000000;0.221289
8959.000000;0.221584
8958.000000;0.222226
8957.000000;0.223010
8956.000000;0.223626
8955.000000;0.223929
8954.000000;0.224023
8953.000000;0.224136
8952.000000;0.224458
8951.000000;0.225009
8950.000000;0.225572
8949.000000;0.225842
8948.000000;0.225712
8947.000000;0.225392
8946.000000;0.225177
8945.000000;0.225180
8944.000000;0.225348
8943.000000;0.225620
8942.000000;0.225959
8941.000000;0.226289
8940.000000;0.226530
8939.000000;0.226663
8938.000000;0.226693
8937.000000;0.226607
8936.000000;0.226474
8935.000000;0.226504
8934.000000;0.226858
8933.000000;0.227416
8932.000000;0.227875
8931.000000;0.228087
8930.000000;0.228185
8929.000000;0.228382
8928.000000;0.228769
8927.000000;0.229311
8926.000000;0.229900
8925.000000;0.230361
8924.000000;0.230493
8923.000000;0.230218
8922.000000;0.229673
8921.000000;0.229133
8920.000000;0.228843
8919.000000;0.228880
8918.000000;0.229120
8917.000000;0.229352
8916.000000;0.229483
8915.000000;0.229612
8914.000000;0.229872
8913.000000;0.230251
8912.000000;0.230638
8911.000000;0.230975
8910.000000;0.231251
8909.000000;0.231392
8908.000000;0.231301
8907.000000;0.231041
8906.000000;0.230827
8905.000000;0.230802
8904.000000;0.230936
8903.000000;0.231159
8902.000000;0.231476
8901.000000;0.231849
8900.000000;0.232102
8899.000000;0.232063
8898.000000;0.231791
8897.000000;0.231549
8896.000000;0.231574
8895.000000;0.231903
8894.000000;0.232375
8893.000000;0.232745
8892.000000;0.232824
8891.000000;0.232604
8890.000000;0.232262
8889.000000;0.232009
8888.000000;0.231936
8887.000000;0.232034
8886.000000;0.232302
8885.000000;0.232744
8884.000000;0.233245
8883.000000;0.233570
8882.000000;0.233568
8881.000000;0.233325
8880.000000;0.233076
8879.000000;0.232976
8878.000000;0.233015
8877.000000;0.233139
8876.000000;0.233350
8875.000000;0.233646
8874.000000;0.233914
8873.000000;0.233960
8872.000000;0.233675
8871.000000;0.233132
8870.000000;0.232558
8869.000000;0.232216
8868.000000;0.232266
8867.000000;0.232651
8866.000000;0.233111
8865.000000;0.233387
8864.000000;0.233450
8863.000000;0.233496
8862.000000;0.233667
8861.000000;0.233862
8860.000000;0.233872
8859.000000;0.233671
8858.000000;0.233472
8857.000000;0.233478
8856.000000;0.233658
8855.000000;0.233801
8854.000000;0.233758
8853.000000;0.233582
8852.000000;0.233448
8851.000000;0.233475
8850.000000;0.233628
8849.000000;0.233756
8848.000000;0.233727
8847.000000;0.233536
8846.000000;0.233328
8845.000000;0.233291
8844.000000;0.233500
8843.000000;0.233835
8842.000000;0.234054
8841.000000;0.233989
8840.000000;0.233702
8839.000000;0.233451
8838.000000;0.233474
8837.000000;0.233776
8836.000000;0.234118
8835.000000;0.234232
8834.000000;0.234078
8833.000000;0.233871
8832.000000;0.233865
8831.000000;0.234097
8830.000000;0.234367
8829.000000;0.234440
8828.000000;0.234243
8827.000000;0.233881
8826.000000;0.233515
8825.000000;0.233271
8824.000000;0.233191
8823.000000;0.233227
8822.000000;0.233264
8821.000000;0.233199
8820.000000;0.233015
8819.000000;0.232779
8818.000000;0.232583
8817.000000;0.232493
8816.000000;0.232538
8815.000000;0.232706
8814.000000;0.232949
8813.000000;0.233213
8812.000000;0.233469
8811.000000;0.233709
8810.000000;0.233915
8809.000000;0.234043
8808.000000;0.234018
8807.000000;0.233768
8806.000000;0.233304
8805.000000;0.232769
8804.000000;0.232377
8803.000000;0.232251
8802.000000;0.232320
8801.000000;0.232394
8800.000000;0.232316
8799.000000;0.232086
8798.000000;0.231866
8797.000000;0.231868
8796.000000;0.232151
8795.000000;0.232522
8794.000000;0.232703
8793.000000;0.232636
8792.000000;0.232530
8791.000000;0.232571
8790.000000;0.232682
8789.000000;0.232639
8788.000000;0.232333
8787.000000;0.231826
8786.000000;0.231233
8785.000000;0.230691
8784.000000;0.230360
8783.000000;0.230312
8782.000000;0.230413
8781.000000;0.230462
8780.000000;0.230454
8779.000000;0.230565
8778.000000;0.230847
8777.000000;0.231087
8776.000000;0.231049
8775.000000;0.230754
8774.000000;0.230434
8773.000000;0.230271
8772.000000;0.230245
8771.000000;0.230203
8770.000000;0.230015
8769.000000;0.229692
8768.000000;0.229371
8767.000000;0.229181
8766.000000;0.229109
8765.000000;0.229051
8764.000000;0.228992
8763.000000;0.229044
8762.000000;0.229254
8761.000000;0.229453
8760.000000;0.229365
8759.000000;0.228883
8758.000000;0.228203
8757.000000;0.227662
8756.000000;0.227460
8755.000000;0.227525
8754.000000;0.227652
8753.000000;0.227730
8752.000000;0.227793
8751.000000;0.227864
8750.000000;0.227849
8749.000000;0.227656
8748.000000;0.227356
8747.000000;0.227109
8746.000000;0.226961
8745.000000;0.226808
8744.000000;0.226565
8743.000000;0.226273
8742.000000;0.226053
8741.000000;0.226013
8740.000000;0.226187
8739.000000;0.226491
8738.000000;0.226725
8737.000000;0.226733
8736.000000;0.226565
8735.000000;0.226384
8734.000000;0.226245
8733.000000;0.226050
8732.000000;0.225741
8731.000000;0.225398
8730.000000;0.225123
8729.000000;0.224917
8728.000000;0.224722
8727.000000;0.224484
8726.000000;0.224155
8725.000000;0.223706
8724.000000;0.223213
8723.000000;0.222852
8722.000000;0.222753
8721.000000;0.222895
8720.000000;0.223148
8719.000000;0.223340
8718.000000;0.223308
8717.000000;0.223004
8716.000000;0.222588
8715.000000;0.222266
8714.000000;0.222015
8713.000000;0.221592
8712.000000;0.220926
8711.000000;0.220332
8710.000000;0.220184
8709.000000;0.220464
8708.000000;0.220787
8707.000000;0.220866
8706.000000;0.220771
8705.000000;0.220710
8704.000000;0.220704
8703.000000;0.220570
8702.000000;0.220170
8701.000000;0.219577
8700.000000;0.219028
8699.000000;0.218729
8698.000000;0.218702
8697.000000;0.218779
8696.000000;0.218734
8695.000000;0.218460
8694.000000;0.218041
8693.000000;0.217673
8692.000000;0.217495
8691.000000;0.217471
8690.000000;0.217434
8689.000000;0.217262
8688.000000;0.217012
8687.000000;0.216837
8686.000000;0.216802
8685.000000;0.216805
8684.000000;0.216673
8683.000000;0.216329
8682.000000;0.215857
8681.000000;0.215438
8680.000000;0.215207
8679.000000;0.215140
8678.000000;0.215108
8677.000000;0.215020
8676.000000;0.214889
8675.000000;0.214725
8674.000000;0.214475
8673.000000;0.214136
8672.000000;0.213835
8671.000000;0.213673
8670.000000;0.213538
8669.000000;0.213219
8668.000000;0.212721
8667.000000;0.212305
8666.000000;0.212168
8665.000000;0.212218
8664.000000;0.212227
8663.000000;0.212116
8662.000000;0.212001
8661.000000;0.211995
8660.000000;0.212043
8659.000000;0.211941
8658.000000;0.211516
8657.000000;0.210811
8656.000000;0.210107
8655.000000;0.209686
8654.000000;0.209579
8653.000000;0.209586
8652.000000;0.209526
8651.000000;0.209373
8650.000000;0.209159
8649.000000;0.208874
8648.000000;0.208516
8647.000000;0.208158
8646.000000;0.207908
8645.000000;0.207817
8644.000000;0.207855
8643.000000;0.207913
8642.000000;0.207839
8641.000000;0.207553
8640.000000;0.207122
8639.000000;0.206667
8638.000000;0.206210
8637.000000;0.205717
8636.000000;0.205255
8635.000000;0.204963
8634.000000;0.204837
8633.000000;0.204722
8632.000000;0.204558
8631.000000;0.204470
8630.000000;0.204519
8629.000000;0.204506
8628.000000;0.204185
8627.000000;0.203587
8626.000000;0.202996
8625.000000;0.202648
8624.000000;0.202556
8623.000000;0.202584
8622.000000;0.202568
8621.000000;0.202386
8620.000000;0.202020
8619.000000;0.201573
8618.000000;0.201184
8617.000000;0.200944
8616.000000;0.200890
8615.000000;0.200985
8614.000000;0.201063
8613.000000;0.200891
8612.000000;0.200384
8611.000000;0.199726
8610.000000;0.199192
8609.000000;0.198906
8608.000000;0.198801
8607.000000;0.198745
8606.000000;0.198610
8605.000000;0.198301
8604.000000;0.197839
8603.000000;0.197386
8602.000000;0.197097
8601.000000;0.196950
8600.000000;0.196802
8599.000000;0.196584
8598.000000;0.196364
8597.000000;0.196234
8596.000000;0.196209
8595.000000;0.196196
8594.000000;0.196020
8593.000000;0.195542
8592.000000;0.194837
8591.000000;0.194198
8590.000000;0.193853
8589.000000;0.193697
8588.000000;0.193441
8587.000000;0.192988
8586.000000;0.192560
8585.000000;0.192427
8584.000000;0.192618
8583.000000;0.192913
8582.000000;0.193034
8581.000000;0.192821
8580.000000;0.192318
8579.000000;0.191718
8578.000000;0.191194
8577.000000;0.190773
8576.000000;0.190413
8575.000000;0.190132
8574.000000;0.189985
8573.000000;0.189913
8572.000000;0.189781
8571.000000;0.189567
8570.000000;0.189399
8569.000000;0.189352
8568.000000;0.189307
8567.000000;0.189108
8566.000000;0.188753
8565.000000;0.188370
8564.000000;0.188044
8563.000000;0.187778
8562.000000;0.187557
8561.000000;0.187335
8560.000000;0.186993
8559.000000;0.186427
8558.000000;0.185691
8557.000000;0.184999
8556.000000;0.184547
8555.000000;0.184369
8554.000000;0.184355
8553.000000;0.184334
8552.000000;0.184165
8551.000000;0.183821
8550.000000;0.183432
8549.000000;0.183174
8548.000000;0.183075
8547.000000;0.182983
8546.000000;0.182762
8545.000000;0.182450
8544.000000;0.182187
8543.000000;0.182023
8542.000000;0.181873
8541.000000;0.181632
8540.000000;0.181253
8539.000000;0.180746
8538.000000;0.180171
8537.000000;0.179636
8536.000000;0.179211
8535.000000;0.178842
8534.000000;0.178434
8533.000000;0.178013
8532.000000;0.177709
8531.000000;0.177553
8530.000000;0.177401
8529.000000;0.177144
8528.000000;0.176873
8527.000000;0.176742
8526.000000;0.176715
8525.000000;0.176573
8524.000000;0.176150
8523.000000;0.175484
8522.000000;0.174736
8521.000000;0.174061
8520.000000;0.173585
8519.000000;0.173393
8518.000000;0.173465
8517.000000;0.173627
8516.000000;0.173620
8515.000000;0.173282
8514.000000;0.172708
8513.000000;0.172212
8512.000000;0.172066
8511.000000;0.172218
8510.000000;0.172336
8509.000000;0.172171
8508.000000;0.171796
8507.000000;0.171444
8506.000000;0.171196
8505.000000;0.170946
8504.000000;0.170622
8503.000000;0.170278
8502.000000;0.169975
8501.000000;0.169685
8500.000000;0.169375
8499.000000;0.169078
8498.000000;0.168833
8497.000000;0.168612
8496.000000;0.168344
8495.000000;0.167979
8494.000000;0.167538
8493.000000;0.167123
8492.000000;0.166860
8491.000000;0.166755
8490.000000;0.166638
8489.000000;0.166341
8488.000000;0.165912
8487.000000;0.165551
8486.000000;0.165320
8485.000000;0.165058
8484.000000;0.164627
8483.000000;0.164120
8482.000000;0.163747
8481.000000;0.163589
8480.000000;0.163546
8479.000000;0.163460
8478.000000;0.163224
8477.000000;0.162807
8476.000000;0.162283
8475.000000;0.161802
8474.000000;0.161471
8473.000000;0.161270
8472.000000;0.161118
8471.000000;0.160994
8470.000000;0.160922
8469.000000;0.160847
8468.000000;0.160628
8467.000000;0.160180
8466.000000;0.159587
8465.000000;0.159016
8464.000000;0.158550
8463.000000;0.158140
8462.000000;0.157725
8461.000000;0.157331
8460.000000;0.157029
8459.000000;0.156837
8458.000000;0.156720
8457.000000;0.156652
8456.000000;0.156605
8455.000000;0.156478
8454.000000;0.156148
8453.000000;0.155618
8452.000000;0.155053
8451.000000;0.154614
8450.000000;0.154330
8449.000000;0.154163
8448.000000;0.154093
8447.000000;0.154081
8446.000000;0.154015
8445.000000;0.153823
8444.000000;0.153559
8443.000000;0.153296
8442.000000;0.152995
8441.000000;0.152603
8440.000000;0.152201
8439.000000;0.151912
8438.000000;0.151685
8437.000000;0.151349
8436.000000;0.150881
8435.000000;0.150454
8434.000000;0.150205
8433.000000;0.150093
8432.000000;0.150006
8431.000000;0.149868
8430.000000;0.149597
8429.000000;0.149114
8428.000000;0.148482
8427.000000;0.147918
8426.000000;0.147574
8425.000000;0.147374
8424.000000;0.147153
8423.000000;0.146877
8422.000000;0.146657
8421.000000;0.146585
8420.000000;0.146607
8419.000000;0.146543
8418.000000;0.146224
8417.000000;0.145653
8416.000000;0.145052
8415.000000;0.144671
8414.000000;0.144552
8413.000000;0.144550
8412.000000;0.144553
8411.000000;0.144547
8410.000000;0.144481
8409.000000;0.144240
8408.000000;0.143822
8407.000000;0.143391
8406.000000;0.143062
8405.000000;0.142782
8404.000000;0.142500
8403.000000;0.142316
8402.000000;0.142308
8401.000000;0.142318
8400.000000;0.142101
8399.000000;0.141621
8398.000000;0.141059
8397.000000;0.140540
8396.000000;0.140027
8395.000000;0.139497
8394.000000;0.139065
8393.000000;0.138867
8392.000000;0.138894
8391.000000;0.138989
8390.000000;0.138974
8389.000000;0.138745
8388.000000;0.138323
8387.000000;0.137823
8386.000000;0.137367
8385.000000;0.136993
8384.000000;0.136653
8383.000000;0.136293
8382.000000;0.135922
8381.000000;0.135617
8380.000000;0.135463
8379.000000;0.135463
8378.000000;0.135493
8377.000000;0.135376
8376.000000;0.135031
8375.000000;0.134545
8374.000000;0.134088
8373.000000;0.133774
8372.000000;0.133616
8371.000000;0.133544
8370.000000;0.133454
8369.000000;0.133259
8368.000000;0.132947
8367.000000;0.132565
8366.000000;0.132159
8365.000000;0.131744
8364.000000;0.131358
8363.000000;0.131070
8362.000000;0.130928
8361.000000;0.130908
8360.000000;0.130934
8359.000000;0.130917
8358.000000;0.130766
8357.000000;0.130457
8356.000000;0.130092
8355.000000;0.129834
8354.000000;0.129734
8353.000000;0.129683
8352.000000;0.129546
8351.000000;0.129294
8350.000000;0.128969
8349.000000;0.128616
8348.000000;0.128290
8347.000000;0.128063
8346.000000;0.127938
8345.000000;0.127789
8344.000000;0.127474
8343.000000;0.126965
8342.000000;0.126350
8341.000000;0.125750
8340.000000;0.125278
8339.000000;0.125030
8338.000000;0.125023
8337.000000;0.125138
8336.000000;0.125187
8335.000000;0.125046
8334.000000;0.124702
8333.000000;0.124231
8332.000000;0.123766
8331.000000;0.123457
8330.000000;0.123370
8329.000000;0.123429
8328.000000;0.123496
8327.000000;0.123501
8326.000000;0.123470
8325.000000;0.123430
8324.000000;0.123351
8323.000000;0.123169
8322.000000;0.122848
8321.000000;0.122414
8320.000000;0.121944
8319.000000;0.121503
8318.000000;0.121091
8317.000000;0.120688
8316.000000;0.120343
8315.000000;0.120159
8314.000000;0.120162
8313.000000;0.120225
8312.000000;0.120179
8311.000000;0.119984
8310.000000;0.119745
8309.000000;0.119576
8308.000000;0.119463
8307.000000;0.119278
8306.000000;0.118923
8305.000000;0.118461
8304.000000;0.118079
8303.000000;0.117886
8302.000000;0.117764
8301.000000;0.117519
8300.000000;0.117138
8299.000000;0.116813
8298.000000;0.116690
8297.000000;0.116693
8296.000000;0.116661
8295.000000;0.116541
8294.000000;0.116385
8293.000000;0.116218
8292.000000;0.116018
8291.000000;0.115784
8290.000000;0.115548
8289.000000;0.115313
8288.000000;0.115075
8287.000000;0.114864
8286.000000;0.114711
8285.000000;0.114582
8284.000000;0.114393
8283.000000;0.114117
8282.000000;0.113826
8281.000000;0.113612
8280.000000;0.113495
8279.000000;0.113421
8278.000000;0.113331
8277.000000;0.113240
8276.000000;0.113207
8275.000000;0.113236
8274.000000;0.113213
8273.000000;0.113008
8272.000000;0.112634
8271.000000;0.112231
8270.000000;0.111906
8269.000000;0.111646
8268.000000;0.111405
8267.000000;0.111173
8266.000000;0.110942
8265.000000;0.110688
8264.000000;0.110447
8263.000000;0.110327
8262.000000;0.110357
8261.000000;0.110391
8260.000000;0.110258
8259.000000;0.109952
8258.000000;0.109601
8257.000000;0.109297
8256.000000;0.109044
8255.000000;0.108842
8254.000000;0.108712
8253.000000;0.108648
8252.000000;0.108613
8251.000000;0.108581
8250.000000;0.108532
8249.000000;0.108410
8248.000000;0.108182
8247.000000;0.107925
8246.000000;0.107764
8245.000000;0.107718
8244.000000;0.107663
8243.000000;0.107474
8242.000000;0.107155
8241.000000;0.106810
8240.000000;0.106554
8239.000000;0.106466
8238.000000;0.106560
8237.000000;0.106727
8236.000000;0.106754
8235.000000;0.106461
8234.000000;0.105868
8233.000000;0.105208
8232.000000;0.104759
8231.000000;0.104623
8230.000000;0.104674
8229.000000;0.104710
8228.000000;0.104658
8227.000000;0.104587
8226.000000;0.104549
8225.000000;0.104501
8224.000000;0.104392
8223.000000;0.104260
8222.000000;0.104158
8221.000000;0.104034
8220.000000;0.103781
8219.000000;0.103411
8218.000000;0.103085
8217.000000;0.102977
8216.000000;0.103119
8215.000000;0.103399
8214.000000;0.103649
8213.000000;0.103729
8212.000000;0.103598
8211.000000;0.103323
8210.000000;0.103021
8209.000000;0.102776
8208.000000;0.102606
8207.000000;0.102470
8206.000000;0.102295
8205.000000;0.102015
8204.000000;0.101636
8203.000000;0.101259
8202.000000;0.100992
8201.000000;0.100855
8200.000000;0.100793
8199.000000;0.100770
8198.000000;0.100774
8197.000000;0.100757
8196.000000;0.100644
8195.000000;0.100432
8194.000000;0.100213
8193.000000;0.100072
8192.000000;0.100006
8191.000000;0.099972
8190.000000;0.099970
8189.000000;0.100038
8188.000000;0.100162
8187.000000;0.100243
8186.000000;0.100175
8185.000000;0.099930
8184.000000;0.099588
8183.000000;0.099275
8182.000000;0.099071
8181.000000;0.098960
8180.000000;0.098881
8179.000000;0.098784
8178.000000;0.098671
8177.000000;0.098567
8176.000000;0.098509
8175.000000;0.098535
8174.000000;0.098647
8173.000000;0.098768
8172.000000;0.098766
8171.000000;0.098559
8170.000000;0.098206
8169.000000;0.097870
8168.000000;0.097676
8167.000000;0.097610
8166.000000;0.097567
8165.000000;0.097479
8164.000000;0.097369
8163.000000;0.097282
8162.000000;0.097194
8161.000000;0.097026
8160.000000;0.096742
8159.000000;0.096381
8158.000000;0.096019
8157.000000;0.095712
8156.000000;0.095506
8155.000000;0.095448
8154.000000;0.095544
8153.000000;0.095712
8152.000000;0.095833
8151.000000;0.095840
8150.000000;0.095751
8149.000000;0.095622
8148.000000;0.095488
8147.000000;0.095384
8146.000000;0.095372
8145.000000;0.095508
8144.000000;0.095737
8143.000000;0.095857
8142.000000;0.095654
8141.000000;0.095116
8140.000000;0.094504
8139.000000;0.094154
8138.000000;0.094203
8137.000000;0.094489
8136.000000;0.094724
8135.000000;0.094725
8134.000000;0.094504
8133.000000;0.094198
8132.000000;0.093952
8131.000000;0.093844
8130.000000;0.093858
8129.000000;0.093914
8128.000000;0.093938
8127.000000;0.093919
8126.000000;0.093882
8125.000000;0.093830
8124.000000;0.093731
8123.000000;0.093575
8122.000000;0.093411
8121.000000;0.093300
8120.000000;0.093243
8119.000000;0.093175
8118.000000;0.093050
8117.000000;0.092904
8116.000000;0.092809
8115.000000;0.092779
8114.000000;0.092753
8113.000000;0.092664
8112.000000;0.092507
8111.000000;0.092343
8110.000000;0.092240
8109.000000;0.092218
8108.000000;0.092232
8107.000000;0.092216
8106.000000;0.092147
8105.000000;0.092050
8104.000000;0.091916
8103.000000;0.091658
8102.000000;0.091244
8101.000000;0.090834
8100.000000;0.090676
8099.000000;0.090835
8098.000000;0.091109
8097.000000;0.091261
8096.000000;0.091244
8095.000000;0.091141
8094.000000;0.091007
8093.000000;0.090865
8092.000000;0.090781
8091.000000;0.090780
8090.000000;0.090748
8089.000000;0.090556
8088.000000;0.090280
8087.000000;0.090153
8086.000000;0.090295
8085.000000;0.090589
8084.000000;0.090854
8083.000000;0.091014
8082.000000;0.091067
8081.000000;0.091017
8080.000000;0.090905
8079.000000;0.090821
8078.000000;0.090789
8077.000000;0.090713
8076.000000;0.090499
8075.000000;0.090204
8074.000000;0.089988
8073.000000;0.089948
8072.000000;0.090033
8071.000000;0.090102
8070.000000;0.090040
8069.000000;0.089846
8068.000000;0.089638
8067.000000;0.089535
8066.000000;0.089524
8065.000000;0.089495
8064.000000;0.089401
8063.000000;0.089312
8062.000000;0.089295
8061.000000;0.089319
8060.000000;0.089325
8059.000000;0.089323
8058.000000;0.089341
8057.000000;0.089342
8056.000000;0.089254
8055.000000;0.089071
8054.000000;0.088881
8053.000000;0.088802
8052.000000;0.088898
8051.000000;0.089131
8050.000000;0.089334
8049.000000;0.089325
8048.000000;0.089079
8047.000000;0.088761
8046.000000;0.088559
8045.000000;0.088513
8044.000000;0.088549
8043.000000;0.088591
8042.000000;0.088596
8041.000000;0.088521
8040.000000;0.088363
8039.000000;0.088195
8038.000000;0.088079
8037.000000;0.087977
8036.000000;0.087821
8035.000000;0.087658
8034.000000;0.087636
8033.000000;0.087814
8032.000000;0.088081
8031.000000;0.088269
8030.000000;0.088314
8029.000000;0.088269
8028.000000;0.088206
8027.000000;0.088155
8026.000000;0.088085
8025.000000;0.087952
8024.000000;0.087746
8023.000000;0.087520
8022.000000;0.087348
8021.000000;0.087252
8020.000000;0.087209
8019.000000;0.087203
8018.000000;0.087237
8017.000000;0.087295
8016.000000;0.087332
8015.000000;0.087320
8014.000000;0.087269
8013.000000;0.087195
8012.000000;0.087100
8011.000000;0.087013
8010.000000;0.087002
8009.000000;0.087110
8008.000000;0.087267
8007.000000;0.087340
8006.000000;0.087270
8005.000000;0.087147
8004.000000;0.087114
8003.000000;0.087211
8002.000000;0.087347
8001.000000;0.087405
8000.000000;0.087345
7999.000000;0.087190
7998.000000;0.086977
7997.000000;0.086748
7996.000000;0.086560
7995.000000;0.086457
7994.000000;0.086428
7993.000000;0.086433
7992.000000;0.086464
7991.000000;0.086538
7990.000000;0.086631
7989.000000;0.086683
7988.000000;0.086660
7987.000000;0.086588
7986.000000;0.086496
7985.000000;0.086384
7984.000000;0.086240
7983.000000;0.086082
7982.000000;0.085935
7981.000000;0.085823
7980.000000;0.085775
7979.000000;0.085826
7978.000000;0.085990
7977.000000;0.086226
7976.000000;0.086449
7975.000000;0.086556
7974.000000;0.086464
7973.000000;0.086176
7972.000000;0.085817
7971.000000;0.085582
7970.000000;0.085582
7969.000000;0.085755
7968.000000;0.085925
7967.000000;0.085959
7966.000000;0.085873
7965.000000;0.085786
7964.000000;0.085788
7963.000000;0.085829
7962.000000;0.085775
7961.000000;0.085573
7960.000000;0.085322
7959.000000;0.085155
7958.000000;0.085091
7957.000000;0.085045
7956.000000;0.084975
7955.000000;0.084934
7954.000000;0.084973
7953.000000;0.085068
7952.000000;0.085150
7951.000000;0.085178
7950.000000;0.085159
7949.000000;0.085137
7948.000000;0.085166
7947.000000;0.085258
7946.000000;0.085342
7945.000000;0.085323
7944.000000;0.085193
7943.000000;0.085030
7942.000000;0.084883
7941.000000;0.084728
7940.000000;0.084564
7939.000000;0.084456
7938.000000;0.084453
7937.000000;0.084515
7936.000000;0.084571
7935.000000;0.084605
7934.000000;0.084640
7933.000000;0.084674
7932.000000;0.084678
7931.000000;0.084632
7930.000000;0.084534
7929.000000;0.084419
7928.000000;0.084372
7927.000000;0.084455
7926.000000;0.084606
7925.000000;0.084659
7924.000000;0.084535
7923.000000;0.084341
7922.000000;0.084251
7921.000000;0.084318
7920.000000;0.084468
7919.000000;0.084594
7918.000000;0.084616
7917.000000;0.084476
7916.000000;0.084204
7915.000000;0.083933
7914.000000;0.083786
7913.000000;0.083744
7912.000000;0.083692
7911.000000;0.083591
7910.000000;0.083511
7909.000000;0.083515
7908.000000;0.083581
7907.000000;0.083657
7906.000000;0.083726
7905.000000;0.083773
7904.000000;0.083766
7903.000000;0.083688
7902.000000;0.083577
7901.000000;0.083496
7900.000000;0.083478
7899.000000;0.083516
7898.000000;0.083569
7897.000000;0.083583
7896.000000;0.083513
7895.000000;0.083363
7894.000000;0.083184
7893.000000;0.083036
7892.000000;0.082945
7891.000000;0.082907
7890.000000;0.082898
7889.000000;0.082895
7888.000000;0.082894
7887.000000;0.082895
7886.000000;0.082892
7885.000000;0.082871
7884.000000;0.082838
7883.000000;0.082833
7882.000000;0.082880
7881.000000;0.082955
7880.000000;0.083002
7879.000000;0.082983
7878.000000;0.082897
7877.000000;0.082783
7876.000000;0.082711
7875.000000;0.082733
7874.000000;0.082805
7873.000000;0.082809
7872.000000;0.082678
7871.000000;0.082502
7870.000000;0.082441
7869.000000;0.082559
7868.000000;0.082768
7867.000000;0.082927
7866.000000;0.082964
7865.000000;0.082901
7864.000000;0.082809
7863.000000;0.082745
7862.000000;0.082698
7861.000000;0.082611
7860.000000;0.082469
7859.000000;0.082344
7858.000000;0.082328
7857.000000;0.082407
7856.000000;0.082470
7855.000000;0.082439
7854.000000;0.082342
7853.000000;0.082248
7852.000000;0.082176
7851.000000;0.082116
7850.000000;0.082082
7849.000000;0.082091
7848.000000;0.082105
7847.000000;0.082047
7846.000000;0.081896
7845.000000;0.081731
7844.000000;0.081662
7843.000000;0.081714
7842.000000;0.081804
7841.000000;0.081820
7840.000000;0.081725
7839.000000;0.081584
7838.000000;0.081484
7837.000000;0.081454
7836.000000;0.081458
7835.000000;0.081463
7834.000000;0.081485
7833.000000;0.081551
7832.000000;0.081633
7831.000000;0.081654
7830.000000;0.081581
7829.000000;0.081480
7828.000000;0.081442
7827.000000;0.081467
7826.000000;0.081470
7825.000000;0.081411
7824.000000;0.081363
7823.000000;0.081423
7822.000000;0.081562
7821.000000;0.081641
7820.000000;0.081557
7819.000000;0.081335
7818.000000;0.081088
7817.000000;0.080920
7816.000000;0.080892
7815.000000;0.081016
7814.000000;0.081245
7813.000000;0.081460
7812.000000;0.081531
7811.000000;0.081415
7810.000000;0.081191
7809.000000;0.081003
7808.000000;0.080942
7807.000000;0.080993
7806.000000;0.081080
7805.000000;0.081158
7804.000000;0.081232
7803.000000;0.081282
7802.000000;0.081232
7801.000000;0.081029
7800.000000;0.080732
7799.000000;0.080466
7798.000000;0.080312
7797.000000;0.080291
7796.000000;0.080412
7795.000000;0.080657
7794.000000;0.080906
7793.000000;0.080988
7792.000000;0.080853
7791.000000;0.080634
7790.000000;0.080498
7789.000000;0.080476
7788.000000;0.080490
7787.000000;0.080478
7786.000000;0.080433
7785.000000;0.080365
7784.000000;0.080281
7783.000000;0.080222
7782.000000;0.080243
7781.000000;0.080339
7780.000000;0.080428
7779.000000;0.080435
7778.000000;0.080364
7777.000000;0.080275
7776.000000;0.080208
7775.000000;0.080147
7774.000000;0.080072
7773.000000;0.080021
7772.000000;0.080075
7771.000000;0.080246
7770.000000;0.080435
7769.000000;0.080511
7768.000000;0.080431
7767.000000;0.080268
7766.000000;0.080120
7765.000000;0.080048
7764.000000;0.080066
7763.000000;0.080147
7762.000000;0.080216
7761.000000;0.080184
7760.000000;0.080032
7759.000000;0.079833
7758.000000;0.079692
7757.000000;0.079671
7756.000000;0.079769
7755.000000;0.079928
7754.000000;0.080059
7753.000000;0.080097
7752.000000;0.080053
7751.000000;0.079986
7750.000000;0.079921
7749.000000;0.079838
7748.000000;0.079741
7747.000000;0.079677
7746.000000;0.079682
7745.000000;0.079726
7744.000000;0.079739
7743.000000;0.079659
7742.000000;0.079452
7741.000000;0.079144
7740.000000;0.078857
7739.000000;0.078730
7738.000000;0.078793
7737.000000;0.078953
7736.000000;0.079118
7735.000000;0.079284
7734.000000;0.079451
7733.000000;0.079559
7732.000000;0.079552
7731.000000;0.079462
7730.000000;0.079355
7729.000000;0.079236
7728.000000;0.079082
7727.000000;0.078933
7726.000000;0.078878
7725.000000;0.078937
7724.000000;0.079045
7723.000000;0.079132
7722.000000;0.079173
7721.000000;0.079157
7720.000000;0.079071
7719.000000;0.078939
7718.000000;0.078823
7717.000000;0.078773
7716.000000;0.078789
7715.000000;0.078838
7714.000000;0.078893
7713.000000;0.078938
7712.000000;0.078963
7711.000000;0.078959
7710.000000;0.078912
7709.000000;0.078807
7708.000000;0.078654
7707.000000;0.078496
7706.000000;0.078390
7705.000000;0.078357
7704.000000;0.078384
7703.000000;0.078428
7702.000000;0.078445
7701.000000;0.078413
7700.000000;0.078360
7699.000000;0.078358
7698.000000;0.078443
7697.000000;0.078569
7696.000000;0.078641
7695.000000;0.078605
7694.000000;0.078491
7693.000000;0.078384
7692.000000;0.078366
7691.000000;0.078450
7690.000000;0.078564
7689.000000;0.078619
7688.000000;0.078585
7687.000000;0.078515
7686.000000;0.078472
7685.000000;0.078471
7684.000000;0.078472
7683.000000;0.078410
7682.000000;0.078235
7681.000000;0.077964
7680.000000;0.077712
7679.000000;0.077624
7678.000000;0.077747
7677.000000;0.077997
7676.000000;0.078250
7675.000000;0.078428
7674.000000;0.078487
7673.000000;0.078403
7672.000000;0.078212
7671.000000;0.078010
7670.000000;0.077864
7669.000000;0.077765
7668.000000;0.077696
7667.000000;0.077674
7666.000000;0.077703
7665.000000;0.077727
7664.000000;0.077713
7663.000000;0.077710
7662.000000;0.077759
7661.000000;0.077790
7660.000000;0.077708
7659.000000;0.077550
7658.000000;0.077458
7657.000000;0.077499
7656.000000;0.077595
7655.000000;0.077637
7654.000000;0.077592
7653.000000;0.077469
7652.000000;0.077290
7651.000000;0.077116
7650.000000;0.077039
7649.000000;0.077091
7648.000000;0.077197
7647.000000;0.077265
7646.000000;0.077274
7645.000000;0.077271
7644.000000;0.077293
7643.000000;0.077340
7642.000000;0.077392
7641.000000;0.077426
7640.000000;0.077419
7639.000000;0.077372
7638.000000;0.077310
7637.000000;0.077257
7636.000000;0.077209
7635.000000;0.077154
7634.000000;0.077090
7633.000000;0.077028
7632.000000;0.076986
7631.000000;0.076975
7630.000000;0.076985
7629.000000;0.076982
7628.000000;0.076920
7627.000000;0.076783
7626.000000;0.076601
7625.000000;0.076431
7624.000000;0.076323
7623.000000;0.076295
7622.000000;0.076330
7621.000000;0.076395
7620.000000;0.076466
7619.000000;0.076541
7618.000000;0.076609
7617.000000;0.076650
7616.000000;0.076658
7615.000000;0.076657
7614.000000;0.076668
7613.000000;0.076675
7612.000000;0.076653
7611.000000;0.076609
7610.000000;0.076584
7609.000000;0.076588
7608.000000;0.076572
7607.000000;0.076485
7606.000000;0.076331
7605.000000;0.076182
7604.000000;0.076104
7603.000000;0.076095
7602.000000;0.076099
7601.000000;0.076081
7600.000000;0.076072
7599.000000;0.076109
7598.000000;0.076161
7597.000000;0.076165
7596.000000;0.076118
7595.000000;0.076081
7594.000000;0.076080
7593.000000;0.076079
7592.000000;0.076050
7591.000000;0.076023
7590.000000;0.076026
7589.000000;0.076019
7588.000000;0.075947
7587.000000;0.075815
7586.000000;0.075688
7585.000000;0.075623
7584.000000;0.075645
7583.000000;0.075735
7582.000000;0.075821
7581.000000;0.075812
7580.000000;0.075695
7579.000000;0.075566
7578.000000;0.075521
7577.000000;0.075554
7576.000000;0.075598
7575.000000;0.075631
7574.000000;0.075671
7573.000000;0.075700
7572.000000;0.075669
7571.000000;0.075564
7570.000000;0.075422
7569.000000;0.075279
7568.000000;0.075164
7567.000000;0.075106
7566.000000;0.075126
7565.000000;0.075192
7564.000000;0.075252
7563.000000;0.075287
7562.000000;0.075304
7561.000000;0.075288
7560.000000;0.075217
7559.000000;0.075107
7558.000000;0.074991
7557.000000;0.074879
7556.000000;0.074762
7555.000000;0.074668
7554.000000;0.074645
7553.000000;0.074695
7552.000000;0.074785
7551.000000;0.074905
7550.000000;0.075061
7549.000000;0.075205
7548.000000;0.075246
7547.000000;0.075144
7546.000000;0.074953
7545.000000;0.074764
7544.000000;0.074631
7543.000000;0.074570
7542.000000;0.074568
7541.000000;0.074589
7540.000000;0.074592
7539.000000;0.074567
7538.000000;0.074541
7537.000000;0.074539
7536.000000;0.074563
7535.000000;0.074588
7534.000000;0.074574
7533.000000;0.074503
7532.000000;0.074411
7531.000000;0.074371
7530.000000;0.074390
7529.000000;0.074384
7528.000000;0.074298
7527.000000;0.074206
7526.000000;0.074227
7525.000000;0.074364
7524.000000;0.074499
7523.000000;0.074536
7522.000000;0.074479
7521.000000;0.074377
7520.000000;0.074259
7519.000000;0.074149
7518.000000;0.074063
7517.000000;0.073984
7516.000000;0.073876
7515.000000;0.073752
7514.000000;0.073675
7513.000000;0.073671
7512.000000;0.073692
7511.000000;0.073674
7510.000000;0.073602
7509.000000;0.073506
7508.000000;0.073437
7507.000000;0.073448
7506.000000;0.073558
7505.000000;0.073700
7504.000000;0.073773
7503.000000;0.073738
7502.000000;0.073645
7501.000000;0.073548
7500.000000;0.073453
7499.000000;0.073349
7498.000000;0.073240
7497.000000;0.073161
7496.000000;0.073098
7495.000000;0.073054
7494.000000;0.073108
7493.000000;0.073165
7492.000000;0.073196
7491.000000;0.073174
7490.000000;0.073105
7489.000000;0.072999
7488.000000;0.072880
7487.000000;0.072793
7486.000000;0.072754
7485.000000;0.072734
7484.000000;0.072714
7483.000000;0.072743
7482.000000;0.072856
7481.000000;0.072980
7480.000000;0.072997
7479.000000;0.072898
7478.000000;0.072789
7477.000000;0.072736
7476.000000;0.072702
7475.000000;0.072635
7474.000000;0.072551
7473.000000;0.072495
7472.000000;0.072476
7471.000000;0.072470
7470.000000;0.072442
7469.000000;0.072369
7468.000000;0.072275
7467.000000;0.072240
7466.000000;0.072317
7465.000000;0.072451
7464.000000;0.072537
7463.000000;0.072557
7462.000000;0.072574
7461.000000;0.072594
7460.000000;0.072538
7459.000000;0.072368
7458.000000;0.072167
7457.000000;0.072054
7456.000000;0.072069
7455.000000;0.072167
7454.000000;0.072278
7453.000000;0.072352
7452.000000;0.072372
7451.000000;0.072359
7450.000000;0.072310
7449.000000;0.072173
7448.000000;0.071927
7447.000000;0.071663
7446.000000;0.071520
7445.000000;0.071534
7444.000000;0.071636
7443.000000;0.071770
7442.000000;0.071915
7441.000000;0.072007
7440.000000;0.071971
7439.000000;0.071847
7438.000000;0.071771
7437.000000;0.071790
7436.000000;0.071789
7435.000000;0.071660
7434.000000;0.071448
7433.000000;0.071272
7432.000000;0.071190
7431.000000;0.071182
7430.000000;0.071217
7429.000000;0.071261
7428.000000;0.071275
7427.000000;0.071266
7426.000000;0.071278
7425.000000;0.071308
7424.000000;0.071289
7423.000000;0.071213
7422.000000;0.071185
7421.000000;0.071287
7420.000000;0.071434
7419.000000;0.071460
7418.000000;0.071298
7417.000000;0.071036
7416.000000;0.070821
7415.000000;0.070753
7414.000000;0.070833
7413.000000;0.070976
7412.000000;0.071088
7411.000000;0.071125
7410.000000;0.071073
7409.000000;0.070921
7408.000000;0.070720
7407.000000;0.070599
7406.000000;0.070621
7405.000000;0.070673
7404.000000;0.070618
7403.000000;0.070495
7402.000000;0.070459
7401.000000;0.070566
7400.000000;0.070732
7399.000000;0.070851
7398.000000;0.070855
7397.000000;0.070732
7396.000000;0.070590
7395.000000;0.070565
7394.000000;0.070583
7393.000000;0.070376
7392.000000;0.069874
7391.000000;0.069386
7390.000000;0.069243
7389.000000;0.069404
7388.000000;0.069625
7387.000000;0.069841
7386.000000;0.070088
7385.000000;0.070217
7384.000000;0.070073
7383.000000;0.069911
7382.000000;0.070132
7381.000000;0.070571
7380.000000;0.070564
7379.000000;0.069947
7378.000000;0.069477
7377.000000;0.069831
7376.000000;0.070647
7375.000000;0.070991
7374.000000;0.070519
7373.000000;0.069721
7372.000000;0.069219
7371.000000;0.069236
7370.000000;0.069612
7369.000000;0.069953
7368.000000;0.069880
7367.000000;0.069426
7366.000000;0.069058
7365.000000;0.069083
7364.000000;0.069278
7363.000000;0.069325
7362.000000;0.069295
7361.000000;0.069326
7360.000000;0.069183
7359.000000;0.068722
7358.000000;0.068466
7357.000000;0.068975
7356.000000;0.069888
7355.000000;0.070265
7354.000000;0.069834
7353.000000;0.069186
7352.000000;0.068847
7351.000000;0.068865
7350.000000;0.069167
7349.000000;0.069587
7348.000000;0.069631
7347.000000;0.069019
7346.000000;0.068317
7345.000000;0.068268
7344.000000;0.068684
7343.000000;0.068915
7342.000000;0.069166
7341.000000;0.070171
7340.000000;0.071558
7339.000000;0.071855
7338.000000;0.070619
7337.000000;0.069187
7336.000000;0.068784
7335.000000;0.069098
7334.000000;0.069250
7333.000000;0.069049
7332.000000;0.068682
7331.000000;0.068213
7330.000000;0.068008
7329.000000;0.068612
7328.000000;0.069624
7327.000000;0.069767
7326.000000;0.068756
7325.000000;0.067961
7324.000000;0.068401
7323.000000;0.069261
7322.000000;0.069242
7321.000000;0.068472
7320.000000;0.068063
7319.000000;0.068372
7318.000000;0.068811
7317.000000;0.068982
7316.000000;0.068921
7315.000000;0.068586
7314.000000;0.068076
7313.000000;0.068036
7312.000000;0.068820
7311.000000;0.069592
7310.000000;0.069390
7309.000000;0.068659
7308.000000;0.068564
7307.000000;0.069093
7306.000000;0.069104
7305.000000;0.068210
7304.000000;0.067346
7303.000000;0.067231
7302.000000;0.067522
7301.000000;0.067739
7300.000000;0.067928
7299.000000;0.068023
7298.000000;0.067598
7297.000000;0.066870
7296.000000;0.066880
7295.000000;0.067992
7294.000000;0.069071
7293.000000;0.068939
7292.000000;0.068042
7291.000000;0.067739
7290.000000;0.068478
7289.000000;0.069526
7288.000000;0.070073
7287.000000;0.069933
7286.000000;0.069323
7285.000000;0.068559
7284.000000;0.067999
7283.000000;0.067836
7282.000000;0.067889
7281.000000;0.067846
7280.000000;0.067686
7279.000000;0.067619
7278.000000;0.067686
7277.000000;0.067761
7276.000000;0.067845
7275.000000;0.068077
7274.000000;0.068436
7273.000000;0.068686
7272.000000;0.068654
7271.000000;0.068454
7270.000000;0.068375
7269.000000;0.068591
7268.000000;0.068986
7267.000000;0.069235
7266.000000;0.069160
7265.000000;0.069017
7264.000000;0.069253
7263.000000;0.069917
7262.000000;0.070484
7261.000000;0.070451
7260.000000;0.069935
7259.000000;0.069458
7258.000000;0.069276
7257.000000;0.069251
7256.000000;0.069302
7255.000000;0.069591
7254.000000;0.070129
7253.000000;0.070556
7252.000000;0.070493
7251.000000;0.070000
7250.000000;0.069563
7249.000000;0.069581
7248.000000;0.069919
7247.000000;0.070075
7246.000000;0.069931
7245.000000;0.070085
7244.000000;0.071047
7243.000000;0.072306
7242.000000;0.072704
7241.000000;0.071887
7240.000000;0.070827
7239.000000;0.070574
7238.000000;0.070992
7237.000000;0.071139
7236.000000;0.070649
7235.000000;0.070274
7234.000000;0.070888
7233.000000;0.072292
7232.000000;0.073229
7231.000000;0.072703
7230.000000;0.071164
7229.000000;0.070085
7228.000000;0.070356
7227.000000;0.071413
7226.000000;0.072029
7225.000000;0.071639
7224.000000;0.070668
7223.000000;0.069895
7222.000000;0.069759
7221.000000;0.070144
7220.000000;0.070541
7219.000000;0.070463
7218.000000;0.069907
7217.000000;0.069336
7216.000000;0.069143
7215.000000;0.069228
7214.000000;0.069220
7213.000000;0.069018
7212.000000;0.068884
7211.000000;0.069001
7210.000000;0.069193
7209.000000;0.069255
7208.000000;0.069303
7207.000000;0.069608
7206.000000;0.070204
7205.000000;0.070786
7204.000000;0.070953
7203.000000;0.070549
7202.000000;0.069821
7201.000000;0.069223
7200.000000;0.068987
7199.000000;0.068922
7198.000000;0.068715
7197.000000;0.068375
7196.000000;0.068188
7195.000000;0.068233
7194.000000;0.068219
7193.000000;0.067968
7192.000000;0.067733
7191.000000;0.067798
7190.000000;0.067998
7189.000000;0.068001
7188.000000;0.067841
7187.000000;0.067745
7186.000000;0.067602
7185.000000;0.067141
7184.000000;0.066590
7183.000000;0.066547
7182.000000;0.067061
7181.000000;0.067439
7180.000000;0.067222
7179.000000;0.066853
7178.000000;0.066986
7177.000000;0.067546
7176.000000;0.067941
7175.000000;0.067866
7174.000000;0.067483
7173.000000;0.067040
7172.000000;0.066734
7171.000000;0.066831
7170.000000;0.067415
7169.000000;0.068111
7168.000000;0.068431
7167.000000;0.068277
7166.000000;0.067824
7165.000000;0.067131
7164.000000;0.066338
7163.000000;0.065896
7162.000000;0.066080
7161.000000;0.066460
7160.000000;0.066386
7159.000000;0.065963
7158.000000;0.065929
7157.000000;0.066519
7156.000000;0.067073
7155.000000;0.066972
7154.000000;0.066397
7153.000000;0.065929
7152.000000;0.065800
7151.000000;0.065831
7150.000000;0.065802
7149.000000;0.065653
7148.000000;0.065460
7147.000000;0.065376
7146.000000;0.065522
7145.000000;0.065801
7144.000000;0.065925
7143.000000;0.065763
7142.000000;0.065638
7141.000000;0.065943
7140.000000;0.066485
7139.000000;0.066579
7138.000000;0.065966
7137.000000;0.065261
7136.000000;0.065168
7135.000000;0.065567
7134.000000;0.065767
7133.000000;0.065475
7132.000000;0.065076
7131.000000;0.064943
7130.000000;0.064955
7129.000000;0.064864
7128.000000;0.064739
7127.000000;0.064731
7126.000000;0.064735
7125.000000;0.064639
7124.000000;0.064631
7123.000000;0.064847
7122.000000;0.064963
7121.000000;0.064601
7120.000000;0.064025
7119.000000;0.063875
7118.000000;0.064208
7117.000000;0.064357
7116.000000;0.063952
7115.000000;0.063539
7114.000000;0.063771
7113.000000;0.064447
7112.000000;0.064827
7111.000000;0.064613
7110.000000;0.064183
7109.000000;0.063960
7108.000000;0.064001
7107.000000;0.064169
7106.000000;0.064301
7105.000000;0.064212
7104.000000;0.063846
7103.000000;0.063449
7102.000000;0.063349
7101.000000;0.063538
7100.000000;0.063654
7099.000000;0.063397
7098.000000;0.062887
7097.000000;0.062513
7096.000000;0.062477
7095.000000;0.062619
7094.000000;0.062702
7093.000000;0.062721
7092.000000;0.062845
7091.000000;0.063113
7090.000000;0.063323
7089.000000;0.063264
7088.000000;0.062985
7087.000000;0.062732
7086.000000;0.062636
7085.000000;0.062582
7084.000000;0.062418
7083.000000;0.062186
7082.000000;0.062038
7081.000000;0.062008
7080.000000;0.061960
7079.000000;0.061809
7078.000000;0.061674
7077.000000;0.061705
7076.000000;0.061827
7075.000000;0.061816
7074.000000;0.061623
7073.000000;0.061424
7072.000000;0.061350
7071.000000;0.061345
7070.000000;0.061328
7069.000000;0.061357
7068.000000;0.061505
7067.000000;0.061694
7066.000000;0.061760
7065.000000;0.061656
7064.000000;0.061485
7063.000000;0.061345
7062.000000;0.061236
7061.000000;0.061128
7060.000000;0.061019
7059.000000;0.060886
7058.000000;0.060707
7057.000000;0.060536
7056.000000;0.060462
7055.000000;0.060484
7054.000000;0.060508
7053.000000;0.060446
7052.000000;0.060289
7051.000000;0.060102
7050.000000;0.059973
7049.000000;0.059942
7048.000000;0.059961
7047.000000;0.059929
7046.000000;0.059814
7045.000000;0.059718
7044.000000;0.059752
7043.000000;0.059875
7042.000000;0.059938
7041.000000;0.059889
7040.000000;0.059806
7039.000000;0.059732
7038.000000;0.059600
7037.000000;0.059382
7036.000000;0.059184
7035.000000;0.059110
7034.000000;0.059131
7033.000000;0.059141
7032.000000;0.059087
7031.000000;0.059001
7030.000000;0.058920
7029.000000;0.058866
7028.000000;0.058843
7027.000000;0.058821
7026.000000;0.058752
7025.000000;0.058647
7024.000000;0.058570
7023.000000;0.058534
7022.000000;0.058452
7021.000000;0.058262
7020.000000;0.058025
7019.000000;0.057858
7018.000000;0.057793
7017.000000;0.057770
7016.000000;0.057747
7015.000000;0.057721
7014.000000;0.057683
7013.000000;0.057622
7012.000000;0.057557
7011.000000;0.057511
7010.000000;0.057467
7009.000000;0.057409
7008.000000;0.057361
7007.000000;0.057332
7006.000000;0.057269
7005.000000;0.057125
7004.000000;0.056944
7003.000000;0.056805
7002.000000;0.056709
7001.000000;0.056606
7000.000000;0.056496
6999.000000;0.056426
6998.000000;0.056390
6997.000000;0.056332
6996.000000;0.056247
6995.000000;0.056197
6994.000000;0.056212
6993.000000;0.056239
6992.000000;0.056221
6991.000000;0.056167
6990.000000;0.056109
6989.000000;0.056054
6988.000000;0.056004
6987.000000;0.055958
6986.000000;0.055882
6985.000000;0.055733
6984.000000;0.055556
6983.000000;0.055467
6982.000000;0.055510
6981.000000;0.055573
6980.000000;0.055516
6979.000000;0.055334
6978.000000;0.055146
6977.000000;0.055030
6976.000000;0.054946
6975.000000;0.054839
6974.000000;0.054738
6973.000000;0.054703
6972.000000;0.054709
6971.000000;0.054663
6970.000000;0.054544
6969.000000;0.054435
6968.000000;0.054399
6967.000000;0.054382
6966.000000;0.054294
6965.000000;0.054141
6964.000000;0.054008
6963.000000;0.053934
6962.000000;0.053868
6961.000000;0.053780
6960.000000;0.053702
6959.000000;0.053673
6958.000000;0.053701
6957.000000;0.053782
6956.000000;0.053893
6955.000000;0.053940
6954.000000;0.053821
6953.000000;0.053554
6952.000000;0.053284
6951.000000;0.053122
6950.000000;0.053055
6949.000000;0.053030
6948.000000;0.053032
6947.000000;0.053037
6946.000000;0.052965
6945.000000;0.052779
6944.000000;0.052571
6943.000000;0.052458
6942.000000;0.052426
6941.000000;0.052386
6940.000000;0.052332
6939.000000;0.052343
6938.000000;0.052419
6937.000000;0.052449
6936.000000;0.052348
6935.000000;0.052165
6934.000000;0.052019
6933.000000;0.051979
6932.000000;0.052024
6931.000000;0.052077
6930.000000;0.052055
6929.000000;0.051933
6928.000000;0.051765
6927.000000;0.051625
6926.000000;0.051525
6925.000000;0.051427
6924.000000;0.051319
6923.000000;0.051230
6922.000000;0.051166
6921.000000;0.051103
6920.000000;0.051067
6919.000000;0.051129
6918.000000;0.051280
6917.000000;0.051390
6916.000000;0.051346
6915.000000;0.051176
6914.000000;0.051010
6913.000000;0.050932
6912.000000;0.050918
6911.000000;0.050882
6910.000000;0.050768
6909.000000;0.050586
6908.000000;0.050399
6907.000000;0.050264
6906.000000;0.050187
6905.000000;0.050131
6904.000000;0.050067
6903.000000;0.049996
6902.000000;0.049924
6901.000000;0.049839
6900.000000;0.049741
6899.000000;0.049642
6898.000000;0.049542
6897.000000;0.049443
6896.000000;0.049376
6895.000000;0.049375
6894.000000;0.049418
6893.000000;0.049442
6892.000000;0.049409
6891.000000;0.049326
6890.000000;0.049213
6889.000000;0.049094
6888.000000;0.049018
6887.000000;0.049025
6886.000000;0.049075
6885.000000;0.049075
6884.000000;0.048983
6883.000000;0.048850
6882.000000;0.048733
6881.000000;0.048628
6880.000000;0.048515
6879.000000;0.048412
6878.000000;0.048348
6877.000000;0.048308
6876.000000;0.048244
6875.000000;0.048132
6874.000000;0.048004
6873.000000;0.047904
6872.000000;0.047842
6871.000000;0.047794
6870.000000;0.047745
6869.000000;0.047719
6868.000000;0.047739
6867.000000;0.047777
6866.000000;0.047757
6865.000000;0.047642
6864.000000;0.047480
6863.000000;0.047348
6862.000000;0.047270
6861.000000;0.047221
6860.000000;0.047179
6859.000000;0.047142
6858.000000;0.047097
6857.000000;0.047026
6856.000000;0.046933
6855.000000;0.046835
6854.000000;0.046731
6853.000000;0.046596
6852.000000;0.046435
6851.000000;0.046302
6850.000000;0.046258
6849.000000;0.046305
6848.000000;0.046384
6847.000000;0.046430
6846.000000;0.046412
6845.000000;0.046338
6844.000000;0.046224
6843.000000;0.046093
6842.000000;0.045969
6841.000000;0.045873
6840.000000;0.045801
6839.000000;0.045729
6838.000000;0.045650
6837.000000;0.045613
6836.000000;0.045671
6835.000000;0.045794
6834.000000;0.045870
6833.000000;0.045824
6832.000000;0.045697
6831.000000;0.045577
6830.000000;0.045488
6829.000000;0.045396
6828.000000;0.045297
6827.000000;0.045227
6826.000000;0.045188
6825.000000;0.045120
6824.000000;0.044982
6823.000000;0.044816
6822.000000;0.044688
6821.000000;0.044620
6820.000000;0.044594
6819.000000;0.044592
6818.000000;0.044588
6817.000000;0.044541
6816.000000;0.044424
6815.000000;0.044270
6814.000000;0.044144
6813.000000;0.044071
6812.000000;0.044019
6811.000000;0.043951
6810.000000;0.043861
6809.000000;0.043762
6808.000000;0.043680
6807.000000;0.043647
6806.000000;0.043675
6805.000000;0.043718
6804.000000;0.043696
6803.000000;0.043585
6802.000000;0.043456
6801.000000;0.043399
6800.000000;0.043415
6799.000000;0.043422
6798.000000;0.043373
6797.000000;0.043310
6796.000000;0.043301
6795.000000;0.043349
6794.000000;0.043399
6793.000000;0.043406
6792.000000;0.043353
6791.000000;0.043237
6790.000000;0.043071
6789.000000;0.042898
6788.000000;0.042766
6787.000000;0.042679
6786.000000;0.042602
6785.000000;0.042528
6784.000000;0.042495
6783.000000;0.042513
6782.000000;0.042527
6781.000000;0.042472
6780.000000;0.042350
6779.000000;0.042221
6778.000000;0.042136
6777.000000;0.042093
6776.000000;0.042056
6775.000000;0.041995
6774.000000;0.041912
6773.000000;0.041842
6772.000000;0.041802
6771.000000;0.041754
6770.000000;0.041645
6769.000000;0.041496
6768.000000;0.041405
6767.000000;0.041426
6766.000000;0.041500
6765.000000;0.041526
6764.000000;0.041470
6763.000000;0.041363
6762.000000;0.041237
6761.000000;0.041110
6760.000000;0.041013
6759.000000;0.040966
6758.000000;0.040940
6757.000000;0.040905
6756.000000;0.040878
6755.000000;0.040897
6754.000000;0.040937
6753.000000;0.040927
6752.000000;0.040844
6751.000000;0.040733
6750.000000;0.040635
6749.000000;0.040540
6748.000000;0.040430
6747.000000;0.040327
6746.000000;0.040263
6745.000000;0.040238
6744.000000;0.040220
6743.000000;0.040179
6742.000000;0.040109
6741.000000;0.040035
6740.000000;0.039994
6739.000000;0.039993
6738.000000;0.039992
6737.000000;0.039934
6736.000000;0.039817
6735.000000;0.039699
6734.000000;0.039629
6733.000000;0.039598
6732.000000;0.039559
6731.000000;0.039479
6730.000000;0.039361
6729.000000;0.039237
6728.000000;0.039145
6727.000000;0.039099
6726.000000;0.039081
6725.000000;0.039071
6724.000000;0.039065
6723.000000;0.039065
6722.000000;0.039052
6721.000000;0.039001
6720.000000;0.038918
6719.000000;0.038828
6718.000000;0.038741
6717.000000;0.038653
6716.000000;0.038579
6715.000000;0.038554
6714.000000;0.038576
6713.000000;0.038605
6712.000000;0.038592
6711.000000;0.038532
6710.000000;0.038451
6709.000000;0.038353
6708.000000;0.038244
6707.000000;0.038148
6706.000000;0.038079
6705.000000;0.037988
6704.000000;0.037893
6703.000000;0.037783
6702.000000;0.037783
6701.000000;0.037848
6700.000000;0.037867
6699.000000;0.037913
6698.000000;0.037904
6697.000000;0.037858
6696.000000;0.037793
6695.000000;0.037743
6694.000000;0.037704
6693.000000;0.037651
6692.000000;0.037572
6691.000000;0.037485
6690.000000;0.037408
6689.000000;0.037345
6688.000000;0.037286
6687.000000;0.037225
6686.000000;0.037172
6685.000000;0.037140
6684.000000;0.037129
6683.000000;0.037112
6682.000000;0.037060
6681.000000;0.036984
6680.000000;0.036927
6679.000000;0.036917
6678.000000;0.036929
6677.000000;0.036916
6676.000000;0.036860
6675.000000;0.036775
6674.000000;0.036684
6673.000000;0.036599
6672.000000;0.036529
6671.000000;0.036473
6670.000000;0.036423
6669.000000;0.036369
6668.000000;0.036310
6667.000000;0.036244
6666.000000;0.036166
6665.000000;0.036091
6664.000000;0.036046
6663.000000;0.036033
6662.000000;0.036027
6661.000000;0.036021
6660.000000;0.036042
6659.000000;0.036095
6658.000000;0.036123
6657.000000;0.036071
6656.000000;0.035957
6655.000000;0.035841
6654.000000;0.035747
6653.000000;0.035651
6652.000000;0.035544
6651.000000;0.035445
6650.000000;0.035371
6649.000000;0.035328
6648.000000;0.035327
6647.000000;0.035361
6646.000000;0.035383
6645.000000;0.035339
6644.000000;0.035237
6643.000000;0.035140
6642.000000;0.035088
6641.000000;0.035051
6640.000000;0.034991
6639.000000;0.034921
6638.000000;0.034875
6637.000000;0.034854
6636.000000;0.034828
6635.000000;0.034777
6634.000000;0.034712
6633.000000;0.034666
6632.000000;0.034665
6631.000000;0.034703
6630.000000;0.034740
6629.000000;0.034729
6628.000000;0.034657
6627.000000;0.034551
6626.000000;0.034455
6625.000000;0.034394
6624.000000;0.034362
6623.000000;0.034332
6622.000000;0.034273
6621.000000;0.034179
6620.000000;0.034082
6619.000000;0.034016
6618.000000;0.033975
6617.000000;0.033924
6616.000000;0.033842
6615.000000;0.033746
6614.000000;0.033669
6613.000000;0.033630
6612.000000;0.033626
6611.000000;0.033630
6610.000000;0.033608
6609.000000;0.033558
6608.000000;0.033511
6607.000000;0.033486
6606.000000;0.033460
6605.000000;0.033396
6604.000000;0.033300
6603.000000;0.033224
6602.000000;0.033202
6601.000000;0.033214
6600.000000;0.033219
6599.000000;0.033192
6598.000000;0.033138
6597.000000;0.033078
6596.000000;0.033033
6595.000000;0.033004
6594.000000;0.032982
6593.000000;0.032961
6592.000000;0.032954
6591.000000;0.032973
6590.000000;0.033009
6589.000000;0.033040
6588.000000;0.033053
6587.000000;0.033046
6586.000000;0.033010
6585.000000;0.032935
6584.000000;0.032834
6583.000000;0.032737
6582.000000;0.032664
6581.000000;0.032612
6580.000000;0.032567
6579.000000;0.032518
6578.000000;0.032462
6577.000000;0.032404
6576.000000;0.032355
6575.000000;0.032309
6574.000000;0.032253
6573.000000;0.032188
6572.000000;0.032143
6571.000000;0.032129
6570.000000;0.032119
6569.000000;0.032078
6568.000000;0.032007
6567.000000;0.031935
6566.000000;0.031879
6565.000000;0.031841
6564.000000;0.031826
6563.000000;0.031833
6562.000000;0.031829
6561.000000;0.031781
6560.000000;0.031688
6559.000000;0.031593
6558.000000;0.031533
6557.000000;0.031520
6556.000000;0.031538
6555.000000;0.031562
6554.000000;0.031561
6553.000000;0.031526
6552.000000;0.031480
6551.000000;0.031444
6550.000000;0.031410
6549.000000;0.031366
6548.000000;0.031326
6547.000000;0.031315
6546.000000;0.031318
6545.000000;0.031291
6544.000000;0.031216
6543.000000;0.031123
6542.000000;0.031051
6541.000000;0.031006
6540.000000;0.030971
6539.000000;0.030929
6538.000000;0.030877
6537.000000;0.030827
6536.000000;0.030791
6535.000000;0.030766
6534.000000;0.030731
6533.000000;0.030674
6532.000000;0.030607
6531.000000;0.030547
6530.000000;0.030487
6529.000000;0.030413
6528.000000;0.030327
6527.000000;0.030245
6526.000000;0.030180
6525.000000;0.030150
6524.000000;0.030177
6523.000000;0.030261
6522.000000;0.030351
6521.000000;0.030387
6520.000000;0.030351
6519.000000;0.030276
6518.000000;0.030199
6517.000000;0.030141
6516.000000;0.030106
6515.000000;0.030079
6514.000000;0.030034
6513.000000;0.029965
6512.000000;0.029905
6511.000000;0.029886
6510.000000;0.029893
6509.000000;0.029890
6508.000000;0.029868
6507.000000;0.029846
6506.000000;0.029834
6505.000000;0.029818
6504.000000;0.029789
6503.000000;0.029746
6502.000000;0.029683
6501.000000;0.029598
6500.000000;0.029519
6499.000000;0.029478
6498.000000;0.029471
6497.000000;0.029464
6496.000000;0.029440
6495.000000;0.029409
6494.000000;0.029377
6493.000000;0.029341
6492.000000;0.029306
6491.000000;0.029277
6490.000000;0.029243
6489.000000;0.029182
6488.000000;0.029108
6487.000000;0.029050
6486.000000;0.029018
6485.000000;0.028987
6484.000000;0.028954
6483.000000;0.028943
6482.000000;0.028973
6481.000000;0.029018
6480.000000;0.029034
6479.000000;0.028996
6478.000000;0.028916
6477.000000;0.028828
6476.000000;0.028769
6475.000000;0.028748
6474.000000;0.028732
6473.000000;0.028689
6472.000000;0.028625
6471.000000;0.028573
6470.000000;0.028555
6469.000000;0.028571
6468.000000;0.028611
6467.000000;0.028656
6466.000000;0.028670
6465.000000;0.028628
6464.000000;0.028559
6463.000000;0.028511
6462.000000;0.028487
6461.000000;0.028452
6460.000000;0.028399
6459.000000;0.028366
6458.000000;0.028378
6457.000000;0.028411
6456.000000;0.028430
6455.000000;0.028429
6454.000000;0.028421
6453.000000;0.028412
6452.000000;0.028409
6451.000000;0.028411
6450.000000;0.028397
6449.000000;0.028339
6448.000000;0.028254
6447.000000;0.028205
6446.000000;0.028227
6445.000000;0.028280
6444.000000;0.028288
6443.000000;0.028217
6442.000000;0.028096
6441.000000;0.027978
6440.000000;0.027894
6439.000000;0.027843
6438.000000;0.027808
6437.000000;0.027780
6436.000000;0.027764
6435.000000;0.027773
6434.000000;0.027799
6433.000000;0.027821
6432.000000;0.027827
6431.000000;0.027822
6430.000000;0.027807
6429.000000;0.027783
6428.000000;0.027765
6427.000000;0.027777
6426.000000;0.027812
6425.000000;0.027830
6424.000000;0.027798
6423.000000;0.027730
6422.000000;0.027668
6421.000000;0.027638
6420.000000;0.027644
6419.000000;0.027676
6418.000000;0.027720
6417.000000;0.027759
6416.000000;0.027780
6415.000000;0.027778
6414.000000;0.027755
6413.000000;0.027704
6412.000000;0.027621
6411.000000;0.027509
6410.000000;0.027393
6409.000000;0.027307
6408.000000;0.027272
6407.000000;0.027274
6406.000000;0.027275
6405.000000;0.027248
6404.000000;0.027201
6403.000000;0.027157
6402.000000;0.027117
6401.000000;0.027057
6400.000000;0.026965
6399.000000;0.026857
6398.000000;0.026772
6397.000000;0.026738
6396.000000;0.026755
6395.000000;0.026799
6394.000000;0.026843
6393.000000;0.026874
6392.000000;0.026897
6391.000000;0.026908
6390.000000;0.026895
6389.000000;0.026861
6388.000000;0.026834
6387.000000;0.026842
6386.000000;0.026876
6385.000000;0.026895
6384.000000;0.026864
6383.000000;0.026775
6382.000000;0.026657
6381.000000;0.026566
6380.000000;0.026555
6379.000000;0.026628
6378.000000;0.026731
6377.000000;0.026805
6376.000000;0.026829
6375.000000;0.026807
6374.000000;0.026742
6373.000000;0.026649
6372.000000;0.026571
6371.000000;0.026546
6370.000000;0.026560
6369.000000;0.026563
6368.000000;0.026527
6367.000000;0.026470
6366.000000;0.026415
6365.000000;0.026364
6364.000000;0.026316
6363.000000;0.026275
6362.000000;0.026242
6361.000000;0.026209
6360.000000;0.026179
6359.000000;0.026163
6358.000000;0.026163
6357.000000;0.026166
6356.000000;0.026161
6355.000000;0.026144
6354.000000;0.026117
6353.000000;0.026088
6352.000000;0.026077
6351.000000;0.026091
6350.000000;0.026106
6349.000000;0.026094
6348.000000;0.026062
6347.000000;0.026040
6346.000000;0.026036
6345.000000;0.026026
6344.000000;0.025994
6343.000000;0.025965
6342.000000;0.025968
6341.000000;0.025997
6340.000000;0.026023
6339.000000;0.026023
6338.000000;0.026001
6337.000000;0.025973
6336.000000;0.025954
6335.000000;0.025943
6334.000000;0.025929
6333.000000;0.025902
6332.000000;0.025863
6331.000000;0.025824
6330.000000;0.025785
6329.000000;0.025745
6328.000000;0.025714
6327.000000;0.025714
6326.000000;0.025747
6325.000000;0.025790
6324.000000;0.025816
6323.000000;0.025822
6322.000000;0.025815
6321.000000;0.025782
6320.000000;0.025695
6319.000000;0.025549
6318.000000;0.025387
6317.000000;0.025274
6316.000000;0.025238
6315.000000;0.025251
6314.000000;0.025272
6313.000000;0.025288
6312.000000;0.025311
6311.000000;0.025331
6310.000000;0.025318
6309.000000;0.025270
6308.000000;0.025226
6307.000000;0.025222
6306.000000;0.025248
6305.000000;0.025270
6304.000000;0.025272
6303.000000;0.025261
6302.000000;0.025243
6301.000000;0.025218
6300.000000;0.025192
6299.000000;0.025174
6298.000000;0.025157
6297.000000;0.025135
6296.000000;0.025112
6295.000000;0.025095
6294.000000;0.025078
6293.000000;0.025046
6292.000000;0.025002
6291.000000;0.024958
6290.000000;0.024920
6289.000000;0.024888
6288.000000;0.024867
6287.000000;0.024860
6286.000000;0.024866
6285.000000;0.024875
6284.000000;0.024883
6283.000000;0.024882
6282.000000;0.024867
6281.000000;0.024846
6280.000000;0.024844
6279.000000;0.024873
6278.000000;0.024911
6277.000000;0.024933
6276.000000;0.024931
6275.000000;0.024915
6274.000000;0.024891
6273.000000;0.024865
6272.000000;0.024849
6271.000000;0.024842
6270.000000;0.024826
6269.000000;0.024784
6268.000000;0.024723
6267.000000;0.024652
6266.000000;0.024578
6265.000000;0.024505
6264.000000;0.024444
6263.000000;0.024402
6262.000000;0.024376
6261.000000;0.024370
6260.000000;0.024390
6259.000000;0.024416
6258.000000;0.024399
6257.000000;0.024318
6256.000000;0.024220
6255.000000;0.024171
6254.000000;0.024188
6253.000000;0.024234
6252.000000;0.024272
6251.000000;0.024286
6250.000000;0.024273
6249.000000;0.024248
6248.000000;0.024244
6247.000000;0.024283
6246.000000;0.024344
6245.000000;0.024381
6244.000000;0.024367
6243.000000;0.024307
6242.000000;0.024226
6241.000000;0.024157
6240.000000;0.024129
6239.000000;0.024139
6238.000000;0.024144
6237.000000;0.024117
6236.000000;0.024081
6235.000000;0.024073
6234.000000;0.024090
6233.000000;0.024098
6232.000000;0.024086
6231.000000;0.024069
6230.000000;0.024057
6229.000000;0.024040
6228.000000;0.024009
6227.000000;0.023970
6226.000000;0.023925
6225.000000;0.023874
6224.000000;0.023823
6223.000000;0.023777
6222.000000;0.023733
6221.000000;0.023691
6220.000000;0.023672
6219.000000;0.023689
6218.000000;0.023717
6217.000000;0.023725
6216.000000;0.023709
6215.000000;0.023699
6214.000000;0.023713
6213.000000;0.023742
6212.000000;0.023766
6211.000000;0.023764
6210.000000;0.023721
6209.000000;0.023651
6208.000000;0.023594
6207.000000;0.023575
6206.000000;0.023576
6205.000000;0.023563
6204.000000;0.023541
6203.000000;0.023537
6202.000000;0.023551
6201.000000;0.023557
6200.000000;0.023536
6199.000000;0.023489
6198.000000;0.023425
6197.000000;0.023364
6196.000000;0.023336
6195.000000;0.023351
6194.000000;0.023374
6193.000000;0.023351
6192.000000;0.023273
6191.000000;0.023176
6190.000000;0.023095
6189.000000;0.023043
6188.000000;0.023029
6187.000000;0.023054
6186.000000;0.023099
6185.000000;0.023126
6184.000000;0.023116
6183.000000;0.023083
6182.000000;0.023045
6181.000000;0.023014
6180.000000;0.022996
6179.000000;0.022996
6178.000000;0.023007
6177.000000;0.023017
6176.000000;0.023012
6175.000000;0.022979
6174.000000;0.022913
6173.000000;0.022838
6172.000000;0.022804
6171.000000;0.022837
6170.000000;0.022907
6169.000000;0.022964
6168.000000;0.022986
6167.000000;0.022984
6166.000000;0.022971
6165.000000;0.022947
6164.000000;0.022914
6163.000000;0.022869
6162.000000;0.022802
6161.000000;0.022717
6160.000000;0.022649
6159.000000;0.022631
6158.000000;0.022642
6157.000000;0.022639
6156.000000;0.022611
6155.000000;0.022587
6154.000000;0.022586
6153.000000;0.022592
6152.000000;0.022584
6151.000000;0.022556
6150.000000;0.022508
6149.000000;0.022448
6148.000000;0.022394
6147.000000;0.022359
6146.000000;0.022340
6145.000000;0.022330
6144.000000;0.022327
6143.000000;0.022331
6142.000000;0.022329
6141.000000;0.022315
6140.000000;0.022306
6139.000000;0.022310
6138.000000;0.022312
6137.000000;0.022292
6136.000000;0.022263
6135.000000;0.022241
6134.000000;0.022215
6133.000000;0.022167
6132.000000;0.022112
6131.000000;0.022082
6130.000000;0.022083
6129.000000;0.022090
6128.000000;0.022086
6127.000000;0.022075
6126.000000;0.022052
6125.000000;0.022002
6124.000000;0.021921
6123.000000;0.021825
6122.000000;0.021739
6121.000000;0.021689
6120.000000;0.021704
6119.000000;0.021778
6118.000000;0.021857
6117.000000;0.021879
6116.000000;0.021840
6115.000000;0.021780
6114.000000;0.021725
6113.000000;0.021663
6112.000000;0.021573
6111.000000;0.021458
6110.000000;0.021350
6109.000000;0.021291
6108.000000;0.021307
6107.000000;0.021373
6106.000000;0.021425
6105.000000;0.021429
6104.000000;0.021418
6103.000000;0.021440
6102.000000;0.021491
6101.000000;0.021534
6100.000000;0.021563
6099.000000;0.021600
6098.000000;0.021639
6097.000000;0.021641
6096.000000;0.021587
6095.000000;0.021495
6094.000000;0.021393
6093.000000;0.021295
6092.000000;0.021223
6091.000000;0.021187
6090.000000;0.021166
6089.000000;0.021129
6088.000000;0.021080
6087.000000;0.021060
6086.000000;0.021083
6085.000000;0.021117
6084.000000;0.021118
6083.000000;0.021073
6082.000000;0.020996
6081.000000;0.020920
6080.000000;0.020887
6079.000000;0.020913
6078.000000;0.020967
6077.000000;0.020999
6076.000000;0.020994
6075.000000;0.020969
6074.000000;0.020932
6073.000000;0.020872
6072.000000;0.020796
6071.000000;0.020728
6070.000000;0.020681
6069.000000;0.020638
6068.000000;0.020584
6067.000000;0.020529
6066.000000;0.020483
6065.000000;0.020445
6064.000000;0.020408
6063.000000;0.020367
6062.000000;0.020319
6061.000000;0.020271
6060.000000;0.020241
6059.000000;0.020241
6058.000000;0.020251
6057.000000;0.020246
6056.000000;0.020223
6055.000000;0.020195
6054.000000;0.020154
6053.000000;0.020089
6052.000000;0.020011
6051.000000;0.019944
6050.000000;0.019883
6049.000000;0.019812
6048.000000;0.019738
6047.000000;0.019694
6046.000000;0.019694
6045.000000;0.019723
6044.000000;0.019769
6043.000000;0.019824
6042.000000;0.019865
6041.000000;0.019858
6040.000000;0.019805
6039.000000;0.019737
6038.000000;0.019679
6037.000000;0.019624
6036.000000;0.019562
6035.000000;0.019505
6034.000000;0.019466
6033.000000;0.019447
6032.000000;0.019440
6031.000000;0.019431
6030.000000;0.019399
6029.000000;0.019344
6028.000000;0.019299
6027.000000;0.019296
6026.000000;0.019321
6025.000000;0.019323
6024.000000;0.019277
6023.000000;0.019209
6022.000000;0.019156
6021.000000;0.019131
6020.000000;0.019116
6019.000000;0.019088
6018.000000;0.019029
6017.000000;0.018948
6016.000000;0.018880
6015.000000;0.018853
6014.000000;0.018855
6013.000000;0.018850
6012.000000;0.018819
6011.000000;0.018769
6010.000000;0.018714
6009.000000;0.018667
6008.000000;0.018645
6007.000000;0.018652
6006.000000;0.018667
6005.000000;0.018666
6004.000000;0.018651
6003.000000;0.018638
6002.000000;0.018617
6001.000000;0.018570
6000.000000;0.018502
5999.000000;0.018436
5998.000000;0.018379
5997.000000;0.018322
5996.000000;0.018271
5995.000000;0.018236
5994.000000;0.018207
5993.000000;0.018160
5992.000000;0.018100
5991.000000;0.018045
5990.000000;0.017995
5989.000000;0.017936
5988.000000;0.017877
5987.000000;0.017846
5986.000000;0.017845
5985.000000;0.017835
5984.000000;0.017793
5983.000000;0.017730
5982.000000;0.017671
5981.000000;0.017621
5980.000000;0.017582
5979.000000;0.017555
5978.000000;0.017527
5977.000000;0.017483
5976.000000;0.017431
5975.000000;0.017397
5974.000000;0.017390
5973.000000;0.017383
5972.000000;0.017347
5971.000000;0.017284
5970.000000;0.017219
5969.000000;0.017173
5968.000000;0.017147
5967.000000;0.017127
5966.000000;0.017090
5965.000000;0.017022
5964.000000;0.016932
5963.000000;0.016834
5962.000000;0.016738
5961.000000;0.016648
5960.000000;0.016578
5959.000000;0.016538
5958.000000;0.016521
5957.000000;0.016517
5956.000000;0.016528
5955.000000;0.016549
5954.000000;0.016555
5953.000000;0.016523
5952.000000;0.016455
5951.000000;0.016367
5950.000000;0.016271
5949.000000;0.016183
5948.000000;0.016138
5947.000000;0.016148
5946.000000;0.016165
5945.000000;0.016127
5944.000000;0.016029
5943.000000;0.015921
5942.000000;0.015843
5941.000000;0.015790
5940.000000;0.015747
5939.000000;0.015704
5938.000000;0.015648
5937.000000;0.015576
5936.000000;0.015508
5935.000000;0.015477
5934.000000;0.015489
5933.000000;0.015516
5932.000000;0.015533
5931.000000;0.015530
5930.000000;0.015496
5929.000000;0.015431
5928.000000;0.015352
5927.000000;0.015284
5926.000000;0.015228
5925.000000;0.015171
5924.000000;0.015116
5923.000000;0.015081
5922.000000;0.015056
5921.000000;0.015017
5920.000000;0.014953
5919.000000;0.014886
5918.000000;0.014834
5917.000000;0.014802
5916.000000;0.014786
5915.000000;0.014777
5914.000000;0.014757
5913.000000;0.014703
5912.000000;0.014610
5911.000000;0.014488
5910.000000;0.014356
5909.000000;0.014233
5908.000000;0.014143
5907.000000;0.014089
5906.000000;0.014041
5905.000000;0.013977
5904.000000;0.013903
5903.000000;0.013840
5902.000000;0.013785
5901.000000;0.013727
5900.000000;0.013668
5899.000000;0.013617
5898.000000;0.013560
5897.000000;0.013481
5896.000000;0.013397
5895.000000;0.013330
5894.000000;0.013279
5893.000000;0.013228
5892.000000;0.013187
5891.000000;0.013174
5890.000000;0.013177
5889.000000;0.013166
5888.000000;0.013140
5887.000000;0.013115
5886.000000;0.013085
5885.000000;0.013026
5884.000000;0.012939
5883.000000;0.012858
5882.000000;0.012798
5881.000000;0.012743
5880.000000;0.012679
5879.000000;0.012614
5878.000000;0.012551
5877.000000;0.012491
5876.000000;0.012443
5875.000000;0.012417
5874.000000;0.012396
5873.000000;0.012351
5872.000000;0.012278
5871.000000;0.012201
5870.000000;0.012132
5869.000000;0.012061
5868.000000;0.011978
5867.000000;0.011883
5866.000000;0.011775
5865.000000;0.011661
5864.000000;0.011566
5863.000000;0.011520
5862.000000;0.011514
5861.000000;0.011513
5860.000000;0.011496
5859.000000;0.011469
5858.000000;0.011431
5857.000000;0.011378
5856.000000;0.011316
5855.000000;0.011260
5854.000000;0.011206
5853.000000;0.011135
5852.000000;0.011050
5851.000000;0.010975
5850.000000;0.010925
5849.000000;0.010896
5848.000000;0.010871
5847.000000;0.010837
5846.000000;0.010778
5845.000000;0.010692
5844.000000;0.010595
5843.000000;0.010503
5842.000000;0.010406
5841.000000;0.010289
5840.000000;0.010161
5839.000000;0.010043
5838.000000;0.009934
5837.000000;0.009815
5836.000000;0.009689
5835.000000;0.009573
5834.000000;0.009473
5833.000000;0.009386
5832.000000;0.009318
5831.000000;0.009275
5830.000000;0.009240
5829.000000;0.009194
5828.000000;0.009142
5827.000000;0.009096
5826.000000;0.009048
5825.000000;0.008979
5824.000000;0.008900
5823.000000;0.008842
5822.000000;0.008804
5821.000000;0.008756
5820.000000;0.008689
5819.000000;0.008624
5818.000000;0.008574
5817.000000;0.008534
5816.000000;0.008500
5815.000000;0.008468
5814.000000;0.008420
5813.000000;0.008332
5812.000000;0.008204
5811.000000;0.008063
5810.000000;0.007932
5809.000000;0.007829
5808.000000;0.007770
5807.000000;0.007752
5806.000000;0.007741
5805.000000;0.007692
5804.000000;0.007590
5803.000000;0.007455
5802.000000;0.007310
5801.000000;0.007175
5800.000000;0.007067
5799.000000;0.006984
5798.000000;0.006892
5797.000000;0.006766
5796.000000;0.006628
5795.000000;0.006520
5794.000000;0.006448
5793.000000;0.006383
5792.000000;0.006312
5791.000000;0.006243
5790.000000;0.006180
5789.000000;0.006118
5788.000000;0.006061
5787.000000;0.006022
5786.000000;0.006001
5785.000000;0.005984
5784.000000;0.005959
5783.000000;0.005908
5782.000000;0.005798
5781.000000;0.005625
5780.000000;0.005435
5779.000000;0.005283
5778.000000;0.005178
5777.000000;0.005102
5776.000000;0.005046
5775.000000;0.005010
5774.000000;0.004966
5773.000000;0.004882
5772.000000;0.004764
5771.000000;0.004642
5770.000000;0.004525
5769.000000;0.004401
5768.000000;0.004279
5767.000000;0.004177
5766.000000;0.004090
5765.000000;0.003997
5764.000000;0.003900
5763.000000;0.003821
5762.000000;0.003754
5761.000000;0.003666
5760.000000;0.003543
5759.000000;0.003400
5758.000000;0.003253
5757.000000;0.003121
5756.000000;0.003028
5755.000000;0.002983
5754.000000;0.002950
5753.000000;0.002877
5752.000000;0.002764
5751.000000;0.002654
5750.000000;0.002573
5749.000000;0.002512
5748.000000;0.002453
5747.000000;0.002380
5746.000000;0.002277
5745.000000;0.002138
5744.000000;0.001990
5743.000000;0.001860
5742.000000;0.001736
5741.000000;0.001596
5740.000000;0.001449
5739.000000;0.001328
5738.000000;0.001240
5737.000000;0.001168
5736.000000;0.001110
5735.000000;0.001072
5734.000000;0.001028
5733.000000;0.000935
5732.000000;0.000786
5731.000000;0.000618
5730.000000;0.000463
5729.000000;0.000335
5728.000000;0.000242
5727.000000;0.000183
5726.000000;0.000124
5725.000000;0.000027
5724.000000;-0.000105
5723.000000;-0.000239
5722.000000;-0.000362
5721.000000;-0.000487
5720.000000;-0.000616
5719.000000;-0.000738
5718.000000;-0.000852
5717.000000;-0.000959
5716.000000;-0.001041
5715.000000;-0.001085
5714.000000;-0.001115
5713.000000;-0.001169
5712.000000;-0.001251
5711.000000;-0.001342
5710.000000;-0.001438
5709.000000;-0.001546
5708.000000;-0.001658
5707.000000;-0.001770
5706.000000;-0.001908
5705.000000;-0.002098
5704.000000;-0.002313
5703.000000;-0.002494
5702.000000;-0.002628
5701.000000;-0.002745
5700.000000;-0.002854
5699.000000;-0.002940
5698.000000;-0.002991
5697.000000;-0.003084
5696.000000;-0.003184
5695.000000;-0.003266
5694.000000;-0.003355
5693.000000;-0.003445
5692.000000;-0.003540
5691.000000;-0.003630
5690.000000;-0.003721
5689.000000;-0.003819
5688.000000;-0.003915
5687.000000;-0.004004
5686.000000;-0.004122
5685.000000;-0.004301
5684.000000;-0.004514
5683.000000;-0.004699
5682.000000;-0.004834
5681.000000;-0.004940
5680.000000;-0.005031
5679.000000;-0.005105
5678.000000;-0.005185
5677.000000;-0.005311
5676.000000;-0.005485
5675.000000;-0.005659
5674.000000;-0.005794
5673.000000;-0.005887
5672.000000;-0.005948
5671.000000;-0.005995
5670.000000;-0.006064
5669.000000;-0.006190
5668.000000;-0.006368
5667.000000;-0.006565
5666.000000;-0.006756
5665.000000;-0.006927
5664.000000;-0.007053
5663.000000;-0.007129
5662.000000;-0.007195
5661.000000;-0.007298
5660.000000;-0.007430
5659.000000;-0.007545
5658.000000;-0.007634
5657.000000;-0.007725
5656.000000;-0.007829
5655.000000;-0.007929
5654.000000;-0.008021
5653.000000;-0.008124
5652.000000;-0.008246
5651.000000;-0.008381
5650.000000;-0.008534
5649.000000;-0.008709
5648.000000;-0.008880
5647.000000;-0.009016
5646.000000;-0.009123
5645.000000;-0.009227
5644.000000;-0.009332
5643.000000;-0.009423
5642.000000;-0.009515
5641.000000;-0.009630
5640.000000;-0.009754
5639.000000;-0.009856
5638.000000;-0.009951
5637.000000;-0.010077
5636.000000;-0.010240
5635.000000;-0.010413
5634.000000;-0.010590
5633.000000;-0.010781
5632.000000;-0.010963
5631.000000;-0.011099
5630.000000;-0.011184
5629.000000;-0.011251
5628.000000;-0.011316
5627.000000;-0.011381
5626.000000;-0.011472
5625.000000;-0.011613
5624.000000;-0.011775
5623.000000;-0.011904
5622.000000;-0.011999
5621.000000;-0.012100
5620.000000;-0.012220
5619.000000;-0.012335
5618.000000;-0.012448
5617.000000;-0.012589
5616.000000;-0.012750
5615.000000;-0.012890
5614.000000;-0.012997
5613.000000;-0.013100
5612.000000;-0.013212
5611.000000;-0.013317
5610.000000;-0.013415
5609.000000;-0.013526
5608.000000;-0.013660
5607.000000;-0.013806
5606.000000;-0.013960
5605.000000;-0.014119
5604.000000;-0.014264
5603.000000;-0.014381
5602.000000;-0.014491
5601.000000;-0.014624
5600.000000;-0.014766
5599.000000;-0.014889
5598.000000;-0.014998
5597.000000;-0.015114
5596.000000;-0.015227
5595.000000;-0.015328
5594.000000;-0.015449
5593.000000;-0.015619
5592.000000;-0.015800
5591.000000;-0.015938
5590.000000;-0.016052
5589.000000;-0.016199
5588.000000;-0.016377
5587.000000;-0.016528
5586.000000;-0.016626
5585.000000;-0.016694
5584.000000;-0.016753
5583.000000;-0.016815
5582.000000;-0.016922
5581.000000;-0.017104
5580.000000;-0.017311
5579.000000;-0.017468
5578.000000;-0.017578
5577.000000;-0.017706
5576.000000;-0.017863
5575.000000;-0.018011
5574.000000;-0.018147
5573.000000;-0.018308
5572.000000;-0.018494
5571.000000;-0.018660
5570.000000;-0.018808
5569.000000;-0.018981
5568.000000;-0.019167
5567.000000;-0.019310
5566.000000;-0.019404
5565.000000;-0.019515
5564.000000;-0.019663
5563.000000;-0.019802
5562.000000;-0.019913
5561.000000;-0.020036
5560.000000;-0.020189
5559.000000;-0.020338
5558.000000;-0.020467
5557.000000;-0.020620
5556.000000;-0.020817
5555.000000;-0.021016
5554.000000;-0.021184
5553.000000;-0.021335
5552.000000;-0.021484
5551.000000;-0.021609
5550.000000;-0.021697
5549.000000;-0.021779
5548.000000;-0.021883
5547.000000;-0.022011
5546.000000;-0.022167
5545.000000;-0.022355
5544.000000;-0.022534
5543.000000;-0.022649
5542.000000;-0.022701
5541.000000;-0.022761
5540.000000;-0.022863
5539.000000;-0.022977
5538.000000;-0.023090
5537.000000;-0.023251
5536.000000;-0.023480
5535.000000;-0.023713
5534.000000;-0.023889
5533.000000;-0.024030
5532.000000;-0.024192
5531.000000;-0.024381
5530.000000;-0.024560
5529.000000;-0.024705
5528.000000;-0.024815
5527.000000;-0.024924
5526.000000;-0.025086
5525.000000;-0.025320
5524.000000;-0.025558
5523.000000;-0.025721
5522.000000;-0.025817
5521.000000;-0.025941
5520.000000;-0.026111
5519.000000;-0.026241
5518.000000;-0.026293
5517.000000;-0.026346
5516.000000;-0.026480
5515.000000;-0.026668
5514.000000;-0.026821
5513.000000;-0.026930
5512.000000;-0.027063
5511.000000;-0.027240
5510.000000;-0.027399
5509.000000;-0.027503
5508.000000;-0.027600
5507.000000;-0.027778
5506.000000;-0.028029
5505.000000;-0.028233
5504.000000;-0.028330
5503.000000;-0.028432
5502.000000;-0.028667
5501.000000;-0.028994
5500.000000;-0.029215
5499.000000;-0.029253
5498.000000;-0.029317
5497.000000;-0.029591
5496.000000;-0.029906
5495.000000;-0.029975
5494.000000;-0.029833
5493.000000;-0.029841
5492.000000;-0.030170
5491.000000;-0.030522
5490.000000;-0.030565
5489.000000;-0.030406
5488.000000;-0.030410
5487.000000;-0.030716
5486.000000;-0.031134
5485.000000;-0.031454
5484.000000;-0.031682
5483.000000;-0.031904
5482.000000;-0.032058
5481.000000;-0.032096
5480.000000;-0.032182
5479.000000;-0.032460
5478.000000;-0.032785
5477.000000;-0.032876
5476.000000;-0.032731
5475.000000;-0.032735
5474.000000;-0.033111
5473.000000;-0.033539
5472.000000;-0.033627
5471.000000;-0.033486
5470.000000;-0.033529
5469.000000;-0.033894
5468.000000;-0.034283
5467.000000;-0.034421
5466.000000;-0.034455
5465.000000;-0.034629
5464.000000;-0.034892
5463.000000;-0.035061
5462.000000;-0.035116
5461.000000;-0.035192
5460.000000;-0.035389
5459.000000;-0.035659
5458.000000;-0.035895
5457.000000;-0.036049
5456.000000;-0.036140
5455.000000;-0.036282
5454.000000;-0.036606
5453.000000;-0.036983
5452.000000;-0.037106
5451.000000;-0.036956
5450.000000;-0.036910
5449.000000;-0.037214
5448.000000;-0.037546
5447.000000;-0.037459
5446.000000;-0.037171
5445.000000;-0.037275
5444.000000;-0.037781
5443.000000;-0.038114
5442.000000;-0.037997
5441.000000;-0.037818
5440.000000;-0.038093
5439.000000;-0.038735
5438.000000;-0.039168
5437.000000;-0.039082
5436.000000;-0.038733
5435.000000;-0.038612
5434.000000;-0.039008
5433.000000;-0.039691
5432.000000;-0.040108
5431.000000;-0.040013
5430.000000;-0.039722
5429.000000;-0.039739
5428.000000;-0.040194
5427.000000;-0.040747
5426.000000;-0.041061
5425.000000;-0.041163
5424.000000;-0.041291
5423.000000;-0.041632
5422.000000;-0.042163
5421.000000;-0.042606
5420.000000;-0.042725
5419.000000;-0.042692
5418.000000;-0.042829
5417.000000;-0.043058
5416.000000;-0.042964
5415.000000;-0.042470
5414.000000;-0.042119
5413.000000;-0.042340
5412.000000;-0.042788
5411.000000;-0.042918
5410.000000;-0.042847
5409.000000;-0.043103
5408.000000;-0.043737
5407.000000;-0.044299
5406.000000;-0.044556
5405.000000;-0.044783
5404.000000;-0.045213
5403.000000;-0.045638
5402.000000;-0.045884
5401.000000;-0.046070
5400.000000;-0.046203
5399.000000;-0.046193
5398.000000;-0.046153
5397.000000;-0.046289
5396.000000;-0.046532
5395.000000;-0.046572
5394.000000;-0.046444
5393.000000;-0.046550
5392.000000;-0.046968
5391.000000;-0.047309
5390.000000;-0.047380
5389.000000;-0.047447
5388.000000;-0.047720
5387.000000;-0.048003
5386.000000;-0.048098
5385.000000;-0.048226
5384.000000;-0.048546
5383.000000;-0.048728
5382.000000;-0.048627
5381.000000;-0.048656
5380.000000;-0.049043
5379.000000;-0.049391
5378.000000;-0.049313
5377.000000;-0.049138
5376.000000;-0.049399
5375.000000;-0.049905
5374.000000;-0.050099
5373.000000;-0.050026
5372.000000;-0.050206
5371.000000;-0.050753
5370.000000;-0.051266
5369.000000;-0.051543
5368.000000;-0.051830
5367.000000;-0.052225
5366.000000;-0.052462
5365.000000;-0.052474
5364.000000;-0.052562
5363.000000;-0.052843
5362.000000;-0.053102
5361.000000;-0.053165
5360.000000;-0.053137
5359.000000;-0.053189
5358.000000;-0.053371
5357.000000;-0.053646
5356.000000;-0.053916
5355.000000;-0.053980
5354.000000;-0.053799
5353.000000;-0.053721
5352.000000;-0.054007
5351.000000;-0.054255
5350.000000;-0.054039
5349.000000;-0.053742
5348.000000;-0.054002
5347.000000;-0.054628
5346.000000;-0.054781
5345.000000;-0.054276
5344.000000;-0.053975
5343.000000;-0.054425
5342.000000;-0.054949
5341.000000;-0.054812
5340.000000;-0.054353
5339.000000;-0.054357
5338.000000;-0.054946
5337.000000;-0.055595
5336.000000;-0.055974
5335.000000;-0.056170
5334.000000;-0.056237
5333.000000;-0.056240
5332.000000;-0.056511
5331.000000;-0.057166
5330.000000;-0.057745
5329.000000;-0.057790
5328.000000;-0.057513
5327.000000;-0.057528
5326.000000;-0.057969
5325.000000;-0.058354
5324.000000;-0.058419
5323.000000;-0.058451
5322.000000;-0.058708
5321.000000;-0.059085
5320.000000;-0.059395
5319.000000;-0.059610
5318.000000;-0.059772
5317.000000;-0.059871
5316.000000;-0.059929
5315.000000;-0.060029
5314.000000;-0.060144
5313.000000;-0.060200
5312.000000;-0.060289
5311.000000;-0.060523
5310.000000;-0.060772
5309.000000;-0.060805
5308.000000;-0.060675
5307.000000;-0.060686
5306.000000;-0.060928
5305.000000;-0.061169
5304.000000;-0.061266
5303.000000;-0.061374
5302.000000;-0.061643
5301.000000;-0.061962
5300.000000;-0.062149
5299.000000;-0.062236
5298.000000;-0.062375
5297.000000;-0.062533
5296.000000;-0.062586
5295.000000;-0.062625
5294.000000;-0.062804
5293.000000;-0.063029
5292.000000;-0.063046
5291.000000;-0.062835
5290.000000;-0.062730
5289.000000;-0.062964
5288.000000;-0.063319
5287.000000;-0.063430
5286.000000;-0.063303
5285.000000;-0.063292
5284.000000;-0.063576
5283.000000;-0.063919
5282.000000;-0.064050
5281.000000;-0.064055
5280.000000;-0.064182
5279.000000;-0.064447
5278.000000;-0.064661
5277.000000;-0.064744
5276.000000;-0.064784
5275.000000;-0.064882
5274.000000;-0.065041
5273.000000;-0.065223
5272.000000;-0.065406
5271.000000;-0.065496
5270.000000;-0.065405
5269.000000;-0.065276
5268.000000;-0.065312
5267.000000;-0.065407
5266.000000;-0.065291
5265.000000;-0.064989
5264.000000;-0.064866
5263.000000;-0.065133
5262.000000;-0.065522
5261.000000;-0.065674
5260.000000;-0.065681
5259.000000;-0.065871
5258.000000;-0.066234
5257.000000;-0.066453
5256.000000;-0.066389
5255.000000;-0.066264
5254.000000;-0.066332
5253.000000;-0.066567
5252.000000;-0.066785
5251.000000;-0.066840
5250.000000;-0.066697
5249.000000;-0.066545
5248.000000;-0.066652
5247.000000;-0.067011
5246.000000;-0.067282
5245.000000;-0.067228
5244.000000;-0.067094
5243.000000;-0.067336
5242.000000;-0.067959
5241.000000;-0.068456
5240.000000;-0.068550
5239.000000;-0.068559
5238.000000;-0.068814
5237.000000;-0.069139
5236.000000;-0.069238
5235.000000;-0.069200
5234.000000;-0.069284
5233.000000;-0.069440
5232.000000;-0.069409
5231.000000;-0.069236
5230.000000;-0.069260
5229.000000;-0.069526
5228.000000;-0.069648
5227.000000;-0.069427
5226.000000;-0.069177
5225.000000;-0.069250
5224.000000;-0.069555
5223.000000;-0.069779
5222.000000;-0.069867
5221.000000;-0.069985
5220.000000;-0.070211
5219.000000;-0.070499
5218.000000;-0.070796
5217.000000;-0.071061
5216.000000;-0.071216
5215.000000;-0.071213
5214.000000;-0.071173
5213.000000;-0.071238
5212.000000;-0.071363
5211.000000;-0.071440
5210.000000;-0.071470
5209.000000;-0.071462
5208.000000;-0.071344
5207.000000;-0.071136
5206.000000;-0.071070
5205.000000;-0.071324
5204.000000;-0.071708
5203.000000;-0.071896
5202.000000;-0.071912
5201.000000;-0.072059
5200.000000;-0.072410
5199.000000;-0.072681
5198.000000;-0.072684
5197.000000;-0.072640
5196.000000;-0.072799
5195.000000;-0.073038
5194.000000;-0.073130
5193.000000;-0.073115
5192.000000;-0.073165
5191.000000;-0.073289
5190.000000;-0.073395
5189.000000;-0.073512
5188.000000;-0.073704
5187.000000;-0.073841
5186.000000;-0.073760
5185.000000;-0.073604
5184.000000;-0.073678
5183.000000;-0.073975
5182.000000;-0.074194
5181.000000;-0.074222
5180.000000;-0.074279
5179.000000;-0.074517
5178.000000;-0.074780
5177.000000;-0.074886
5176.000000;-0.074906
5175.000000;-0.074984
5174.000000;-0.075079
5173.000000;-0.075093
5172.000000;-0.075078
5171.000000;-0.075140
5170.000000;-0.075260
5169.000000;-0.075374
5168.000000;-0.075502
5167.000000;-0.075659
5166.000000;-0.075756
5165.000000;-0.075727
5164.000000;-0.075669
5163.000000;-0.075709
5162.000000;-0.075804
5161.000000;-0.075845
5160.000000;-0.075863
5159.000000;-0.075961
5158.000000;-0.076127
5157.000000;-0.076245
5156.000000;-0.076291
5155.000000;-0.076340
5154.000000;-0.076411
5153.000000;-0.076452
5152.000000;-0.076489
5151.000000;-0.076625
5150.000000;-0.076865
5149.000000;-0.077080
5148.000000;-0.077168
5147.000000;-0.077170
5146.000000;-0.077184
5145.000000;-0.077246
5144.000000;-0.077330
5143.000000;-0.077410
5142.000000;-0.077492
5141.000000;-0.077593
5140.000000;-0.077713
5139.000000;-0.077826
5138.000000;-0.077906
5137.000000;-0.077974
5136.000000;-0.078081
5135.000000;-0.078242
5134.000000;-0.078397
5133.000000;-0.078487
5132.000000;-0.078522
5131.000000;-0.078537
5130.000000;-0.078544
5129.000000;-0.078557
5128.000000;-0.078614
5127.000000;-0.078718
5126.000000;-0.078804
5125.000000;-0.078818
5124.000000;-0.078794
5123.000000;-0.078803
5122.000000;-0.078854
5121.000000;-0.078926
5120.000000;-0.079029
5119.000000;-0.079178
5118.000000;-0.079327
5117.000000;-0.079423
5116.000000;-0.079482
5115.000000;-0.079570
5114.000000;-0.079712
5113.000000;-0.079884
5112.000000;-0.080065
5111.000000;-0.080229
5110.000000;-0.080325
5109.000000;-0.080324
5108.000000;-0.080285
5107.000000;-0.080298
5106.000000;-0.080386
5105.000000;-0.080510
5104.000000;-0.080642
5103.000000;-0.080773
5102.000000;-0.080875
5101.000000;-0.080923
5100.000000;-0.080951
5099.000000;-0.081020
5098.000000;-0.081139
5097.000000;-0.081265
5096.000000;-0.081359
5095.000000;-0.081413
5094.000000;-0.081424
5093.000000;-0.081405
5092.000000;-0.081407
5091.000000;-0.081468
5090.000000;-0.081562
5089.000000;-0.081641
5088.000000;-0.081702
5087.000000;-0.081778
5086.000000;-0.081869
5085.000000;-0.081949
5084.000000;-0.082022
5083.000000;-0.082123
5082.000000;-0.082251
5081.000000;-0.082362
5080.000000;-0.082427
5079.000000;-0.082455
5078.000000;-0.082470
5077.000000;-0.082504
5076.000000;-0.082591
5075.000000;-0.082733
5074.000000;-0.082878
5073.000000;-0.082968
5072.000000;-0.083012
5071.000000;-0.083057
5070.000000;-0.083114
5069.000000;-0.083163
5068.000000;-0.083203
5067.000000;-0.083262
5066.000000;-0.083344
5065.000000;-0.083423
5064.000000;-0.083483
5063.000000;-0.083531
5062.000000;-0.083564
5061.000000;-0.083581
5060.000000;-0.083605
5059.000000;-0.083664
5058.000000;-0.083753
5057.000000;-0.083832
5056.000000;-0.083879
5055.000000;-0.083907
5054.000000;-0.083941
5053.000000;-0.084009
5052.000000;-0.084133
5051.000000;-0.084299
5050.000000;-0.084447
5049.000000;-0.084526
5048.000000;-0.084554
5047.000000;-0.084587
5046.000000;-0.084654
5045.000000;-0.084748
5044.000000;-0.084868
5043.000000;-0.085013
5042.000000;-0.085151
5041.000000;-0.085237
5040.000000;-0.085265
5039.000000;-0.085269
5038.000000;-0.085285
5037.000000;-0.085333
5036.000000;-0.085426
5035.000000;-0.085550
5034.000000;-0.085654
5033.000000;-0.085699
5032.000000;-0.085709
5031.000000;-0.085742
5030.000000;-0.085816
5029.000000;-0.085899
5028.000000;-0.085971
5027.000000;-0.086041
5026.000000;-0.086122
5025.000000;-0.086203
5024.000000;-0.086269
5023.000000;-0.086313
5022.000000;-0.086337
5021.000000;-0.086354
5020.000000;-0.086390
5019.000000;-0.086465
5018.000000;-0.086566
5017.000000;-0.086675
5016.000000;-0.086789
5015.000000;-0.086908
5014.000000;-0.087021
5013.000000;-0.087117
5012.000000;-0.087204
5011.000000;-0.087286
5010.000000;-0.087349
5009.000000;-0.087394
5008.000000;-0.087463
5007.000000;-0.087590
5006.000000;-0.087754
5005.000000;-0.087901
5004.000000;-0.088007
5003.000000;-0.088071
5002.000000;-0.088096
5001.000000;-0.088069
5000.000000;-0.088049
4999.000000;-0.088066
4998.000000;-0.088114
4997.000000;-0.088164
4996.000000;-0.088192
4995.000000;-0.088205
4994.000000;-0.088208
4993.000000;-0.088211
4992.000000;-0.088239
4991.000000;-0.088315
4990.000000;-0.088427
4989.000000;-0.088542
4988.000000;-0.088639
4987.000000;-0.088717
4986.000000;-0.088783
4985.000000;-0.088859
4984.000000;-0.088979
4983.000000;-0.089151
4982.000000;-0.089330
4981.000000;-0.089472
4980.000000;-0.089585
4979.000000;-0.089701
4978.000000;-0.089815
4977.000000;-0.089899
4976.000000;-0.089960
4975.000000;-0.090040
4974.000000;-0.090154
4973.000000;-0.090272
4972.000000;-0.090362
4971.000000;-0.090417
4970.000000;-0.090448
4969.000000;-0.090471
4968.000000;-0.090506
4967.000000;-0.090563
4966.000000;-0.090623
4965.000000;-0.090656
4964.000000;-0.090664
4963.000000;-0.090678
4962.000000;-0.090727
4961.000000;-0.090826
4960.000000;-0.090975
4959.000000;-0.091149
4958.000000;-0.091300
4957.000000;-0.091398
4956.000000;-0.091461
4955.000000;-0.091529
4954.000000;-0.091614
4953.000000;-0.091708
4952.000000;-0.091812
4951.000000;-0.091926
4950.000000;-0.092027
4949.000000;-0.092085
4948.000000;-0.092108
4947.000000;-0.092127
4946.000000;-0.092164
4945.000000;-0.092220
4944.000000;-0.092305
4943.000000;-0.092423
4942.000000;-0.092553
4941.000000;-0.092664
4940.000000;-0.092752
4939.000000;-0.092840
4938.000000;-0.092942
4937.000000;-0.093051
4936.000000;-0.093152
4935.000000;-0.093228
4934.000000;-0.093258
4933.000000;-0.093257
4932.000000;-0.093278
4931.000000;-0.093364
4930.000000;-0.093508
4929.000000;-0.093674
4928.000000;-0.093854
4927.000000;-0.094050
4926.000000;-0.094227
4925.000000;-0.094338
4924.000000;-0.094388
4923.000000;-0.094426
4922.000000;-0.094492
4921.000000;-0.094579
4920.000000;-0.094672
4919.000000;-0.094773
4918.000000;-0.094879
4917.000000;-0.094982
4916.000000;-0.095091
4915.000000;-0.095221
4914.000000;-0.095366
4913.000000;-0.095496
4912.000000;-0.095594
4911.000000;-0.095672
4910.000000;-0.095751
4909.000000;-0.095841
4908.000000;-0.095945
4907.000000;-0.096060
4906.000000;-0.096177
4905.000000;-0.096290
4904.000000;-0.096408
4903.000000;-0.096529
4902.000000;-0.096630
4901.000000;-0.096698
4900.000000;-0.096764
4899.000000;-0.096866
4898.000000;-0.097003
4897.000000;-0.097144
4896.000000;-0.097272
4895.000000;-0.097401
4894.000000;-0.097539
4893.000000;-0.097679
4892.000000;-0.097826
4891.000000;-0.097987
4890.000000;-0.098143
4889.000000;-0.098261
4888.000000;-0.098334
4887.000000;-0.098391
4886.000000;-0.098452
4885.000000;-0.098514
4884.000000;-0.098574
4883.000000;-0.098646
4882.000000;-0.098733
4881.000000;-0.098826
4880.000000;-0.098922
4879.000000;-0.099029
4878.000000;-0.099148
4877.000000;-0.099266
4876.000000;-0.099377
4875.000000;-0.099490
4874.000000;-0.099606
4873.000000;-0.099710
4872.000000;-0.099795
4871.000000;-0.099871
4870.000000;-0.099948
4869.000000;-0.100035
4868.000000;-0.100142
4867.000000;-0.100279
4866.000000;-0.100428
4865.000000;-0.100556
4864.000000;-0.100648
4863.000000;-0.100718
4862.000000;-0.100800
4861.000000;-0.100916
4860.000000;-0.101064
4859.000000;-0.101216
4858.000000;-0.101335
4857.000000;-0.101404
4856.000000;-0.101440
4855.000000;-0.101478
4854.000000;-0.101545
4853.000000;-0.101652
4852.000000;-0.101793
4851.000000;-0.101936
4850.000000;-0.102036
4849.000000;-0.102081
4848.000000;-0.102109
4847.000000;-0.102168
4846.000000;-0.102267
4845.000000;-0.102383
4844.000000;-0.102497
4843.000000;-0.102606
4842.000000;-0.102702
4841.000000;-0.102781
4840.000000;-0.102863
4839.000000;-0.102978
4838.000000;-0.103126
4837.000000;-0.103272
4836.000000;-0.103385
4835.000000;-0.103456
4834.000000;-0.103494
4833.000000;-0.103526
4832.000000;-0.103595
4831.000000;-0.103732
4830.000000;-0.103923
4829.000000;-0.104116
4828.000000;-0.104275
4827.000000;-0.104399
4826.000000;-0.104503
4825.000000;-0.104599
4824.000000;-0.104694
4823.000000;-0.104792
4822.000000;-0.104892
4821.000000;-0.104987
4820.000000;-0.105068
4819.000000;-0.105119
4818.000000;-0.105127
4817.000000;-0.105104
4816.000000;-0.105099
4815.000000;-0.105165
4814.000000;-0.105305
4813.000000;-0.105479
4812.000000;-0.105643
4811.000000;-0.105774
4810.000000;-0.105873
4809.000000;-0.105958
4808.000000;-0.106060
4807.000000;-0.106201
4806.000000;-0.106362
4805.000000;-0.106497
4804.000000;-0.106576
4803.000000;-0.106609
4802.000000;-0.106630
4801.000000;-0.106677
4800.000000;-0.106771
4799.000000;-0.106901
4798.000000;-0.107033
4797.000000;-0.107140
4796.000000;-0.107222
4795.000000;-0.107301
4794.000000;-0.107399
4793.000000;-0.107531
4792.000000;-0.107701
4791.000000;-0.107878
4790.000000;-0.108008
4789.000000;-0.108059
4788.000000;-0.108061
4787.000000;-0.108082
4786.000000;-0.108164
4785.000000;-0.108296
4784.000000;-0.108443
4783.000000;-0.108565
4782.000000;-0.108635
4781.000000;-0.108654
4780.000000;-0.108643
4779.000000;-0.108629
4778.000000;-0.108629
4777.000000;-0.108668
4776.000000;-0.108773
4775.000000;-0.108933
4774.000000;-0.109082
4773.000000;-0.109154
4772.000000;-0.109158
4771.000000;-0.109158
4770.000000;-0.109206
4769.000000;-0.109301
4768.000000;-0.109423
4767.000000;-0.109552
4766.000000;-0.109667
4765.000000;-0.109760
4764.000000;-0.109840
4763.000000;-0.109929
4762.000000;-0.110033
4761.000000;-0.110143
4760.000000;-0.110255
4759.000000;-0.110368
4758.000000;-0.110469
4757.000000;-0.110536
4756.000000;-0.110565
4755.000000;-0.110581
4754.000000;-0.110615
4753.000000;-0.110692
4752.000000;-0.110815
4751.000000;-0.110961
4750.000000;-0.111087
4749.000000;-0.111159
4748.000000;-0.111180
4747.000000;-0.111184
4746.000000;-0.111209
4745.000000;-0.111278
4744.000000;-0.111399
4743.000000;-0.111544
4742.000000;-0.111658
4741.000000;-0.111710
4740.000000;-0.111728
4739.000000;-0.111773
4738.000000;-0.111878
4737.000000;-0.112030
4736.000000;-0.112192
4735.000000;-0.112330
4734.000000;-0.112417
4733.000000;-0.112446
4732.000000;-0.112445
4731.000000;-0.112462
4730.000000;-0.112524
4729.000000;-0.112624
4728.000000;-0.112739
4727.000000;-0.112849
4726.000000;-0.112945
4725.000000;-0.113033
4724.000000;-0.113128
4723.000000;-0.113236
4722.000000;-0.113355
4721.000000;-0.113480
4720.000000;-0.113602
4719.000000;-0.113689
4718.000000;-0.113709
4717.000000;-0.113674
4716.000000;-0.113653
4715.000000;-0.113711
4714.000000;-0.113846
4713.000000;-0.114003
4712.000000;-0.114133
4711.000000;-0.114211
4710.000000;-0.114227
4709.000000;-0.114190
4708.000000;-0.114144
4707.000000;-0.114142
4706.000000;-0.114201
4705.000000;-0.114290
4704.000000;-0.114364
4703.000000;-0.114399
4702.000000;-0.114397
4701.000000;-0.114392
4700.000000;-0.114432
4699.000000;-0.114546
4698.000000;-0.114704
4697.000000;-0.114844
4696.000000;-0.114923
4695.000000;-0.114944
4694.000000;-0.114937
4693.000000;-0.114938
4692.000000;-0.114977
4691.000000;-0.115066
4690.000000;-0.115193
4689.000000;-0.115322
4688.000000;-0.115416
4687.000000;-0.115456
4686.000000;-0.115449
4685.000000;-0.115437
4684.000000;-0.115465
4683.000000;-0.115544
4682.000000;-0.115630
4681.000000;-0.115669
4680.000000;-0.115642
4679.000000;-0.115576
4678.000000;-0.115513
4677.000000;-0.115495
4676.000000;-0.115543
4675.000000;-0.115641
4674.000000;-0.115739
4673.000000;-0.115800
4672.000000;-0.115814
4671.000000;-0.115792
4670.000000;-0.115754
4669.000000;-0.115737
4668.000000;-0.115787
4667.000000;-0.115911
4666.000000;-0.116052
4665.000000;-0.116140
4664.000000;-0.116152
4663.000000;-0.116108
4662.000000;-0.116034
4661.000000;-0.115959
4660.000000;-0.115922
4659.000000;-0.115943
4658.000000;-0.115993
4657.000000;-0.116018
4656.000000;-0.115998
4655.000000;-0.115955
4654.000000;-0.115922
4653.000000;-0.115925
4652.000000;-0.115973
4651.000000;-0.116050
4650.000000;-0.116108
4649.000000;-0.116111
4648.000000;-0.116074
4647.000000;-0.116043
4646.000000;-0.116032
4645.000000;-0.116028
4644.000000;-0.116013
4643.000000;-0.115988
4642.000000;-0.115949
4641.000000;-0.115896
4640.000000;-0.115840
4639.000000;-0.115802
4638.000000;-0.115783
4637.000000;-0.115785
4636.000000;-0.115816
4635.000000;-0.115872
4634.000000;-0.115920
4633.000000;-0.115921
4632.000000;-0.115875
4631.000000;-0.115816
4630.000000;-0.115766
4629.000000;-0.115731
4628.000000;-0.115714
4627.000000;-0.115714
4626.000000;-0.115701
4625.000000;-0.115646
4624.000000;-0.115554
4623.000000;-0.115466
4622.000000;-0.115407
4621.000000;-0.115375
4620.000000;-0.115357
4619.000000;-0.115338
4618.000000;-0.115290
4617.000000;-0.115201
4616.000000;-0.115098
4615.000000;-0.115027
4614.000000;-0.114999
4613.000000;-0.114980
4612.000000;-0.114942
4611.000000;-0.114875
4610.000000;-0.114770
4609.000000;-0.114618
4608.000000;-0.114430
4607.000000;-0.114242
4606.000000;-0.114077
4605.000000;-0.113928
4604.000000;-0.113790
4603.000000;-0.113663
4602.000000;-0.113546
4601.000000;-0.113432
4600.000000;-0.113323
4599.000000;-0.113238
4598.000000;-0.113176
4597.000000;-0.113118
4596.000000;-0.113040
4595.000000;-0.112936
4594.000000;-0.112809
4593.000000;-0.112670
4592.000000;-0.112539
4591.000000;-0.112432
4590.000000;-0.112341
4589.000000;-0.112238
4588.000000;-0.112116
4587.000000;-0.111985
4586.000000;-0.111848
4585.000000;-0.111693
4584.000000;-0.111516
4583.000000;-0.111329
4582.000000;-0.111132
4581.000000;-0.110910
4580.000000;-0.110646
4579.000000;-0.110343
4578.000000;-0.110008
4577.000000;-0.109659
4576.000000;-0.109327
4575.000000;-0.109045
4574.000000;-0.108807
4573.000000;-0.108568
4572.000000;-0.108288
4571.000000;-0.107973
4570.000000;-0.107657
4569.000000;-0.107354
4568.000000;-0.107043
4567.000000;-0.106698
4566.000000;-0.106318
4565.000000;-0.105921
4564.000000;-0.105522
4563.000000;-0.105106
4562.000000;-0.104650
4561.000000;-0.104163
4560.000000;-0.103687
4559.000000;-0.103243
4558.000000;-0.102808
4557.000000;-0.102341
4556.000000;-0.101850
4555.000000;-0.101379
4554.000000;-0.100958
4553.000000;-0.100579
4552.000000;-0.100214
4551.000000;-0.099835
4550.000000;-0.099406
4549.000000;-0.098898
4548.000000;-0.098315
4547.000000;-0.097702
4546.000000;-0.097101
4545.000000;-0.096523
4544.000000;-0.095956
4543.000000;-0.095390
4542.000000;-0.094829
4541.000000;-0.094277
4540.000000;-0.093740
4539.000000;-0.093219
4538.000000;-0.092710
4537.000000;-0.092205
4536.000000;-0.091705
4535.000000;-0.091205
4534.000000;-0.090695
4533.000000;-0.090178
4532.000000;-0.089685
4531.000000;-0.089254
4530.000000;-0.088895
4529.000000;-0.088576
4528.000000;-0.088255
4527.000000;-0.087905
4526.000000;-0.087523
4525.000000;-0.087128
4524.000000;-0.086765
4523.000000;-0.086476
4522.000000;-0.086263
4521.000000;-0.086085
4520.000000;-0.085894
4519.000000;-0.085663
4518.000000;-0.085395
4517.000000;-0.085106
4516.000000;-0.084824
4515.000000;-0.084571
4514.000000;-0.084363
4513.000000;-0.084190
4512.000000;-0.084017
4511.000000;-0.083794
4510.000000;-0.083496
4509.000000;-0.083153
4508.000000;-0.082842
4507.000000;-0.082620
4506.000000;-0.082488
4505.000000;-0.082394
4504.000000;-0.082285
4503.000000;-0.082118
4502.000000;-0.081882
4501.000000;-0.081605
4500.000000;-0.081349
4499.000000;-0.081154
4498.000000;-0.080997
4497.000000;-0.080804
4496.000000;-0.080523
4495.000000;-0.080161
4494.000000;-0.079770
4493.000000;-0.079405
4492.000000;-0.079096
4491.000000;-0.078828
4490.000000;-0.078561
4489.000000;-0.078262
4488.000000;-0.077933
4487.000000;-0.077589
4486.000000;-0.077240
4485.000000;-0.076903
4484.000000;-0.076616
4483.000000;-0.076396
4482.000000;-0.076201
4481.000000;-0.075951
4480.000000;-0.075603
4479.000000;-0.075183
4478.000000;-0.074752
4477.000000;-0.074353
4476.000000;-0.073995
4475.000000;-0.073655
4474.000000;-0.073294
4473.000000;-0.072892
4472.000000;-0.072462
4471.000000;-0.072035
4470.000000;-0.071625
4469.000000;-0.071226
4468.000000;-0.070834
4467.000000;-0.070454
4466.000000;-0.070086
4465.000000;-0.069713
4464.000000;-0.069304
4463.000000;-0.068834
4462.000000;-0.068303
4461.000000;-0.067755
4460.000000;-0.067253
4459.000000;-0.066833
4458.000000;-0.066466
4457.000000;-0.066079
4456.000000;-0.065611
4455.000000;-0.065048
4454.000000;-0.064438
4453.000000;-0.063870
4452.000000;-0.063416
4451.000000;-0.063070
4450.000000;-0.062736
4449.000000;-0.062311
4448.000000;-0.061762
4447.000000;-0.061135
4446.000000;-0.060502
4445.000000;-0.059913
4444.000000;-0.059388
4443.000000;-0.058919
4442.000000;-0.058478
4441.000000;-0.058036
4440.000000;-0.057581
4439.000000;-0.057095
4438.000000;-0.056544
4437.000000;-0.055916
4436.000000;-0.055262
4435.000000;-0.054663
4434.000000;-0.054142
4433.000000;-0.053647
4432.000000;-0.053113
4431.000000;-0.052530
4430.000000;-0.051936
4429.000000;-0.051374
4428.000000;-0.050855
4427.000000;-0.050355
4426.000000;-0.049832
4425.000000;-0.049251
4424.000000;-0.048611
4423.000000;-0.047958
4422.000000;-0.047339
4421.000000;-0.046765
4420.000000;-0.046203
4419.000000;-0.045605
4418.000000;-0.044947
4417.000000;-0.044235
4416.000000;-0.043483
4415.000000;-0.042711
4414.000000;-0.041956
4413.000000;-0.041264
4412.000000;-0.040644
4411.000000;-0.040040
4410.000000;-0.039376
4409.000000;-0.038637
4408.000000;-0.037875
4407.000000;-0.037147
4406.000000;-0.036473
4405.000000;-0.035848
4404.000000;-0.035262
4403.000000;-0.034676
4402.000000;-0.034021
4401.000000;-0.033258
4400.000000;-0.032422
4399.000000;-0.031587
4398.000000;-0.030798
4397.000000;-0.030057
4396.000000;-0.029335
4395.000000;-0.028600
4394.000000;-0.027821
4393.000000;-0.026989
4392.000000;-0.026126
4391.000000;-0.025254
4390.000000;-0.024375
4389.000000;-0.023487
4388.000000;-0.022594
4387.000000;-0.021696
4386.000000;-0.020766
4385.000000;-0.019790
4384.000000;-0.018794
4383.000000;-0.017826
4382.000000;-0.016901
4381.000000;-0.015988
4380.000000;-0.015052
4379.000000;-0.014080
4378.000000;-0.013084
4377.000000;-0.012091
4376.000000;-0.011118
4375.000000;-0.010161
4374.000000;-0.009207
4373.000000;-0.008254
4372.000000;-0.007296
4371.000000;-0.006309
4370.000000;-0.005249
4369.000000;-0.004103
4368.000000;-0.002907
4367.000000;-0.001729
4366.000000;-0.000628
4365.000000;0.000378
4364.000000;0.001339
4363.000000;0.002357
4362.000000;0.003512
4361.000000;0.004774
4360.000000;0.006032
4359.000000;0.007210
4358.000000;0.008327
4357.000000;0.009434
4356.000000;0.010567
4355.000000;0.011751
4354.000000;0.013015
4353.000000;0.014334
4352.000000;0.015622
4351.000000;0.016818
4350.000000;0.017953
4349.000000;0.019110
4348.000000;0.020347
4347.000000;0.021687
4346.000000;0.023130
4345.000000;0.024640
4344.000000;0.026138
4343.000000;0.027563
4342.000000;0.028930
4341.000000;0.030293
4340.000000;0.031682
4339.000000;0.033093
4338.000000;0.034522
4337.000000;0.035959
4336.000000;0.037364
4335.000000;0.038710
4334.000000;0.040020
4333.000000;0.041360
4332.000000;0.042784
4331.000000;0.044317
4330.000000;0.045940
4329.000000;0.047583
4328.000000;0.049153
4327.000000;0.050611
4326.000000;0.051991
4325.000000;0.053341
4324.000000;0.054678
4323.000000;0.056037
4322.000000;0.057490
4321.000000;0.059068
4320.000000;0.060696
4319.000000;0.062281
4318.000000;0.063823
4317.000000;0.065388
4316.000000;0.066997
4315.000000;0.068609
4314.000000;0.070210
4313.000000;0.071838
4312.000000;0.073515
4311.000000;0.075208
4310.000000;0.076865
4309.000000;0.078463
4308.000000;0.080019
4307.000000;0.081579
4306.000000;0.083183
4305.000000;0.084829
4304.000000;0.086464
4303.000000;0.088058
4302.000000;0.089657
4301.000000;0.091334
4300.000000;0.093117
4299.000000;0.094992
4298.000000;0.096946
4297.000000;0.098939
4296.000000;0.100874
4295.000000;0.102651
4294.000000;0.104276
4293.000000;0.105874
4292.000000;0.107586
4291.000000;0.109452
4290.000000;0.111400
4289.000000;0.113311
4288.000000;0.115131
4287.000000;0.116924
4286.000000;0.118797
4285.000000;0.120763
4284.000000;0.122727
4283.000000;0.124623
4282.000000;0.126499
4281.000000;0.128423
4280.000000;0.130369
4279.000000;0.132262
4278.000000;0.134109
4277.000000;0.135999
4276.000000;0.137998
4275.000000;0.140088
4274.000000;0.142200
4273.000000;0.144251
4272.000000;0.146194
4271.000000;0.148055
4270.000000;0.149932
4269.000000;0.151902
4268.000000;0.153963
4267.000000;0.156086
4266.000000;0.158269
4265.000000;0.160487
4264.000000;0.162656
4263.000000;0.164708
4262.000000;0.166680
4261.000000;0.168670
4260.000000;0.170736
4259.000000;0.172904
4258.000000;0.175185
4257.000000;0.177521
4256.000000;0.179768
4255.000000;0.181843
4254.000000;0.183863
4253.000000;0.186031
4252.000000;0.188400
4251.000000;0.190847
4250.000000;0.193234
4249.000000;0.195523
4248.000000;0.197728
4247.000000;0.199894
4246.000000;0.202126
4245.000000;0.204535
4244.000000;0.207099
4243.000000;0.209652
4242.000000;0.212028
4241.000000;0.214199
4240.000000;0.216263
4239.000000;0.218365
4238.000000;0.220625
4237.000000;0.223074
4236.000000;0.225648
4235.000000;0.228268
4234.000000;0.230889
4233.000000;0.233471
4232.000000;0.235948
4231.000000;0.238321
4230.000000;0.240710
4229.000000;0.243227
4228.000000;0.245840
4227.000000;0.248443
4226.000000;0.251014
4225.000000;0.253604
4224.000000;0.256208
4223.000000;0.258794
4222.000000;0.261436
4221.000000;0.264269
4220.000000;0.267287
4219.000000;0.270309
4218.000000;0.273191
4217.000000;0.275946
4216.000000;0.278646
4215.000000;0.281319
4214.000000;0.284008
4213.000000;0.286803
4212.000000;0.289744
4211.000000;0.292757
4210.000000;0.295763
4209.000000;0.298796
4208.000000;0.301931
4207.000000;0.305165
4206.000000;0.308410
4205.000000;0.311595
4204.000000;0.314720
4203.000000;0.317804
4202.000000;0.320838
4201.000000;0.323794
4200.000000;0.326680
4199.000000;0.329592
4198.000000;0.332683
4197.000000;0.336043
4196.000000;0.339581
4195.000000;0.343076
4194.000000;0.346336
4193.000000;0.349341
4192.000000;0.352251
4191.000000;0.355292
4190.000000;0.358586
4189.000000;0.362059
4188.000000;0.365532
4187.000000;0.368921
4186.000000;0.372331
4185.000000;0.375915
4184.000000;0.379693
4183.000000;0.383540
4182.000000;0.387298
4181.000000;0.390856
4180.000000;0.394189
4179.000000;0.397382
4178.000000;0.400578
4177.000000;0.403842
4176.000000;0.407146
4175.000000;0.410507
4174.000000;0.414062
4173.000000;0.417926
4172.000000;0.422039
4171.000000;0.426211
4170.000000;0.430255
4169.000000;0.434052
4168.000000;0.437582
4167.000000;0.441007
4166.000000;0.444603
4165.000000;0.448525
4164.000000;0.452678
4163.000000;0.456896
4162.000000;0.461105
4161.000000;0.465236
4160.000000;0.469145
4159.000000;0.472793
4158.000000;0.476406
4157.000000;0.480257
4156.000000;0.484340
4155.000000;0.488426
4154.000000;0.492372
4153.000000;0.496212
4152.000000;0.500022
4151.000000;0.503882
4150.000000;0.507914
4149.000000;0.512159
4148.000000;0.516436
4147.000000;0.520489
4146.000000;0.524276
4145.000000;0.527982
4144.000000;0.531794
4143.000000;0.535830
4142.000000;0.540206
4141.000000;0.544917
4140.000000;0.549660
4139.000000;0.553997
4138.000000;0.557783
4137.000000;0.561296
4136.000000;0.564913
4135.000000;0.568774
4134.000000;0.572779
4133.000000;0.576762
4132.000000;0.580651
4131.000000;0.584546
4130.000000;0.588652
4129.000000;0.593053
4128.000000;0.597569
4127.000000;0.601920
4126.000000;0.605989
4125.000000;0.609864
4124.000000;0.613716
4123.000000;0.617703
4122.000000;0.621883
4121.000000;0.626121
4120.000000;0.630191
4119.000000;0.634088
4118.000000;0.638058
4117.000000;0.642214
4116.000000;0.646326
4115.000000;0.650200
4114.000000;0.654044
4113.000000;0.658184
4112.000000;0.662583
4111.000000;0.666961
4110.000000;0.671253
4109.000000;0.675634
4108.000000;0.680125
4107.000000;0.684524
4106.000000;0.688698
4105.000000;0.692693
4104.000000;0.696569
4103.000000;0.700342
4102.000000;0.704057
4101.000000;0.707722
4100.000000;0.711219
4099.000000;0.714502
4098.000000;0.717769
4097.000000;0.721222
4096.000000;0.724777
4095.000000;0.728262
4094.000000;0.731765
4093.000000;0.735518
4092.000000;0.739545
4091.000000;0.743708
4090.000000;0.747962
4089.000000;0.752252
4088.000000;0.756273
4087.000000;0.759695
4086.000000;0.762568
4085.000000;0.765267
4084.000000;0.768134
4083.000000;0.771404
4082.000000;0.775250
4081.000000;0.779518
4080.000000;0.783608
4079.000000;0.787069
4078.000000;0.790187
4077.000000;0.793570
4076.000000;0.797282
4075.000000;0.800793
4074.000000;0.803707
4073.000000;0.806135
4072.000000;0.808439
4071.000000;0.811004
4070.000000;0.814128
4069.000000;0.817652
4068.000000;0.820838
4067.000000;0.823180
4066.000000;0.825246
4065.000000;0.828137
4064.000000;0.832087
4063.000000;0.836138
4062.000000;0.839248
4061.000000;0.841257
4060.000000;0.842676
4059.000000;0.844057
4058.000000;0.845750
4057.000000;0.847850
4056.000000;0.850150
4055.000000;0.852448
4054.000000;0.854898
4053.000000;0.857757
4052.000000;0.860855
4051.000000;0.863743
4050.000000;0.866332
4049.000000;0.868898
4048.000000;0.871466
4047.000000;0.873670
4046.000000;0.875256
4045.000000;0.876221
4044.000000;0.876472
4043.000000;0.875983
4042.000000;0.875334
4041.000000;0.875408
4040.000000;0.876308
4039.000000;0.877143
4038.000000;0.877231
4037.000000;0.877030
4036.000000;0.877468
4035.000000;0.878774
4034.000000;0.880382
4033.000000;0.881661
4032.000000;0.882307
4031.000000;0.882196
4030.000000;0.881383
4029.000000;0.880281
4028.000000;0.879518
4027.000000;0.879431
4026.000000;0.879716
4025.000000;0.879617
4024.000000;0.878546
4023.000000;0.876650
4022.000000;0.874726
4021.000000;0.873416
4020.000000;0.872547
4019.000000;0.871531
4018.000000;0.870236
4017.000000;0.869060
4016.000000;0.868267
4015.000000;0.867682
4014.000000;0.867080
4013.000000;0.866408
4012.000000;0.865422
4011.000000;0.863568
4010.000000;0.860585
4009.000000;0.856931
4008.000000;0.853366
4007.000000;0.850360
4006.000000;0.848045
4005.000000;0.846362
4004.000000;0.844916
4003.000000;0.843043
4002.000000;0.840493
4001.000000;0.837835
4000.000000;0.835693
3999.000000;0.833786
3998.000000;0.831283
3997.000000;0.828053
3996.000000;0.824930
3995.000000;0.822574
3994.000000;0.820655
3993.000000;0.818419
3992.000000;0.815619
3991.000000;0.812502
3990.000000;0.809168
3989.000000;0.805439
3988.000000;0.801292
3987.000000;0.797071
3986.000000;0.793205
3985.000000;0.789920
3984.000000;0.787197
3983.000000;0.784832
3982.000000;0.782510
3981.000000;0.779870
3980.000000;0.776552
3979.000000;0.772271
3978.000000;0.767113
3977.000000;0.761787
3976.000000;0.757306
3975.000000;0.754152
3974.000000;0.751854
3973.000000;0.749546
3972.000000;0.746836
3971.000000;0.743889
3970.000000;0.740836
3969.000000;0.737558
3968.000000;0.734102
3967.000000;0.730862
3966.000000;0.728058
3965.000000;0.725285
3964.000000;0.721902
3963.000000;0.717817
3962.000000;0.713575
3961.000000;0.709613
3960.000000;0.705741
3959.000000;0.701582
3958.000000;0.697349
3957.000000;0.693818
3956.000000;0.691423
3955.000000;0.689606
3954.000000;0.687236
3953.000000;0.683601
3952.000000;0.678889
3951.000000;0.673826
3950.000000;0.669073
3949.000000;0.664930
3948.000000;0.661336
3947.000000;0.657977
3946.000000;0.654446
3945.000000;0.650408
3944.000000;0.645741
3943.000000;0.640677
3942.000000;0.635803
3941.000000;0.631712
3940.000000;0.628547
3939.000000;0.625927
3938.000000;0.623315
3937.000000;0.620330
3936.000000;0.616702
3935.000000;0.612226
3934.000000;0.607035
3933.000000;0.601743
3932.000000;0.597009
3931.000000;0.593033
3930.000000;0.589646
3929.000000;0.586649
3928.000000;0.583742
3927.000000;0.580405
3926.000000;0.576406
3925.000000;0.572318
3924.000000;0.568920
3923.000000;0.566064
3922.000000;0.562666
3921.000000;0.557970
3920.000000;0.552296
3919.000000;0.546411
3918.000000;0.540793
3917.000000;0.535792
3916.000000;0.531887
3915.000000;0.529243
3914.000000;0.527324
3913.000000;0.525378
3912.000000;0.523062
3911.000000;0.520272
3910.000000;0.516758
3909.000000;0.512392
3908.000000;0.507543
3907.000000;0.502691
3906.000000;0.497901
3905.000000;0.493113
3904.000000;0.488677
3903.000000;0.485064
3902.000000;0.482110
3901.000000;0.479126
3900.000000;0.475778
3899.000000;0.472372
3898.000000;0.469249
3897.000000;0.466342
3896.000000;0.463446
3895.000000;0.460516
3894.000000;0.457557
3893.000000;0.454587
3892.000000;0.451852
3891.000000;0.449704
3890.000000;0.448046
3889.000000;0.446132
3888.000000;0.443230
3887.000000;0.439408
3886.000000;0.435376
3885.000000;0.431768
3884.000000;0.428751
3883.000000;0.426130
3882.000000;0.423687
3881.000000;0.421399
3880.000000;0.419322
3879.000000;0.417328
3878.000000;0.415012
3877.000000;0.411940
3876.000000;0.408108
3875.000000;0.404034
3874.000000;0.400386
3873.000000;0.397579
3872.000000;0.395538
3871.000000;0.393839
3870.000000;0.392163
3869.000000;0.390536
3868.000000;0.388945
3867.000000;0.386885
3866.000000;0.383879
3865.000000;0.380383
3864.000000;0.377594
3863.000000;0.376189
3862.000000;0.375528
3861.000000;0.374383
3860.000000;0.372244
3859.000000;0.369542
3858.000000;0.366797
3857.000000;0.364008
3856.000000;0.360915
3855.000000;0.357558
3854.000000;0.354411
3853.000000;0.352147
3852.000000;0.351180
3851.000000;0.350928
3850.000000;0.350043
3849.000000;0.347856
3848.000000;0.344867
3847.000000;0.341927
3846.000000;0.339402
3845.000000;0.337094
3844.000000;0.334769
3843.000000;0.332435
3842.000000;0.330101
3841.000000;0.327550
3840.000000;0.324565
3839.000000;0.321360
3838.000000;0.318565
3837.000000;0.316662
3836.000000;0.315472
3835.000000;0.314269
3834.000000;0.312409
3833.000000;0.309853
3832.000000;0.307129
3831.000000;0.304885
3830.000000;0.303354
3829.000000;0.302095
3828.000000;0.300290
3827.000000;0.297439
3826.000000;0.293880
3825.000000;0.290559
3824.000000;0.288100
3823.000000;0.286180
3822.000000;0.284040
3821.000000;0.281512
3820.000000;0.279270
3819.000000;0.277787
3818.000000;0.276489
3817.000000;0.274542
3816.000000;0.271943
3815.000000;0.269338
3814.000000;0.267056
3813.000000;0.264686
3812.000000;0.261829
3811.000000;0.258765
3810.000000;0.256022
3809.000000;0.253722
3808.000000;0.251595
3807.000000;0.249422
3806.000000;0.247279
3805.000000;0.245248
3804.000000;0.243073
3803.000000;0.240432
3802.000000;0.237451
3801.000000;0.234760
3800.000000;0.232957
3799.000000;0.231785
3798.000000;0.230291
3797.000000;0.228035
3796.000000;0.225518
3795.000000;0.223386
3794.000000;0.221603
3793.000000;0.219581
3792.000000;0.216984
3791.000000;0.214073
3790.000000;0.211260
3789.000000;0.208642
3788.000000;0.206047
3787.000000;0.203318
3786.000000;0.200449
3785.000000;0.197567
3784.000000;0.194883
3783.000000;0.192548
3782.000000;0.190525
3781.000000;0.188632
3780.000000;0.186728
3779.000000;0.184780
3778.000000;0.182780
3777.000000;0.180646
3776.000000;0.178240
3775.000000;0.175467
3774.000000;0.172362
3773.000000;0.169151
3772.000000;0.166190
3771.000000;0.163705
3770.000000;0.161557
3769.000000;0.159331
3768.000000;0.156681
3767.000000;0.153599
3766.000000;0.150436
3765.000000;0.147639
3764.000000;0.145395
3763.000000;0.143442
3762.000000;0.141269
3761.000000;0.138586
3760.000000;0.135608
3759.000000;0.132808
3758.000000;0.130426
3757.000000;0.128286
3756.000000;0.126089
3755.000000;0.123717
3754.000000;0.121238
3753.000000;0.118747
3752.000000;0.116282
3751.000000;0.113816
3750.000000;0.111296
3749.000000;0.108726
3748.000000;0.106182
3747.000000;0.103719
3746.000000;0.101244
3745.000000;0.098552
3744.000000;0.095657
3743.000000;0.092918
3742.000000;0.090426
3741.000000;0.087777
3740.000000;0.084793
3739.000000;0.081761
3738.000000;0.079014
3737.000000;0.076557
3736.000000;0.074063
3735.000000;0.071275
3734.000000;0.068311
3733.000000;0.065477
3732.000000;0.062871
3731.000000;0.060279
3730.000000;0.057409
3729.000000;0.054222
3728.000000;0.050988
3727.000000;0.047961
3726.000000;0.045092
3725.000000;0.042133
3724.000000;0.038916
3723.000000;0.035581
3722.000000;0.032500
3721.000000;0.029873
3720.000000;0.027455
3719.000000;0.024824
3718.000000;0.021867
3717.000000;0.018792
3716.000000;0.015693
3715.000000;0.012367
3714.000000;0.008736
3713.000000;0.005180
3712.000000;0.002143
3711.000000;-0.000452
3710.000000;-0.003104
3709.000000;-0.006139
3708.000000;-0.009453
3707.000000;-0.012791
3706.000000;-0.016081
3705.000000;-0.019401
3704.000000;-0.022808
3703.000000;-0.026279
3702.000000;-0.029714
3701.000000;-0.032929
3700.000000;-0.035821
3699.000000;-0.038571
3698.000000;-0.041506
3697.000000;-0.044723
3696.000000;-0.048004
3695.000000;-0.051113
3694.000000;-0.054038
3693.000000;-0.056925
3692.000000;-0.059947
3691.000000;-0.063285
3690.000000;-0.066984
3689.000000;-0.070724
3688.000000;-0.073960
3687.000000;-0.076514
3686.000000;-0.078886
3685.000000;-0.081730
3684.000000;-0.085218
3683.000000;-0.088979
3682.000000;-0.092485
3681.000000;-0.095492
3680.000000;-0.098232
3679.000000;-0.101179
3678.000000;-0.104598
3677.000000;-0.108377
3676.000000;-0.112284
3675.000000;-0.116167
3674.000000;-0.119848
3673.000000;-0.123222
3672.000000;-0.126315
3671.000000;-0.129211
3670.000000;-0.132176
3669.000000;-0.135486
3668.000000;-0.139187
3667.000000;-0.143271
3666.000000;-0.147635
3665.000000;-0.151935
3664.000000;-0.155765
3663.000000;-0.158934
3662.000000;-0.161585
3661.000000;-0.164094
3660.000000;-0.166871
3659.000000;-0.170226
3658.000000;-0.174230
3657.000000;-0.178643
3656.000000;-0.183040
3655.000000;-0.187074
3654.000000;-0.190697
3653.000000;-0.194105
3652.000000;-0.197511
3651.000000;-0.200986
3650.000000;-0.204377
3649.000000;-0.207404
3648.000000;-0.210069
3647.000000;-0.212876
3646.000000;-0.216280
3645.000000;-0.220080
3644.000000;-0.223722
3643.000000;-0.227044
3642.000000;-0.230384
3641.000000;-0.234062
3640.000000;-0.238113
3639.000000;-0.242482
3638.000000;-0.247019
3637.000000;-0.251297
3636.000000;-0.254883
3635.000000;-0.257871
3634.000000;-0.260782
3633.000000;-0.263887
3632.000000;-0.267028
3631.000000;-0.270146
3630.000000;-0.273488
3629.000000;-0.277119
3628.000000;-0.280608
3627.000000;-0.283598
3626.000000;-0.286361
3625.000000;-0.289287
3624.000000;-0.292371
3623.000000;-0.295613
3622.000000;-0.299224
3621.000000;-0.303231
3620.000000;-0.307295
3619.000000;-0.311097
3618.000000;-0.314626
3617.000000;-0.317944
3616.000000;-0.320988
3615.000000;-0.323792
3614.000000;-0.326617
3613.000000;-0.329597
3612.000000;-0.332544
3611.000000;-0.335364
3610.000000;-0.338281
3609.000000;-0.341365
3608.000000;-0.344226
3607.000000;-0.346535
3606.000000;-0.348574
3605.000000;-0.350904
3604.000000;-0.353748
3603.000000;-0.357019
3602.000000;-0.360594
3601.000000;-0.364137
3600.000000;-0.367004
3599.000000;-0.368901
3598.000000;-0.370457
3597.000000;-0.372564
3596.000000;-0.375256
3595.000000;-0.377791
3594.000000;-0.379755
3593.000000;-0.381519
3592.000000;-0.383559
3591.000000;-0.385786
3590.000000;-0.387723
3589.000000;-0.389074
3588.000000;-0.389963
3587.000000;-0.390823
3586.000000;-0.392138
3585.000000;-0.394055
3584.000000;-0.396122
3583.000000;-0.397631
3582.000000;-0.398388
3581.000000;-0.398936
3580.000000;-0.399953
3579.000000;-0.401666
3578.000000;-0.403858
3577.000000;-0.406138
3576.000000;-0.408080
3575.000000;-0.409354
3574.000000;-0.409927
3573.000000;-0.410049
3572.000000;-0.409948
3571.000000;-0.409630
3570.000000;-0.409081
3569.000000;-0.408524
3568.000000;-0.408269
3567.000000;-0.408263
3566.000000;-0.407983
3565.000000;-0.406977
3564.000000;-0.405497
3563.000000;-0.404401
3562.000000;-0.404343
3561.000000;-0.405111
3560.000000;-0.405881
3559.000000;-0.406075
3558.000000;-0.405797
3557.000000;-0.405428
3556.000000;-0.405099
3555.000000;-0.404721
3554.000000;-0.404267
3553.000000;-0.403718
3552.000000;-0.402827
3551.000000;-0.401257
3550.000000;-0.399045
3549.000000;-0.396781
3548.000000;-0.395184
3547.000000;-0.394492
3546.000000;-0.394207
3545.000000;-0.393465
3544.000000;-0.391775
3543.000000;-0.389482
3542.000000;-0.387428
3541.000000;-0.386113
3540.000000;-0.385243
3539.000000;-0.384132
3538.000000;-0.382416
3537.000000;-0.380283
3536.000000;-0.378145
3535.000000;-0.376219
3534.000000;-0.374373
3533.000000;-0.372310
3532.000000;-0.369935
3531.000000;-0.367546
3530.000000;-0.365556
3529.000000;-0.364026
3528.000000;-0.362623
3527.000000;-0.361007
3526.000000;-0.359067
3525.000000;-0.356793
3524.000000;-0.354204
3523.000000;-0.351502
3522.000000;-0.349017
3521.000000;-0.346836
3520.000000;-0.344759
3519.000000;-0.342752
3518.000000;-0.341145
3517.000000;-0.340088
3516.000000;-0.339094
3515.000000;-0.337487
3514.000000;-0.335128
3513.000000;-0.332427
3512.000000;-0.329764
3511.000000;-0.327217
3510.000000;-0.324728
3509.000000;-0.322229
3508.000000;-0.319611
3507.000000;-0.316851
3506.000000;-0.314157
3505.000000;-0.311795
3504.000000;-0.309756
3503.000000;-0.307792
3502.000000;-0.305720
3501.000000;-0.303509
3500.000000;-0.301157
3499.000000;-0.298688
3498.000000;-0.296237
3497.000000;-0.293915
3496.000000;-0.291628
3495.000000;-0.289233
3494.000000;-0.286837
3493.000000;-0.284692
3492.000000;-0.282826
3491.000000;-0.280995
3490.000000;-0.278983
3489.000000;-0.276751
3488.000000;-0.274313
3487.000000;-0.271728
3486.000000;-0.269227
3485.000000;-0.267056
3484.000000;-0.265100
3483.000000;-0.262906
3482.000000;-0.260238
3481.000000;-0.257425
3480.000000;-0.254986
3479.000000;-0.253030
3478.000000;-0.251202
3477.000000;-0.249147
3476.000000;-0.246854
3475.000000;-0.244535
3474.000000;-0.242320
3473.000000;-0.240180
3472.000000;-0.238049
3471.000000;-0.235894
3470.000000;-0.233655
3469.000000;-0.231251
3468.000000;-0.228718
3467.000000;-0.226243
3466.000000;-0.223979
3465.000000;-0.221908
3464.000000;-0.219980
3463.000000;-0.218232
3462.000000;-0.216602
3461.000000;-0.214778
3460.000000;-0.212516
3459.000000;-0.210051
3458.000000;-0.207850
3457.000000;-0.205978
3456.000000;-0.204065
3455.000000;-0.201942
3454.000000;-0.199925
3453.000000;-0.198319
3452.000000;-0.196980
3451.000000;-0.195594
3450.000000;-0.194049
3449.000000;-0.192347
3448.000000;-0.190447
3447.000000;-0.188497
3446.000000;-0.186916
3445.000000;-0.185886
3444.000000;-0.184929
3443.000000;-0.183342
3442.000000;-0.180939
3441.000000;-0.178114
3440.000000;-0.175346
3439.000000;-0.172912
3438.000000;-0.170930
3437.000000;-0.169326
3436.000000;-0.167838
3435.000000;-0.166271
3434.000000;-0.164646
3433.000000;-0.162930
3432.000000;-0.160854
3431.000000;-0.158351
3430.000000;-0.155908
3429.000000;-0.154035
3428.000000;-0.152552
3427.000000;-0.150863
3426.000000;-0.148848
3425.000000;-0.146969
3424.000000;-0.145532
3423.000000;-0.144323
3422.000000;-0.143055
3421.000000;-0.141707
3420.000000;-0.140276
3419.000000;-0.138624
3418.000000;-0.136742
3417.000000;-0.134817
3416.000000;-0.132891
3415.000000;-0.130798
3414.000000;-0.128599
3413.000000;-0.126729
3412.000000;-0.125473
3411.000000;-0.124568
3410.000000;-0.123566
3409.000000;-0.122359
3408.000000;-0.121103
3407.000000;-0.119838
3406.000000;-0.118457
3405.000000;-0.116927
3404.000000;-0.115314
3403.000000;-0.113656
3402.000000;-0.111962
3401.000000;-0.110281
3400.000000;-0.108652
3399.000000;-0.107076
3398.000000;-0.105683
3397.000000;-0.104762
3396.000000;-0.104402
3395.000000;-0.104119
3394.000000;-0.103096
3393.000000;-0.100932
3392.000000;-0.098096
3391.000000;-0.095575
3390.000000;-0.093995
3389.000000;-0.093138
3388.000000;-0.092345
3387.000000;-0.091292
3386.000000;-0.090200
3385.000000;-0.089288
3384.000000;-0.088325
3383.000000;-0.086947
3382.000000;-0.085221
3381.000000;-0.083550
3380.000000;-0.082092
3379.000000;-0.080629
3378.000000;-0.079061
3377.000000;-0.077645
3376.000000;-0.076583
3375.000000;-0.075653
3374.000000;-0.074517
3373.000000;-0.073212
3372.000000;-0.072110
3371.000000;-0.071441
3370.000000;-0.071019
3369.000000;-0.070401
3368.000000;-0.069187
3367.000000;-0.067250
3366.000000;-0.064825
3365.000000;-0.062382
3364.000000;-0.060327
3363.000000;-0.058820
3362.000000;-0.057824
3361.000000;-0.057189
3360.000000;-0.056632
3359.000000;-0.055824
3358.000000;-0.054652
3357.000000;-0.053334
3356.000000;-0.052182
3355.000000;-0.051303
3354.000000;-0.050608
3353.000000;-0.050014
3352.000000;-0.049496
3351.000000;-0.048980
3350.000000;-0.048340
3349.000000;-0.047491
3348.000000;-0.046393
3347.000000;-0.044983
3346.000000;-0.043241
3345.000000;-0.041345
3344.000000;-0.039629
3343.000000;-0.038279
3342.000000;-0.037138
3341.000000;-0.035919
3340.000000;-0.034562
3339.000000;-0.033289
3338.000000;-0.032271
3337.000000;-0.031396
3336.000000;-0.030467
3335.000000;-0.029547
3334.000000;-0.028907
3333.000000;-0.028613
3332.000000;-0.028349
3331.000000;-0.027767
3330.000000;-0.026871
3329.000000;-0.025911
3328.000000;-0.024973
3327.000000;-0.023880
3326.000000;-0.022493
3325.000000;-0.020981
3324.000000;-0.019721
3323.000000;-0.018968
3322.000000;-0.018644
3321.000000;-0.018376
3320.000000;-0.017736
3319.000000;-0.016533
3318.000000;-0.014948
3317.000000;-0.013392
3316.000000;-0.012175
3315.000000;-0.011297
3314.000000;-0.010524
3313.000000;-0.009661
3312.000000;-0.008745
3311.000000;-0.007955
3310.000000;-0.007361
3309.000000;-0.006838
3308.000000;-0.006281
3307.000000;-0.005805
3306.000000;-0.005548
3305.000000;-0.005345
3304.000000;-0.004825
3303.000000;-0.003866
3302.000000;-0.002716
3301.000000;-0.001583
3300.000000;-0.000369
3299.000000;0.001000
3298.000000;0.002231
3297.000000;0.002971
3296.000000;0.003320
3295.000000;0.003721
3294.000000;0.004394
3293.000000;0.005162
3292.000000;0.005827
3291.000000;0.006399
3290.000000;0.006942
3289.000000;0.007495
3288.000000;0.008269
3287.000000;0.009605
3286.000000;0.011559
3285.000000;0.013660
3284.000000;0.015322
3283.000000;0.016369
3282.000000;0.017041
3281.000000;0.017578
3280.000000;0.018011
3279.000000;0.018287
3278.000000;0.018444
3277.000000;0.018621
3276.000000;0.018981
3275.000000;0.019593
3274.000000;0.020336
3273.000000;0.020938
3272.000000;0.021217
3271.000000;0.021300
3270.000000;0.021550
3269.000000;0.022291
3268.000000;0.023616
3267.000000;0.025362
3266.000000;0.027160
3265.000000;0.028539
3264.000000;0.029170
3263.000000;0.029157
3262.000000;0.029033
3261.000000;0.029361
3260.000000;0.030258
3259.000000;0.031322
3258.000000;0.032069
3257.000000;0.032428
3256.000000;0.032766
3255.000000;0.033421
3254.000000;0.034307
3253.000000;0.035038
3252.000000;0.035374
3251.000000;0.035470
3250.000000;0.035738
3249.000000;0.036537
3248.000000;0.037966
3247.000000;0.039778
3246.000000;0.041418
3245.000000;0.042307
3244.000000;0.042312
3243.000000;0.041940
3242.000000;0.041938
3241.000000;0.042634
3240.000000;0.043701
3239.000000;0.044585
3238.000000;0.045090
3237.000000;0.045473
3236.000000;0.046059
3235.000000;0.046895
3234.000000;0.047765
3233.000000;0.048397
3232.000000;0.048629
3231.000000;0.048530
3230.000000;0.048450
3229.000000;0.048852
3228.000000;0.049963
3227.000000;0.051586
3226.000000;0.053268
3225.000000;0.054579
3224.000000;0.055262
3223.000000;0.055317
3222.000000;0.055127
3221.000000;0.055305
3220.000000;0.056152
3219.000000;0.057287
3218.000000;0.058045
3217.000000;0.058249
3216.000000;0.058364
3215.000000;0.058861
3214.000000;0.059687
3213.000000;0.060449
3212.000000;0.060913
3211.000000;0.061160
3210.000000;0.061389
3209.000000;0.061697
3208.000000;0.062029
3207.000000;0.062291
3206.000000;0.062535
3205.000000;0.063021
3204.000000;0.063940
3203.000000;0.065093
3202.000000;0.066040
3201.000000;0.066596
3200.000000;0.066980
3199.000000;0.067427
3198.000000;0.067897
3197.000000;0.068302
3196.000000;0.068797
3195.000000;0.069590
3194.000000;0.070600
3193.000000;0.071465
3192.000000;0.071884
3191.000000;0.071799
3190.000000;0.071385
3189.000000;0.070994
3188.000000;0.071008
3187.000000;0.071546
3186.000000;0.072362
3185.000000;0.073123
3184.000000;0.073740
3183.000000;0.074309
3182.000000;0.074877
3181.000000;0.075435
3180.000000;0.076063
3179.000000;0.076842
3178.000000;0.077652
3177.000000;0.078207
3176.000000;0.078341
3175.000000;0.078135
3174.000000;0.077822
3173.000000;0.077670
3172.000000;0.077905
3171.000000;0.078575
3170.000000;0.079494
3169.000000;0.080413
3168.000000;0.081210
3167.000000;0.081845
3166.000000;0.082248
3165.000000;0.082418
3164.000000;0.082564
3163.000000;0.082949
3162.000000;0.083564
3161.000000;0.084123
3160.000000;0.084425
3159.000000;0.084622
3158.000000;0.085099
3157.000000;0.086127
3156.000000;0.087624
3155.000000;0.089178
3154.000000;0.090339
3153.000000;0.090979
3152.000000;0.091337
3151.000000;0.091678
3150.000000;0.091995
3149.000000;0.092145
3148.000000;0.092155
3147.000000;0.092216
3146.000000;0.092425
3145.000000;0.092721
3144.000000;0.093086
3143.000000;0.093636
3142.000000;0.094448
3141.000000;0.095374
3140.000000;0.096105
3139.000000;0.096413
3138.000000;0.096355
3137.000000;0.096279
3136.000000;0.096554
3135.000000;0.097228
3134.000000;0.097994
3133.000000;0.098561
3132.000000;0.098934
3131.000000;0.099258
3130.000000;0.099556
3129.000000;0.099810
3128.000000;0.100183
3127.000000;0.100869
3126.000000;0.101776
3125.000000;0.102601
3124.000000;0.103220
3123.000000;0.103738
3122.000000;0.104137
3121.000000;0.104183
3120.000000;0.103865
3119.000000;0.103642
3118.000000;0.103998
3117.000000;0.104832
3116.000000;0.105538
3115.000000;0.105680
3114.000000;0.105445
3113.000000;0.105384
3112.000000;0.105863
3111.000000;0.106803
3110.000000;0.107878
3109.000000;0.108814
3108.000000;0.109489
3107.000000;0.109839
3106.000000;0.109874
3105.000000;0.109816
3104.000000;0.110076
3103.000000;0.110876
3102.000000;0.111937
3101.000000;0.112680
3100.000000;0.112763
3099.000000;0.112355
3098.000000;0.111903
3097.000000;0.111815
3096.000000;0.112344
3095.000000;0.113532
3094.000000;0.115080
3093.000000;0.116401
3092.000000;0.117028
3091.000000;0.117000
3090.000000;0.116778
3089.000000;0.116764
3088.000000;0.116983
3087.000000;0.117224
3086.000000;0.117400
3085.000000;0.117684
3084.000000;0.118265
3083.000000;0.119030
3082.000000;0.119576
3081.000000;0.119614
3080.000000;0.119292
3079.000000;0.119043
3078.000000;0.119141
3077.000000;0.119512
3076.000000;0.119967
3075.000000;0.120460
3074.000000;0.121025
3073.000000;0.121593
3072.000000;0.122029
3071.000000;0.122326
3070.000000;0.122676
3069.000000;0.123302
3068.000000;0.124243
3067.000000;0.125284
3066.000000;0.126080
3065.000000;0.126411
3064.000000;0.126401
3063.000000;0.126469
3062.000000;0.126976
3061.000000;0.127885
3060.000000;0.128804
3059.000000;0.129394
3058.000000;0.129681
3057.000000;0.129964
3056.000000;0.130490
3055.000000;0.131266
3054.000000;0.132112
3053.000000;0.132798
3052.000000;0.133142
3051.000000;0.133082
3050.000000;0.132739
3049.000000;0.132362
3048.000000;0.132184
3047.000000;0.132324
3046.000000;0.132812
3045.000000;0.133598
3044.000000;0.134501
3043.000000;0.135245
3042.000000;0.135642
3041.000000;0.135736
3040.000000;0.135707
3039.000000;0.135700
3038.000000;0.135811
3037.000000;0.136134
3036.000000;0.136723
3035.000000;0.137529
3034.000000;0.138472
3033.000000;0.139544
3032.000000;0.140682
3031.000000;0.141605
3030.000000;0.141975
3029.000000;0.141776
3028.000000;0.141397
3027.000000;0.141252
3026.000000;0.141416
3025.000000;0.141710
3024.000000;0.142015
3023.000000;0.142398
3022.000000;0.142939
3021.000000;0.143561
3020.000000;0.144043
3019.000000;0.144225
3018.000000;0.144199
3017.000000;0.144275
3016.000000;0.144697
3015.000000;0.145410
3014.000000;0.146153
3013.000000;0.146743
3012.000000;0.147163
3011.000000;0.147441
3010.000000;0.147627
3009.000000;0.147895
3008.000000;0.148463
3007.000000;0.149293
3006.000000;0.150032
3005.000000;0.150386
3004.000000;0.150425
3003.000000;0.150436
3002.000000;0.150602
3001.000000;0.150970
3000.000000;0.151606
2999.000000;0.152548
2998.000000;0.153637
2997.000000;0.154564
2996.000000;0.155134
2995.000000;0.155404
2994.000000;0.155575
2993.000000;0.155854
2992.000000;0.156384
2991.000000;0.157183
2990.000000;0.158073
2989.000000;0.158743
2988.000000;0.158949
2987.000000;0.158685
2986.000000;0.158210
2985.000000;0.157925
2984.000000;0.158135
2983.000000;0.158805
2982.000000;0.159554
2981.000000;0.159981
2980.000000;0.160040
2979.000000;0.160034
2978.000000;0.160277
2977.000000;0.160820
2976.000000;0.161515
2975.000000;0.162250
2974.000000;0.163016
2973.000000;0.163773
2972.000000;0.164361
2971.000000;0.164675
2970.000000;0.164907
2969.000000;0.165438
2968.000000;0.166368
2967.000000;0.167266
2966.000000;0.167593
2965.000000;0.167369
2964.000000;0.167197
2963.000000;0.167591
2962.000000;0.168457
2961.000000;0.169350
2960.000000;0.170029
2959.000000;0.170573
2958.000000;0.171072
2957.000000;0.171439
2956.000000;0.171556
2955.000000;0.171441
2954.000000;0.171272
2953.000000;0.171301
2952.000000;0.171724
2951.000000;0.172504
2950.000000;0.173342
2949.000000;0.173938
2948.000000;0.174320
2947.000000;0.174826
2946.000000;0.175697
2945.000000;0.176782
2944.000000;0.177670
2943.000000;0.178071
2942.000000;0.178045
2941.000000;0.177878
2940.000000;0.177796
2939.000000;0.177822
2938.000000;0.177879
2937.000000;0.177977
2936.000000;0.178258
2935.000000;0.178851
2934.000000;0.179725
2933.000000;0.180685
2932.000000;0.181479
2931.000000;0.181926
2930.000000;0.182037
2929.000000;0.182031
2928.000000;0.182180
2927.000000;0.182577
2926.000000;0.183071
2925.000000;0.183450
2924.000000;0.183656
2923.000000;0.183816
2922.000000;0.184112
2921.000000;0.184640
2920.000000;0.185340
2919.000000;0.186025
2918.000000;0.186488
2917.000000;0.186645
2916.000000;0.186622
2915.000000;0.186742
2914.000000;0.187365
2913.000000;0.188590
2912.000000;0.190058
2911.000000;0.191171
2910.000000;0.191663
2909.000000;0.191837
2908.000000;0.192115
2907.000000;0.192517
2906.000000;0.192807
2905.000000;0.193016
2904.000000;0.193440
2903.000000;0.194124
2902.000000;0.194749
2901.000000;0.195126
2900.000000;0.195473
2899.000000;0.195987
2898.000000;0.196450
2897.000000;0.196559
2896.000000;0.196439
2895.000000;0.196514
2894.000000;0.196985
2893.000000;0.197724
2892.000000;0.198607
2891.000000;0.199628
2890.000000;0.200672
2889.000000;0.201443
2888.000000;0.201747
2887.000000;0.201701
2886.000000;0.201568
2885.000000;0.201498
2884.000000;0.201510
2883.000000;0.201631
2882.000000;0.201973
2881.000000;0.202637
2880.000000;0.203560
2879.000000;0.204489
2878.000000;0.205173
2877.000000;0.205612
2876.000000;0.206038
2875.000000;0.206627
2874.000000;0.207314
2873.000000;0.207943
2872.000000;0.208466
2871.000000;0.208911
2870.000000;0.209267
2869.000000;0.209528
2868.000000;0.209796
2867.000000;0.210230
2866.000000;0.210913
2865.000000;0.211779
2864.000000;0.212592
2863.000000;0.213032
2862.000000;0.212961
2861.000000;0.212669
2860.000000;0.212657
2859.000000;0.213081
2858.000000;0.213615
2857.000000;0.213984
2856.000000;0.214367
2855.000000;0.215039
2854.000000;0.215849
2853.000000;0.216398
2852.000000;0.216668
2851.000000;0.217100
2850.000000;0.218013
2849.000000;0.219219
2848.000000;0.220272
2847.000000;0.220912
2846.000000;0.221203
2845.000000;0.221411
2844.000000;0.221799
2843.000000;0.222392
2842.000000;0.222896
2841.000000;0.223011
2840.000000;0.222819
2839.000000;0.222759
2838.000000;0.223200
2837.000000;0.224153
2836.000000;0.225324
2835.000000;0.226298
2834.000000;0.226748
2833.000000;0.226696
2832.000000;0.226573
2831.000000;0.226792
2830.000000;0.227287
2829.000000;0.227671
2828.000000;0.227835
2827.000000;0.228100
2826.000000;0.228713
2825.000000;0.229500
2824.000000;0.230158
2823.000000;0.230668
2822.000000;0.231229
2821.000000;0.231940
2820.000000;0.232662
2819.000000;0.233144
2818.000000;0.233216
2817.000000;0.233025
2816.000000;0.233089
2815.000000;0.233876
2814.000000;0.235250
2813.000000;0.236555
2812.000000;0.237361
2811.000000;0.237862
2810.000000;0.238395
2809.000000;0.238896
2808.000000;0.239122
2807.000000;0.239145
2806.000000;0.239278
2805.000000;0.239655
2804.000000;0.240212
2803.000000;0.240963
2802.000000;0.241911
2801.000000;0.242728
2800.000000;0.242919
2799.000000;0.242427
2798.000000;0.241817
2797.000000;0.241753
2796.000000;0.242486
2795.000000;0.243882
2794.000000;0.245668
2793.000000;0.247484
2792.000000;0.248915
2791.000000;0.249711
2790.000000;0.249948
2789.000000;0.249886
2788.000000;0.249734
2787.000000;0.249599
2786.000000;0.249529
2785.000000;0.249525
2784.000000;0.249599
2783.000000;0.249859
2782.000000;0.250454
2781.000000;0.251347
2780.000000;0.252284
2779.000000;0.253063
2778.000000;0.253731
2777.000000;0.254441
2776.000000;0.255236
2775.000000;0.256048
2774.000000;0.256762
2773.000000;0.257162
2772.000000;0.256994
2771.000000;0.256290
2770.000000;0.255556
2769.000000;0.255412
2768.000000;0.256033
2767.000000;0.257120
2766.000000;0.258345
2765.000000;0.259621
2764.000000;0.260906
2763.000000;0.261991
2762.000000;0.262684
2761.000000;0.263092
2760.000000;0.263535
2759.000000;0.264217
2758.000000;0.265049
2757.000000;0.265759
2756.000000;0.266121
2755.000000;0.266121
2754.000000;0.265969
2753.000000;0.265934
2752.000000;0.266121
2751.000000;0.266432
2750.000000;0.266756
2749.000000;0.267160
2748.000000;0.267832
2747.000000;0.268866
2746.000000;0.270184
2745.000000;0.271613
2744.000000;0.272922
2743.000000;0.273849
2742.000000;0.274233
2741.000000;0.274214
2740.000000;0.274168
2739.000000;0.274385
2738.000000;0.274844
2737.000000;0.275377
2736.000000;0.275910
2735.000000;0.276449
2734.000000;0.276887
2733.000000;0.277065
2732.000000;0.277082
2731.000000;0.277355
2730.000000;0.278190
2729.000000;0.279374
2728.000000;0.280350
2727.000000;0.280791
2726.000000;0.280886
2725.000000;0.281049
2724.000000;0.281503
2723.000000;0.282212
2722.000000;0.283042
2721.000000;0.283845
2720.000000;0.284448
2719.000000;0.284751
2718.000000;0.284844
2717.000000;0.284924
2716.000000;0.285121
2715.000000;0.285486
2714.000000;0.286111
2713.000000;0.287065
2712.000000;0.288186
2711.000000;0.289103
2710.000000;0.289582
2709.000000;0.289744
2708.000000;0.289841
2707.000000;0.289929
2706.000000;0.289935
2705.000000;0.289952
2704.000000;0.290250
2703.000000;0.290932
2702.000000;0.291759
2701.000000;0.292427
2700.000000;0.292959
2699.000000;0.293673
2698.000000;0.294771
2697.000000;0.296080
2696.000000;0.297240
2695.000000;0.298071
2694.000000;0.298644
2693.000000;0.299037
2692.000000;0.299172
2691.000000;0.298970
2690.000000;0.298604
2689.000000;0.298440
2688.000000;0.298721
2687.000000;0.299378
2686.000000;0.300187
2685.000000;0.301019
2684.000000;0.301891
2683.000000;0.302830
2682.000000;0.303789
2681.000000;0.304685
2680.000000;0.305465
2679.000000;0.306104
2678.000000;0.306568
2677.000000;0.306858
2676.000000;0.307087
2675.000000;0.307470
2674.000000;0.308136
2673.000000;0.308977
2672.000000;0.309742
2671.000000;0.310333
2670.000000;0.310900
2669.000000;0.311574
2668.000000;0.312208
2667.000000;0.312566
2666.000000;0.312703
2665.000000;0.312953
2664.000000;0.313506
2663.000000;0.314169
2662.000000;0.314662
2661.000000;0.314998
2660.000000;0.315431
2659.000000;0.316090
2658.000000;0.316783
2657.000000;0.317135
2656.000000;0.316935
2655.000000;0.316385
2654.000000;0.316053
2653.000000;0.316470
2652.000000;0.317672
2651.000000;0.319188
2650.000000;0.320503
2649.000000;0.321413
2648.000000;0.321921
2647.000000;0.322032
2646.000000;0.321863
2645.000000;0.321837
2644.000000;0.322472
2643.000000;0.323865
2642.000000;0.325509
2641.000000;0.326691
2640.000000;0.327074
2639.000000;0.326914
2638.000000;0.326771
2637.000000;0.327022
2636.000000;0.327618
2635.000000;0.328278
2634.000000;0.328850
2633.000000;0.329380
2632.000000;0.329858
2631.000000;0.330129
2630.000000;0.330178
2629.000000;0.330281
2628.000000;0.330696
2627.000000;0.331353
2626.000000;0.332030
2625.000000;0.332741
2624.000000;0.333645
2623.000000;0.334681
2622.000000;0.335574
2621.000000;0.336228
2620.000000;0.336827
2619.000000;0.337486
2618.000000;0.338071
2617.000000;0.338472
2616.000000;0.338836
2615.000000;0.339362
2614.000000;0.339994
2613.000000;0.340505
2612.000000;0.340796
2611.000000;0.340971
2610.000000;0.341174
2609.000000;0.341470
2608.000000;0.341887
2607.000000;0.342467
2606.000000;0.343240
2605.000000;0.344156
2604.000000;0.345061
2603.000000;0.345780
2602.000000;0.346301
2601.000000;0.346800
2600.000000;0.347409
2599.000000;0.348006
2598.000000;0.348369
2597.000000;0.348494
2596.000000;0.348608
2595.000000;0.348897
2594.000000;0.349381
2593.000000;0.350017
2592.000000;0.350733
2591.000000;0.351368
2590.000000;0.351829
2589.000000;0.352330
2588.000000;0.353184
2587.000000;0.354264
2586.000000;0.354961
2585.000000;0.354861
2584.000000;0.354238
2583.000000;0.353715
2582.000000;0.353659
2581.000000;0.354126
2580.000000;0.355117
2579.000000;0.356544
2578.000000;0.358070
2577.000000;0.359337
2576.000000;0.360354
2575.000000;0.361369
2574.000000;0.362351
2573.000000;0.362944
2572.000000;0.362993
2571.000000;0.362871
2570.000000;0.363104
2569.000000;0.363816
2568.000000;0.364638
2567.000000;0.365093
2566.000000;0.365011
2565.000000;0.364704
2564.000000;0.364747
2563.000000;0.365489
2562.000000;0.366720
2561.000000;0.367902
2560.000000;0.368735
2559.000000;0.369385
2558.000000;0.370146
2557.000000;0.371067
2556.000000;0.371976
2555.000000;0.372710
2554.000000;0.373177
2553.000000;0.373345
2552.000000;0.373329
2551.000000;0.373428
2550.000000;0.373898
2549.000000;0.374691
2548.000000;0.375507
2547.000000;0.376112
2546.000000;0.376539
2545.000000;0.376969
2544.000000;0.377484
2543.000000;0.377990
2542.000000;0.378339
2541.000000;0.378496
2540.000000;0.378591
2539.000000;0.378798
2538.000000;0.379171
2537.000000;0.379610
2536.000000;0.379998
2535.000000;0.380321
2534.000000;0.380670
2533.000000;0.381159
2532.000000;0.381871
2531.000000;0.382856
2530.000000;0.384091
2529.000000;0.385417
2528.000000;0.386557
2527.000000;0.387292
2526.000000;0.387636
2525.000000;0.387795
2524.000000;0.387943
2523.000000;0.388067
2522.000000;0.388116
2521.000000;0.388255
2520.000000;0.388765
2519.000000;0.389647
2518.000000;0.390495
2517.000000;0.390951
2516.000000;0.391194
2515.000000;0.391732
2514.000000;0.392702
2513.000000;0.393654
2512.000000;0.394132
2511.000000;0.394277
2510.000000;0.394624
2509.000000;0.395407
2508.000000;0.396285
2507.000000;0.396779
2506.000000;0.396835
2505.000000;0.396902
2504.000000;0.397466
2503.000000;0.398542
2502.000000;0.399588
2501.000000;0.399998
2500.000000;0.399740
2499.000000;0.399408
2498.000000;0.399595
2497.000000;0.400298
2496.000000;0.401085
2495.000000;0.401730
2494.000000;0.402434
2493.000000;0.403408
2492.000000;0.404512
2491.000000;0.405452
2490.000000;0.406162
2489.000000;0.406804
2488.000000;0.407477
2487.000000;0.408075
2486.000000;0.408412
2485.000000;0.408407
2484.000000;0.408157
2483.000000;0.407930
2482.000000;0.408029
2481.000000;0.408595
2480.000000;0.409527
2479.000000;0.410613
2478.000000;0.411663
2477.000000;0.412471
2476.000000;0.412809
2475.000000;0.412642
2474.000000;0.412291
2473.000000;0.412208
2472.000000;0.412612
2471.000000;0.413413
2470.000000;0.414415
2469.000000;0.415400
2468.000000;0.416091
2467.000000;0.416283
2466.000000;0.416117
2465.000000;0.416029
2464.000000;0.416352
2463.000000;0.417074
2462.000000;0.417984
2461.000000;0.418877
2460.000000;0.419548
2459.000000;0.419836
2458.000000;0.419830
2457.000000;0.419902
2456.000000;0.420353
2455.000000;0.421143
2454.000000;0.422071
2453.000000;0.423050
2452.000000;0.424012
2451.000000;0.424738
2450.000000;0.425074
2449.000000;0.425253
2448.000000;0.425712
2447.000000;0.426571
2446.000000;0.427529
2445.000000;0.428281
2444.000000;0.428825
2443.000000;0.429314
2442.000000;0.429846
2441.000000;0.430500
2440.000000;0.431332
2439.000000;0.432201
2438.000000;0.432750
2437.000000;0.432771
2436.000000;0.432491
2435.000000;0.432358
2434.000000;0.432617
2433.000000;0.433199
2432.000000;0.433913
2431.000000;0.434597
2430.000000;0.435161
2429.000000;0.435599
2428.000000;0.435936
2427.000000;0.436100
2426.000000;0.435974
2425.000000;0.435712
2424.000000;0.435840
2423.000000;0.436778
2422.000000;0.438276
2421.000000;0.439581
2420.000000;0.440227
2419.000000;0.440479
2418.000000;0.440879
2417.000000;0.441556
2416.000000;0.442171
2415.000000;0.442440
2414.000000;0.442502
2413.000000;0.442754
2412.000000;0.443443
2411.000000;0.444458
2410.000000;0.445452
2409.000000;0.446150
2408.000000;0.446542
2407.000000;0.446807
2406.000000;0.447081
2405.000000;0.447384
2404.000000;0.447781
2403.000000;0.448456
2402.000000;0.449464
2401.000000;0.450480
2400.000000;0.451004
2399.000000;0.450904
2398.000000;0.450605
2397.000000;0.450623
2396.000000;0.451036
2395.000000;0.451549
2394.000000;0.451994
2393.000000;0.452558
2392.000000;0.453466
2391.000000;0.454637
2390.000000;0.455806
2389.000000;0.456853
2388.000000;0.457838
2387.000000;0.458751
2386.000000;0.459449
2385.000000;0.459882
2384.000000;0.460208
2383.000000;0.460564
2382.000000;0.460866
2381.000000;0.460997
2380.000000;0.461077
2379.000000;0.461349
2378.000000;0.461829
2377.000000;0.462325
2376.000000;0.462830
2375.000000;0.463628
2374.000000;0.464833
2373.000000;0.466043
2372.000000;0.466703
2371.000000;0.466746
2370.000000;0.466648
2369.000000;0.466886
2368.000000;0.467576
2367.000000;0.468621
2366.000000;0.469914
2365.000000;0.471221
2364.000000;0.472096
2363.000000;0.472234
2362.000000;0.471920
2361.000000;0.471784
2360.000000;0.472138
2359.000000;0.472802
2358.000000;0.473425
2357.000000;0.473927
2356.000000;0.474421
2355.000000;0.474932
2354.000000;0.475440
2353.000000;0.475950
2352.000000;0.476511
2351.000000;0.477048
2350.000000;0.477495
2349.000000;0.477964
2348.000000;0.478508
2347.000000;0.479083
2346.000000;0.479556
2345.000000;0.479950
2344.000000;0.480485
2343.000000;0.481322
2342.000000;0.482391
2341.000000;0.483244
2340.000000;0.483513
2339.000000;0.483206
2338.000000;0.482706
2337.000000;0.482457
2336.000000;0.482677
2335.000000;0.483338
2334.000000;0.484340
2333.000000;0.485561
2332.000000;0.486804
2331.000000;0.487766
2330.000000;0.488277
2329.000000;0.488514
2328.000000;0.488708
2327.000000;0.488998
2326.000000;0.489262
2325.000000;0.489399
2324.000000;0.489418
2323.000000;0.489381
2322.000000;0.489428
2321.000000;0.489658
2320.000000;0.490200
2319.000000;0.491070
2318.000000;0.492191
2317.000000;0.493379
2316.000000;0.494413
2315.000000;0.495157
2314.000000;0.495643
2313.000000;0.496039
2312.000000;0.496410
2311.000000;0.496667
2310.000000;0.496741
2309.000000;0.496838
2308.000000;0.497260
2307.000000;0.498035
2306.000000;0.498811
2305.000000;0.499223
2304.000000;0.499252
2303.000000;0.499170
2302.000000;0.499257
2301.000000;0.499657
2300.000000;0.500389
2299.000000;0.501329
2298.000000;0.502173
2297.000000;0.502660
2296.000000;0.502841
2295.000000;0.503050
2294.000000;0.503513
2293.000000;0.504187
2292.000000;0.504979
2291.000000;0.505966
2290.000000;0.507194
2289.000000;0.508402
2288.000000;0.509199
2287.000000;0.509537
2286.000000;0.509819
2285.000000;0.510416
2284.000000;0.511245
2283.000000;0.511898
2282.000000;0.512109
2281.000000;0.511967
2280.000000;0.511808
2279.000000;0.511985
2278.000000;0.512676
2277.000000;0.513715
2276.000000;0.514635
2275.000000;0.515026
2274.000000;0.514917
2273.000000;0.514770
2272.000000;0.515094
2271.000000;0.516053
2270.000000;0.517333
2269.000000;0.518300
2268.000000;0.518427
2267.000000;0.517791
2266.000000;0.517141
2265.000000;0.517298
2264.000000;0.518418
2263.000000;0.519911
2262.000000;0.521057
2261.000000;0.521602
2260.000000;0.521766
2259.000000;0.521910
2258.000000;0.522292
2257.000000;0.522940
2256.000000;0.523625
2255.000000;0.524084
2254.000000;0.524400
2253.000000;0.524986
2252.000000;0.526054
2251.000000;0.527248
2250.000000;0.528055
2249.000000;0.528490
2248.000000;0.529067
2247.000000;0.530067
2246.000000;0.531105
2245.000000;0.531564
2244.000000;0.531311
2243.000000;0.530829
2242.000000;0.530735
2241.000000;0.531276
2240.000000;0.532230
2239.000000;0.533155
2238.000000;0.533732
2237.000000;0.533967
2236.000000;0.534109
2235.000000;0.534392
2234.000000;0.534895
2233.000000;0.535596
2232.000000;0.536439
2231.000000;0.537299
2230.000000;0.537965
2229.000000;0.538292
2228.000000;0.538356
2227.000000;0.538392
2226.000000;0.538580
2225.000000;0.538923
2224.000000;0.539322
2223.000000;0.539710
2222.000000;0.540144
2221.000000;0.540802
2220.000000;0.541849
2219.000000;0.543185
2218.000000;0.544377
2217.000000;0.544991
2216.000000;0.545037
2215.000000;0.544955
2214.000000;0.545094
2213.000000;0.545382
2212.000000;0.545600
2211.000000;0.545809
2210.000000;0.546281
2209.000000;0.547045
2208.000000;0.547773
2207.000000;0.548172
2206.000000;0.548303
2205.000000;0.548435
2204.000000;0.548766
2203.000000;0.549373
2202.000000;0.550253
2201.000000;0.551259
2200.000000;0.552090
2199.000000;0.552522
2198.000000;0.552642
2197.000000;0.552758
2196.000000;0.553141
2195.000000;0.553888
2194.000000;0.554927
2193.000000;0.556004
2192.000000;0.556781
2191.000000;0.557142
2190.000000;0.557375
2189.000000;0.557848
2188.000000;0.558540
2187.000000;0.559083
2186.000000;0.559263
2185.000000;0.559269
2184.000000;0.559422
2183.000000;0.559848
2182.000000;0.560465
2181.000000;0.561093
2180.000000;0.561517
2179.000000;0.561628
2178.000000;0.561632
2177.000000;0.561946
2176.000000;0.562742
2175.000000;0.563696
2174.000000;0.564342
2173.000000;0.564605
2172.000000;0.564847
2171.000000;0.565450
2170.000000;0.566471
2169.000000;0.567641
2168.000000;0.568563
2167.000000;0.568967
2166.000000;0.568934
2165.000000;0.568886
2164.000000;0.569238
2163.000000;0.570051
2162.000000;0.571056
2161.000000;0.571970
2160.000000;0.572709
2159.000000;0.573301
2158.000000;0.573775
2157.000000;0.574208
2156.000000;0.574788
2155.000000;0.575693
2154.000000;0.576868
2153.000000;0.577979
2152.000000;0.578650
2151.000000;0.578800
2150.000000;0.578738
2149.000000;0.578904
2148.000000;0.579478
2147.000000;0.580243
2146.000000;0.580796
2145.000000;0.580891
2144.000000;0.580650
2143.000000;0.580489
2142.000000;0.580800
2141.000000;0.581584
2140.000000;0.582400
2139.000000;0.582819
2138.000000;0.582939
2137.000000;0.583316
2136.000000;0.584324
2135.000000;0.585683
2134.000000;0.586725
2133.000000;0.587069
2132.000000;0.586953
2131.000000;0.586926
2130.000000;0.587336
2129.000000;0.588116
2128.000000;0.588973
2127.000000;0.589734
2126.000000;0.590475
2125.000000;0.591314
2124.000000;0.592180
2123.000000;0.592885
2122.000000;0.593389
2121.000000;0.593841
2120.000000;0.594290
2119.000000;0.594557
2118.000000;0.594527
2117.000000;0.594459
2116.000000;0.594781
2115.000000;0.595584
2114.000000;0.596493
2113.000000;0.597120
2112.000000;0.597533
2111.000000;0.598152
2110.000000;0.599221
2109.000000;0.600468
2108.000000;0.601358
2107.000000;0.601623
2106.000000;0.601486
2105.000000;0.601402
2104.000000;0.601658
2103.000000;0.602228
2102.000000;0.602879
2101.000000;0.603368
2100.000000;0.603628
2099.000000;0.603872
2098.000000;0.604417
2097.000000;0.605302
2096.000000;0.606180
2095.000000;0.606733
2094.000000;0.607062
2093.000000;0.607441
2092.000000;0.607832
2091.000000;0.607952
2090.000000;0.607836
2089.000000;0.607937
2088.000000;0.608531
2087.000000;0.609337
2086.000000;0.609972
2085.000000;0.610517
2084.000000;0.611322
2083.000000;0.612378
2082.000000;0.613210
2081.000000;0.613457
2080.000000;0.613384
2079.000000;0.613721
2078.000000;0.614986
2077.000000;0.616888
2076.000000;0.618414
2075.000000;0.618697
2074.000000;0.617931
2073.000000;0.617232
2072.000000;0.617476
2071.000000;0.618475
2070.000000;0.619425
2069.000000;0.619911
2068.000000;0.620167
2067.000000;0.620528
2066.000000;0.621002
2065.000000;0.621425
2064.000000;0.621733
2063.000000;0.622016
2062.000000;0.622455
2061.000000;0.623237
2060.000000;0.624336
2059.000000;0.625401
2058.000000;0.626055
2057.000000;0.626311
2056.000000;0.626496
2055.000000;0.626804
2054.000000;0.627159
2053.000000;0.627501
2052.000000;0.627928
2051.000000;0.628503
2050.000000;0.629169
2049.000000;0.629917
2048.000000;0.630765
2047.000000;0.631495
2046.000000;0.631718
2045.000000;0.631426
2044.000000;0.631237
2043.000000;0.631815
2042.000000;0.633154
2041.000000;0.634623
2040.000000;0.635680
2039.000000;0.636340
2038.000000;0.636967
2037.000000;0.637777
2036.000000;0.638614
2035.000000;0.639142
2034.000000;0.639230
2033.000000;0.639153
2032.000000;0.639297
2031.000000;0.639681
2030.000000;0.639932
2029.000000;0.639830
2028.000000;0.639701
2027.000000;0.640061
2026.000000;0.640985
2025.000000;0.642044
2024.000000;0.642857
2023.000000;0.643437
2022.000000;0.643952
2021.000000;0.644360
2020.000000;0.644486
2019.000000;0.644391
2018.000000;0.644488
2017.000000;0.645205
2016.000000;0.646543
2015.000000;0.647997
2014.000000;0.648959
2013.000000;0.649255
2012.000000;0.649258
2011.000000;0.649418
2010.000000;0.649778
2009.000000;0.650091
2008.000000;0.650339
2007.000000;0.650863
2006.000000;0.651846
2005.000000;0.652898
2004.000000;0.653438
2003.000000;0.653431
2002.000000;0.653475
2001.000000;0.654100
2000.000000;0.655192
1999.000000;0.656214
1998.000000;0.656786
1997.000000;0.656928
1996.000000;0.656897
1995.000000;0.657031
1994.000000;0.657637
1993.000000;0.658734
1992.000000;0.659866
1991.000000;0.660445
1990.000000;0.660405
1989.000000;0.660323
1988.000000;0.660758
1987.000000;0.661662
1986.000000;0.662586
1985.000000;0.663285
1984.000000;0.663843
1983.000000;0.664335
1982.000000;0.664663
1981.000000;0.664819
1980.000000;0.665063
1979.000000;0.665667
1978.000000;0.666587
1977.000000;0.667487
1976.000000;0.668060
1975.000000;0.668293
1974.000000;0.668465
1973.000000;0.668929
1972.000000;0.669850
1971.000000;0.671067
1970.000000;0.672186
1969.000000;0.672832
1968.000000;0.672901
1967.000000;0.672680
1966.000000;0.672711
1965.000000;0.673375
1964.000000;0.674489
1963.000000;0.675382
1962.000000;0.675539
1961.000000;0.675129
1960.000000;0.674798
1959.000000;0.674991
1958.000000;0.675655
1957.000000;0.676534
1956.000000;0.677504
1955.000000;0.678505
1954.000000;0.679388
1953.000000;0.680038
1952.000000;0.680572
1951.000000;0.681213
1950.000000;0.681979
1949.000000;0.682649
1948.000000;0.683037
1947.000000;0.683192
1946.000000;0.683290
1945.000000;0.683444
1944.000000;0.683696
1943.000000;0.684115
1942.000000;0.684791
1941.000000;0.685719
1940.000000;0.686780
1939.000000;0.687864
1938.000000;0.688955
1937.000000;0.690036
1936.000000;0.690980
1935.000000;0.691642
1934.000000;0.692038
1933.000000;0.692321
1932.000000;0.692538
1931.000000;0.692561
1930.000000;0.692353
1929.000000;0.692212
1928.000000;0.692578
1927.000000;0.693611
1926.000000;0.695035
1925.000000;0.696379
1924.000000;0.697302
1923.000000;0.697736
1922.000000;0.697845
1921.000000;0.697879
1920.000000;0.697988
1919.000000;0.698170
1918.000000;0.698447
1917.000000;0.699010
1916.000000;0.700010
1915.000000;0.701238
1914.000000;0.702259
1913.000000;0.702895
1912.000000;0.703385
1911.000000;0.703928
1910.000000;0.704338
1909.000000;0.704383
1908.000000;0.704275
1907.000000;0.704509
1906.000000;0.705231
1905.000000;0.706048
1904.000000;0.706564
1903.000000;0.706866
1902.000000;0.707332
1901.000000;0.708058
1900.000000;0.708706
1899.000000;0.708951
1898.000000;0.708941
1897.000000;0.709226
1896.000000;0.710196
1895.000000;0.711643
1894.000000;0.712883
1893.000000;0.713351
1892.000000;0.713069
1891.000000;0.712535
1890.000000;0.712258
1889.000000;0.712475
1888.000000;0.713170
1887.000000;0.714145
1886.000000;0.715071
1885.000000;0.715656
1884.000000;0.715902
1883.000000;0.716090
1882.000000;0.716431
1881.000000;0.716857
1880.000000;0.717271
1879.000000;0.717853
1878.000000;0.718845
1877.000000;0.720073
1876.000000;0.720969
1875.000000;0.721207
1874.000000;0.721125
1873.000000;0.721326
1872.000000;0.721998
1871.000000;0.722811
1870.000000;0.723426
1869.000000;0.723889
1868.000000;0.724463
1867.000000;0.725253
1866.000000;0.726120
1865.000000;0.726855
1864.000000;0.727347
1863.000000;0.727636
1862.000000;0.727905
1861.000000;0.728384
1860.000000;0.729174
1859.000000;0.730154
1858.000000;0.731106
1857.000000;0.731902
1856.000000;0.732517
1855.000000;0.732933
1854.000000;0.733155
1853.000000;0.733328
1852.000000;0.733709
1851.000000;0.734447
1850.000000;0.735434
1849.000000;0.736439
1848.000000;0.737353
1847.000000;0.738206
1846.000000;0.738939
1845.000000;0.739335
1844.000000;0.739345
1843.000000;0.739354
1842.000000;0.739894
1841.000000;0.741049
1840.000000;0.742340
1839.000000;0.743262
1838.000000;0.743836
1837.000000;0.744426
1836.000000;0.745113
1835.000000;0.745534
1834.000000;0.745385
1833.000000;0.744877
1832.000000;0.744536
1831.000000;0.744684
1830.000000;0.745228
1829.000000;0.745857
1828.000000;0.746343
1827.000000;0.746713
1826.000000;0.747173
1825.000000;0.747852
1824.000000;0.748641
1823.000000;0.749331
1822.000000;0.749887
1821.000000;0.750475
1820.000000;0.751209
1819.000000;0.752045
1818.000000;0.752922
1817.000000;0.753828
1816.000000;0.754667
1815.000000;0.755278
1814.000000;0.755691
1813.000000;0.756188
1812.000000;0.756911
1811.000000;0.757566
1810.000000;0.757764
1809.000000;0.757557
1808.000000;0.757432
1807.000000;0.757760
1806.000000;0.758458
1805.000000;0.759199
1804.000000;0.759781
1803.000000;0.760231
1802.000000;0.760678
1801.000000;0.761251
1800.000000;0.762015
1799.000000;0.762938
1798.000000;0.763913
1797.000000;0.764798
1796.000000;0.765478
1795.000000;0.765968
1794.000000;0.766474
1793.000000;0.767188
1792.000000;0.767954
1791.000000;0.768326
1790.000000;0.768087
1789.000000;0.767602
1788.000000;0.767441
1787.000000;0.767772
1786.000000;0.768363
1785.000000;0.769087
1784.000000;0.770057
1783.000000;0.771223
1782.000000;0.772236
1781.000000;0.772863
1780.000000;0.773285
1779.000000;0.773802
1778.000000;0.774432
1777.000000;0.775020
1776.000000;0.775578
1775.000000;0.776260
1774.000000;0.777084
1773.000000;0.777883
1772.000000;0.778508
1771.000000;0.778949
1770.000000;0.779291
1769.000000;0.779681
1768.000000;0.780243
1767.000000;0.780933
1766.000000;0.781520
1765.000000;0.781864
1764.000000;0.782136
1763.000000;0.782605
1762.000000;0.783290
1761.000000;0.783970
1760.000000;0.784495
1759.000000;0.784917
1758.000000;0.785309
1757.000000;0.785633
1756.000000;0.785871
1755.000000;0.786143
1754.000000;0.786574
1753.000000;0.787116
1752.000000;0.787599
1751.000000;0.787977
1750.000000;0.788428
1749.000000;0.789136
1748.000000;0.790051
1747.000000;0.790943
1746.000000;0.791706
1745.000000;0.792529
1744.000000;0.793618
1743.000000;0.794794
1742.000000;0.795580
1741.000000;0.795800
1740.000000;0.795873
1739.000000;0.796276
1738.000000;0.796919
1737.000000;0.797349
1736.000000;0.797483
1735.000000;0.797746
1734.000000;0.798472
1733.000000;0.799463
1732.000000;0.800227
1731.000000;0.800562
1730.000000;0.800640
1729.000000;0.800646
1728.000000;0.800694
1727.000000;0.800929
1726.000000;0.801484
1725.000000;0.802361
1724.000000;0.803501
1723.000000;0.804845
1722.000000;0.806174
1721.000000;0.807097
1720.000000;0.807434
1719.000000;0.807498
1718.000000;0.807773
1717.000000;0.808389
1716.000000;0.809168
1715.000000;0.810087
1714.000000;0.811289
1713.000000;0.812553
1712.000000;0.813256
1711.000000;0.813077
1710.000000;0.812455
1709.000000;0.812089
1708.000000;0.812217
1707.000000;0.812608
1706.000000;0.813035
1705.000000;0.813491
1704.000000;0.814055
1703.000000;0.814822
1702.000000;0.815883
1701.000000;0.817161
1700.000000;0.818396
1699.000000;0.819379
1698.000000;0.820131
1697.000000;0.820778
1696.000000;0.821208
1695.000000;0.821175
1694.000000;0.820770
1693.000000;0.820497
1692.000000;0.820792
1691.000000;0.821630
1690.000000;0.822682
1689.000000;0.823659
1688.000000;0.824404
1687.000000;0.824896
1686.000000;0.825307
1685.000000;0.825850
1684.000000;0.826528
1683.000000;0.827098
1682.000000;0.827357
1681.000000;0.827469
1680.000000;0.827819
1679.000000;0.828565
1678.000000;0.829517
1677.000000;0.830377
1676.000000;0.830997
1675.000000;0.831444
1674.000000;0.831914
1673.000000;0.832566
1672.000000;0.833462
1671.000000;0.834566
1670.000000;0.835734
1669.000000;0.836696
1668.000000;0.837125
1667.000000;0.836914
1666.000000;0.836413
1665.000000;0.836200
1664.000000;0.836561
1663.000000;0.837319
1662.000000;0.838163
1661.000000;0.838947
1660.000000;0.839657
1659.000000;0.840319
1658.000000;0.841032
1657.000000;0.841934
1656.000000;0.842980
1655.000000;0.843874
1654.000000;0.844387
1653.000000;0.844726
1652.000000;0.845191
1651.000000;0.845725
1650.000000;0.846235
1649.000000;0.846825
1648.000000;0.847606
1647.000000;0.848547
1646.000000;0.849458
1645.000000;0.850126
1644.000000;0.850488
1643.000000;0.850658
1642.000000;0.850799
1641.000000;0.850995
1640.000000;0.851209
1639.000000;0.851366
1638.000000;0.851504
1637.000000;0.851795
1636.000000;0.852342
1635.000000;0.853003
1634.000000;0.853543
1633.000000;0.853963
1632.000000;0.854492
1631.000000;0.855196
1630.000000;0.855890
1629.000000;0.856498
1628.000000;0.857208
1627.000000;0.858154
1626.000000;0.859138
1625.000000;0.859878
1624.000000;0.860413
1623.000000;0.861039
1622.000000;0.861879
1621.000000;0.862714
1620.000000;0.863327
1619.000000;0.863811
1618.000000;0.864417
1617.000000;0.865174
1616.000000;0.865825
1615.000000;0.866173
1614.000000;0.866370
1613.000000;0.866732
1612.000000;0.867345
1611.000000;0.868023
1610.000000;0.868650
1609.000000;0.869340
1608.000000;0.870183
1607.000000;0.870970
1606.000000;0.871383
1605.000000;0.871401
1604.000000;0.871347
1603.000000;0.871538
1602.000000;0.872028
1601.000000;0.872690
1600.000000;0.873380
1599.000000;0.873956
1598.000000;0.874311
1597.000000;0.874491
1596.000000;0.874677
1595.000000;0.874970
1594.000000;0.875330
1593.000000;0.875790
1592.000000;0.876570
1591.000000;0.877797
1590.000000;0.879242
1589.000000;0.880539
1588.000000;0.881573
1587.000000;0.882437
1586.000000;0.883095
1585.000000;0.883370
1584.000000;0.883295
1583.000000;0.883227
1582.000000;0.883475
1581.000000;0.883997
1580.000000;0.884573
1579.000000;0.885087
1578.000000;0.885530
1577.000000;0.885889
1576.000000;0.886231
1575.000000;0.886764
1574.000000;0.887655
1573.000000;0.888817
1572.000000;0.889968
1571.000000;0.890865
1570.000000;0.891386
1569.000000;0.891470
1568.000000;0.891187
1567.000000;0.890874
1566.000000;0.890971
1565.000000;0.891605
1564.000000;0.892499
1563.000000;0.893325
1562.000000;0.893994
1561.000000;0.894566
1560.000000;0.895091
1559.000000;0.895712
1558.000000;0.896522
1557.000000;0.897212
1556.000000;0.897472
1555.000000;0.897501
1554.000000;0.897760
1553.000000;0.898432
1552.000000;0.899286
1551.000000;0.900113
1550.000000;0.901011
1549.000000;0.902088
1548.000000;0.903095
1547.000000;0.903689
1546.000000;0.903950
1545.000000;0.904278
1544.000000;0.904847
1543.000000;0.905428
1542.000000;0.905809
1541.000000;0.906160
1540.000000;0.906818
1539.000000;0.907850
1538.000000;0.909003
1537.000000;0.909994
1536.000000;0.910647
1535.000000;0.910868
1534.000000;0.910742
1533.000000;0.910583
1532.000000;0.910646
1531.000000;0.910869
1530.000000;0.911063
1529.000000;0.911257
1528.000000;0.911719
1527.000000;0.912688
1526.000000;0.914170
1525.000000;0.915952
1524.000000;0.917681
1523.000000;0.918945
1522.000000;0.919409
1521.000000;0.919105
1520.000000;0.918536
1519.000000;0.918364
1518.000000;0.918933
1517.000000;0.919993
1516.000000;0.920910
1515.000000;0.921235
1514.000000;0.921096
1513.000000;0.921037
1512.000000;0.921453
1511.000000;0.922256
1510.000000;0.923072
1509.000000;0.923619
1508.000000;0.923886
1507.000000;0.924121
1506.000000;0.924629
1505.000000;0.925492
1504.000000;0.926650
1503.000000;0.927990
1502.000000;0.929188
1501.000000;0.929909
1500.000000;0.930247
1499.000000;0.930704
1498.000000;0.931665
1497.000000;0.932943
1496.000000;0.933927
1495.000000;0.934162
1494.000000;0.933749
1493.000000;0.933188
1492.000000;0.932928
1491.000000;0.933154
1490.000000;0.933861
1489.000000;0.934894
1488.000000;0.935918
1487.000000;0.936657
1486.000000;0.937146
1485.000000;0.937545
1484.000000;0.937784
1483.000000;0.937702
1482.000000;0.937527
1481.000000;0.937835
1480.000000;0.938837
1479.000000;0.939975
1478.000000;0.940544
1477.000000;0.940552
1476.000000;0.940621
1475.000000;0.941111
1474.000000;0.941755
1473.000000;0.942229
1472.000000;0.942686
1471.000000;0.943445
1470.000000;0.944447
1469.000000;0.945349
1468.000000;0.945979
1467.000000;0.946450
1466.000000;0.946945
1465.000000;0.947576
1464.000000;0.948437
1463.000000;0.949552
1462.000000;0.950716
1461.000000;0.951593
1460.000000;0.952073
1459.000000;0.952385
1458.000000;0.952790
1457.000000;0.953301
1456.000000;0.953782
1455.000000;0.954161
1454.000000;0.954575
1453.000000;0.955195
1452.000000;0.955926
1451.000000;0.956501
1450.000000;0.956754
1449.000000;0.956750
1448.000000;0.956797
1447.000000;0.957334
1446.000000;0.958595
1445.000000;0.960268
1444.000000;0.961649
1443.000000;0.962281
1442.000000;0.962349
1441.000000;0.962369
1440.000000;0.962650
1439.000000;0.963177
1438.000000;0.963856
1437.000000;0.964618
1436.000000;0.965301
1435.000000;0.965628
1434.000000;0.965539
1433.000000;0.965441
1432.000000;0.965801
1431.000000;0.966641
1430.000000;0.967607
1429.000000;0.968440
1428.000000;0.969177
1427.000000;0.969934
1426.000000;0.970649
1425.000000;0.971134
1424.000000;0.971336
1423.000000;0.971474
1422.000000;0.971857
1421.000000;0.972584
1420.000000;0.973418
1419.000000;0.973994
1418.000000;0.974153
1417.000000;0.974024
1416.000000;0.973951
1415.000000;0.974298
1414.000000;0.975143
1413.000000;0.976171
1412.000000;0.976968
1411.000000;0.977473
1410.000000;0.978049
1409.000000;0.979028
1408.000000;0.980286
1407.000000;0.981400
1406.000000;0.982146
1405.000000;0.982653
1404.000000;0.983094
1403.000000;0.983433
1402.000000;0.983575
1401.000000;0.983588
1400.000000;0.983666
1399.000000;0.984016
1398.000000;0.984772
1397.000000;0.985856
1396.000000;0.986920
1395.000000;0.987609
1394.000000;0.987972
1393.000000;0.988420
1392.000000;0.989183
1391.000000;0.989974
1390.000000;0.990337
1389.000000;0.990221
1388.000000;0.990026
1387.000000;0.990114
1386.000000;0.990485
1385.000000;0.990967
1384.000000;0.991568
1383.000000;0.992476
1382.000000;0.993746
1381.000000;0.995113
1380.000000;0.996149
1379.000000;0.996597
1378.000000;0.996547
1377.000000;0.996269
1376.000000;0.995966
1375.000000;0.995789
1374.000000;0.996017
1373.000000;0.996942
1372.000000;0.998429
1371.000000;0.999814
1370.000000;1.000442
1369.000000;1.000288
1368.000000;0.999924
1367.000000;0.999947
1366.000000;1.000592
1365.000000;1.001772
1364.000000;1.003219
1363.000000;1.004563
1362.000000;1.005500
1361.000000;1.006000
1360.000000;1.006282
1359.000000;1.006551
1358.000000;1.006852
1357.000000;1.007201
1356.000000;1.007719
1355.000000;1.008513
1354.000000;1.009533
1353.000000;1.010625
1352.000000;1.011645
1351.000000;1.012451
1350.000000;1.012896
1349.000000;1.012987
1348.000000;1.012973
1347.000000;1.013143
1346.000000;1.013564
1345.000000;1.014100
1344.000000;1.014623
1343.000000;1.015106
1342.000000;1.015590
1341.000000;1.016167
1340.000000;1.016972
1339.000000;1.017997
1338.000000;1.018943
1337.000000;1.019454
1336.000000;1.019565
1335.000000;1.019739
1334.000000;1.020373
1333.000000;1.021406
1332.000000;1.022472
1331.000000;1.023250
1330.000000;1.023564
1329.000000;1.023363
1328.000000;1.022864
1327.000000;1.022598
1326.000000;1.022960
1325.000000;1.023693
1324.000000;1.024101
1323.000000;1.023859
1322.000000;1.023421
1321.000000;1.023498
1320.000000;1.024398
1319.000000;1.025988
1318.000000;1.027995
1317.000000;1.029999
1316.000000;1.031313
1315.000000;1.031362
1314.000000;1.030313
1313.000000;1.029048
1312.000000;1.028406
1311.000000;1.028657
1310.000000;1.029686
1309.000000;1.031347
1308.000000;1.033391
1307.000000;1.035311
1306.000000;1.036596
1305.000000;1.037166
1304.000000;1.037391
1303.000000;1.037663
1302.000000;1.038079
1301.000000;1.038514
1300.000000;1.038844
1299.000000;1.039050
1298.000000;1.039209
1297.000000;1.039456
1296.000000;1.039904
1295.000000;1.040579
1294.000000;1.041443
1293.000000;1.042437
1292.000000;1.043413
1291.000000;1.044091
1290.000000;1.044234
1289.000000;1.043915
1288.000000;1.043553
1287.000000;1.043607
1286.000000;1.044205
1285.000000;1.045031
1284.000000;1.045602
1283.000000;1.045727
1282.000000;1.045729
1281.000000;1.046119
1280.000000;1.047006
1279.000000;1.047960
1278.000000;1.048578
1277.000000;1.049033
1276.000000;1.049842
1275.000000;1.051108
1274.000000;1.052290
1273.000000;1.052812
1272.000000;1.052727
1271.000000;1.052580
1270.000000;1.052760
1269.000000;1.053169
1268.000000;1.053511
1267.000000;1.053706
1266.000000;1.053976
1265.000000;1.054613
1264.000000;1.055726
1263.000000;1.057144
1262.000000;1.058486
1261.000000;1.059359
1260.000000;1.059590
1259.000000;1.059379
1258.000000;1.059228
1257.000000;1.059647
1256.000000;1.060775
1255.000000;1.062234
1254.000000;1.063404
1253.000000;1.063930
1252.000000;1.063950
1251.000000;1.063858
1250.000000;1.063947
1249.000000;1.064306
1248.000000;1.064869
1247.000000;1.065400
1246.000000;1.065558
1245.000000;1.065269
1244.000000;1.065044
1243.000000;1.065649
1242.000000;1.067283
1241.000000;1.069244
1240.000000;1.070593
1239.000000;1.071084
1238.000000;1.071210
1237.000000;1.071441
1236.000000;1.071730
1235.000000;1.071838
1234.000000;1.071846
1233.000000;1.072143
1232.000000;1.072995
1231.000000;1.074295
1230.000000;1.075685
1229.000000;1.076847
1228.000000;1.077685
1227.000000;1.078298
1226.000000;1.078759
1225.000000;1.078951
1224.000000;1.078721
1223.000000;1.078215
1222.000000;1.077884
1221.000000;1.078044
1220.000000;1.078575
1219.000000;1.079212
1218.000000;1.079987
1217.000000;1.081124
1216.000000;1.082525
1215.000000;1.083668
1214.000000;1.084113
1213.000000;1.083960
1212.000000;1.083706
1211.000000;1.083836
1210.000000;1.084623
1209.000000;1.086115
1208.000000;1.088034
1207.000000;1.089728
1206.000000;1.090490
1205.000000;1.090103
1204.000000;1.089120
1203.000000;1.088457
1202.000000;1.088739
1201.000000;1.089821
1200.000000;1.091067
