Criado como novo conjunto de dados;"0307_DANIEL.spp","4682.3 Secs"
cm-1;Abs
10000.000000;0.236762
9999.000000;0.235558
9998.000000;0.234364
9997.000000;0.233159
9996.000000;0.232042
9995.000000;0.231103
9994.000000;0.230293
9993.000000;0.229479
9992.000000;0.228486
9991.000000;0.227288
9990.000000;0.226059
9989.000000;0.224988
9988.000000;0.224056
9987.000000;0.223103
9986.000000;0.222039
9985.000000;0.220897
9984.000000;0.219733
9983.000000;0.218580
9982.000000;0.217494
9981.000000;0.216506
9980.000000;0.215541
9979.000000;0.214478
9978.000000;0.213307
9977.000000;0.212113
9976.000000;0.210942
9975.000000;0.209779
9974.000000;0.208625
9973.000000;0.207491
9972.000000;0.206330
9971.000000;0.205095
9970.000000;0.203846
9969.000000;0.202683
9968.000000;0.201585
9967.000000;0.200453
9966.000000;0.199288
9965.000000;0.198180
9964.000000;0.197112
9963.000000;0.195956
9962.000000;0.194688
9961.000000;0.193466
9960.000000;0.192429
9959.000000;0.191545
9958.000000;0.190686
9957.000000;0.189751
9956.000000;0.188654
9955.000000;0.187336
9954.000000;0.185862
9953.000000;0.184421
9952.000000;0.183155
9951.000000;0.182054
9950.000000;0.181025
9949.000000;0.179998
9948.000000;0.178921
9947.000000;0.177752
9946.000000;0.176522
9945.000000;0.175323
9944.000000;0.174185
9943.000000;0.173047
9942.000000;0.171877
9941.000000;0.170731
9940.000000;0.169631
9939.000000;0.168499
9938.000000;0.167266
9937.000000;0.165983
9936.000000;0.164735
9935.000000;0.163518
9934.000000;0.162285
9933.000000;0.161057
9932.000000;0.159899
9931.000000;0.158826
9930.000000;0.157792
9929.000000;0.156756
9928.000000;0.155692
9927.000000;0.154566
9926.000000;0.153350
9925.000000;0.152055
9924.000000;0.150715
9923.000000;0.149355
9922.000000;0.148005
9921.000000;0.146708
9920.000000;0.145492
9919.000000;0.144341
9918.000000;0.143202
9917.000000;0.142023
9916.000000;0.140775
9915.000000;0.139470
9914.000000;0.138164
9913.000000;0.136911
9912.000000;0.135725
9911.000000;0.134586
9910.000000;0.133483
9909.000000;0.132390
9908.000000;0.131234
9907.000000;0.129940
9906.000000;0.128516
9905.000000;0.127070
9904.000000;0.125718
9903.000000;0.124517
9902.000000;0.123438
9901.000000;0.122382
9900.000000;0.121239
9899.000000;0.119972
9898.000000;0.118636
9897.000000;0.117284
9896.000000;0.115902
9895.000000;0.114483
9894.000000;0.113118
9893.000000;0.111895
9892.000000;0.110770
9891.000000;0.109613
9890.000000;0.108398
9889.000000;0.107216
9888.000000;0.106101
9887.000000;0.104948
9886.000000;0.103637
9885.000000;0.102177
9884.000000;0.100683
9883.000000;0.099283
9882.000000;0.098047
9881.000000;0.096957
9880.000000;0.095899
9879.000000;0.094734
9878.000000;0.093407
9877.000000;0.091963
9876.000000;0.090475
9875.000000;0.089006
9874.000000;0.087625
9873.000000;0.086364
9872.000000;0.085167
9871.000000;0.083929
9870.000000;0.082603
9869.000000;0.081228
9868.000000;0.079853
9867.000000;0.078511
9866.000000;0.077235
9865.000000;0.076027
9864.000000;0.074797
9863.000000;0.073432
9862.000000;0.071928
9861.000000;0.070406
9860.000000;0.068967
9859.000000;0.067613
9858.000000;0.066312
9857.000000;0.065062
9856.000000;0.063861
9855.000000;0.062668
9854.000000;0.061436
9853.000000;0.060139
9852.000000;0.058761
9851.000000;0.057304
9850.000000;0.055826
9849.000000;0.054393
9848.000000;0.052987
9847.000000;0.051521
9846.000000;0.049962
9845.000000;0.048392
9844.000000;0.046906
9843.000000;0.045511
9842.000000;0.044142
9841.000000;0.042754
9840.000000;0.041363
9839.000000;0.040021
9838.000000;0.038747
9837.000000;0.037483
9836.000000;0.036125
9835.000000;0.034648
9834.000000;0.033145
9833.000000;0.031726
9832.000000;0.030378
9831.000000;0.029001
9830.000000;0.027552
9829.000000;0.026072
9828.000000;0.024594
9827.000000;0.023092
9826.000000;0.021551
9825.000000;0.020030
9824.000000;0.018626
9823.000000;0.017405
9822.000000;0.016332
9821.000000;0.015244
9820.000000;0.013941
9819.000000;0.012362
9818.000000;0.010649
9817.000000;0.008974
9816.000000;0.007360
9815.000000;0.005734
9814.000000;0.004119
9813.000000;0.002630
9812.000000;0.001294
9811.000000;0.000008
9810.000000;-0.001333
9809.000000;-0.002760
9808.000000;-0.004289
9807.000000;-0.005940
9806.000000;-0.007638
9805.000000;-0.009224
9804.000000;-0.010636
9803.000000;-0.011988
9802.000000;-0.013438
9801.000000;-0.015014
9800.000000;-0.016625
9799.000000;-0.018173
9798.000000;-0.019604
9797.000000;-0.020913
9796.000000;-0.022175
9795.000000;-0.023530
9794.000000;-0.025070
9793.000000;-0.026741
9792.000000;-0.028406
9791.000000;-0.029974
9790.000000;-0.031476
9789.000000;-0.033021
9788.000000;-0.034697
9787.000000;-0.036479
9786.000000;-0.038230
9785.000000;-0.039814
9784.000000;-0.041219
9783.000000;-0.042545
9782.000000;-0.043892
9781.000000;-0.045306
9780.000000;-0.046807
9779.000000;-0.048397
9778.000000;-0.050030
9777.000000;-0.051635
9776.000000;-0.053201
9775.000000;-0.054792
9774.000000;-0.056471
9773.000000;-0.058231
9772.000000;-0.060004
9771.000000;-0.061708
9770.000000;-0.063286
9769.000000;-0.064754
9768.000000;-0.066205
9767.000000;-0.067728
9766.000000;-0.069331
9765.000000;-0.070977
9764.000000;-0.072658
9763.000000;-0.074365
9762.000000;-0.076018
9761.000000;-0.077527
9760.000000;-0.078941
9759.000000;-0.080451
9758.000000;-0.082178
9757.000000;-0.084032
9756.000000;-0.085791
9755.000000;-0.087318
9754.000000;-0.088676
9753.000000;-0.090058
9752.000000;-0.091625
9751.000000;-0.093388
9750.000000;-0.095231
9749.000000;-0.097049
9748.000000;-0.098834
9747.000000;-0.100611
9746.000000;-0.102362
9745.000000;-0.104073
9744.000000;-0.105784
9743.000000;-0.107515
9742.000000;-0.109166
9741.000000;-0.110639
9740.000000;-0.112034
9739.000000;-0.113591
9738.000000;-0.115415
9737.000000;-0.117348
9736.000000;-0.119171
9735.000000;-0.120836
9734.000000;-0.122459
9733.000000;-0.124148
9732.000000;-0.125923
9731.000000;-0.127752
9730.000000;-0.129602
9729.000000;-0.131446
9728.000000;-0.133251
9727.000000;-0.134968
9726.000000;-0.136563
9725.000000;-0.138083
9724.000000;-0.139673
9723.000000;-0.141458
9722.000000;-0.143428
9721.000000;-0.145455
9720.000000;-0.147416
9719.000000;-0.149244
9718.000000;-0.150909
9717.000000;-0.152449
9716.000000;-0.154003
9715.000000;-0.155714
9714.000000;-0.157572
9713.000000;-0.159447
9712.000000;-0.161243
9711.000000;-0.162969
9710.000000;-0.164663
9709.000000;-0.166345
9708.000000;-0.168074
9707.000000;-0.169931
9706.000000;-0.171921
9705.000000;-0.173963
9704.000000;-0.175992
9703.000000;-0.177997
9702.000000;-0.179949
9701.000000;-0.181786
9700.000000;-0.183519
9699.000000;-0.185253
9698.000000;-0.187067
9697.000000;-0.188932
9696.000000;-0.190786
9695.000000;-0.192621
9694.000000;-0.194457
9693.000000;-0.196305
9692.000000;-0.198202
9691.000000;-0.200194
9690.000000;-0.202215
9689.000000;-0.204087
9688.000000;-0.205716
9687.000000;-0.207253
9686.000000;-0.208958
9685.000000;-0.210937
9684.000000;-0.213067
9683.000000;-0.215160
9682.000000;-0.217126
9681.000000;-0.218997
9680.000000;-0.220850
9679.000000;-0.222726
9678.000000;-0.224604
9677.000000;-0.226444
9676.000000;-0.228268
9675.000000;-0.230155
9674.000000;-0.232154
9673.000000;-0.234230
9672.000000;-0.236320
9671.000000;-0.238399
9670.000000;-0.240459
9669.000000;-0.242462
9668.000000;-0.244367
9667.000000;-0.246188
9666.000000;-0.248003
9665.000000;-0.249894
9664.000000;-0.251913
9663.000000;-0.254050
9662.000000;-0.256240
9661.000000;-0.258406
9660.000000;-0.260525
9659.000000;-0.262630
9658.000000;-0.264748
9657.000000;-0.266857
9656.000000;-0.268909
9655.000000;-0.270872
9654.000000;-0.272747
9653.000000;-0.274589
9652.000000;-0.276497
9651.000000;-0.278540
9650.000000;-0.280667
9649.000000;-0.282744
9648.000000;-0.284700
9647.000000;-0.286593
9646.000000;-0.288526
9645.000000;-0.290526
9644.000000;-0.292557
9643.000000;-0.294596
9642.000000;-0.296683
9641.000000;-0.298873
9640.000000;-0.301157
9639.000000;-0.303437
9638.000000;-0.305591
9637.000000;-0.307600
9636.000000;-0.309579
9635.000000;-0.311640
9634.000000;-0.313767
9633.000000;-0.315870
9632.000000;-0.317951
9631.000000;-0.320103
9630.000000;-0.322351
9629.000000;-0.324585
9628.000000;-0.326699
9627.000000;-0.328715
9626.000000;-0.330733
9625.000000;-0.332795
9624.000000;-0.334868
9623.000000;-0.336935
9622.000000;-0.339035
9621.000000;-0.341212
9620.000000;-0.343457
9619.000000;-0.345697
9618.000000;-0.347865
9617.000000;-0.349985
9616.000000;-0.352157
9615.000000;-0.354430
9614.000000;-0.356719
9613.000000;-0.358900
9612.000000;-0.360984
9611.000000;-0.363085
9610.000000;-0.365255
9609.000000;-0.367420
9608.000000;-0.369522
9607.000000;-0.371613
9606.000000;-0.373770
9605.000000;-0.375987
9604.000000;-0.378229
9603.000000;-0.380522
9602.000000;-0.382918
9601.000000;-0.385404
9600.000000;-0.387889
9599.000000;-0.390279
9598.000000;-0.392518
9597.000000;-0.394611
9596.000000;-0.396627
9595.000000;-0.398669
9594.000000;-0.400788
9593.000000;-0.402946
9592.000000;-0.405106
9591.000000;-0.407299
9590.000000;-0.409575
9589.000000;-0.411893
9588.000000;-0.414147
9587.000000;-0.416284
9586.000000;-0.418372
9585.000000;-0.420527
9584.000000;-0.422797
9583.000000;-0.425133
9582.000000;-0.427468
9581.000000;-0.429808
9580.000000;-0.432209
9579.000000;-0.434651
9578.000000;-0.436997
9577.000000;-0.439143
9576.000000;-0.441184
9575.000000;-0.443332
9574.000000;-0.445667
9573.000000;-0.448040
9572.000000;-0.450261
9571.000000;-0.452310
9570.000000;-0.454336
9569.000000;-0.456520
9568.000000;-0.458961
9567.000000;-0.461601
9566.000000;-0.464204
9565.000000;-0.466487
9564.000000;-0.468380
9563.000000;-0.470131
9562.000000;-0.472087
9561.000000;-0.474376
9560.000000;-0.476842
9559.000000;-0.479250
9558.000000;-0.481470
9557.000000;-0.483520
9556.000000;-0.485519
9555.000000;-0.487612
9554.000000;-0.489876
9553.000000;-0.492260
9552.000000;-0.494646
9551.000000;-0.496965
9550.000000;-0.499212
9549.000000;-0.501398
9548.000000;-0.503543
9547.000000;-0.505704
9546.000000;-0.507917
9545.000000;-0.510098
9544.000000;-0.512094
9543.000000;-0.513871
9542.000000;-0.515604
9541.000000;-0.517530
9540.000000;-0.519739
9539.000000;-0.522136
9538.000000;-0.524578
9537.000000;-0.526969
9536.000000;-0.529250
9535.000000;-0.531359
9534.000000;-0.533278
9533.000000;-0.535090
9532.000000;-0.536943
9531.000000;-0.538920
9530.000000;-0.540967
9529.000000;-0.542947
9528.000000;-0.544780
9527.000000;-0.546515
9526.000000;-0.548277
9525.000000;-0.550183
9524.000000;-0.552282
9523.000000;-0.554534
9522.000000;-0.556821
9521.000000;-0.558997
9520.000000;-0.560979
9519.000000;-0.562805
9518.000000;-0.564586
9517.000000;-0.566390
9516.000000;-0.568187
9515.000000;-0.569898
9514.000000;-0.571501
9513.000000;-0.573075
9512.000000;-0.574732
9511.000000;-0.576523
9510.000000;-0.578403
9509.000000;-0.580291
9508.000000;-0.582120
9507.000000;-0.583843
9506.000000;-0.585443
9505.000000;-0.586977
9504.000000;-0.588565
9503.000000;-0.590278
9502.000000;-0.592040
9501.000000;-0.593706
9500.000000;-0.595243
9499.000000;-0.596778
9498.000000;-0.598429
9497.000000;-0.600141
9496.000000;-0.601755
9495.000000;-0.603188
9494.000000;-0.604509
9493.000000;-0.605826
9492.000000;-0.607169
9491.000000;-0.608508
9490.000000;-0.609835
9489.000000;-0.611154
9488.000000;-0.612419
9487.000000;-0.613531
9486.000000;-0.614460
9485.000000;-0.615334
9484.000000;-0.616369
9483.000000;-0.617674
9482.000000;-0.619142
9481.000000;-0.620538
9480.000000;-0.621668
9479.000000;-0.622498
9478.000000;-0.623157
9477.000000;-0.623858
9476.000000;-0.624771
9475.000000;-0.625905
9474.000000;-0.627112
9473.000000;-0.628206
9472.000000;-0.629102
9471.000000;-0.629854
9470.000000;-0.630577
9469.000000;-0.631378
9468.000000;-0.632318
9467.000000;-0.633395
9466.000000;-0.634513
9465.000000;-0.635490
9464.000000;-0.636142
9463.000000;-0.636429
9462.000000;-0.636518
9461.000000;-0.636682
9460.000000;-0.637071
9459.000000;-0.637620
9458.000000;-0.638176
9457.000000;-0.638698
9456.000000;-0.639255
9455.000000;-0.639852
9454.000000;-0.640365
9453.000000;-0.640670
9452.000000;-0.640781
9451.000000;-0.640803
9450.000000;-0.640827
9449.000000;-0.640889
9448.000000;-0.640991
9447.000000;-0.641092
9446.000000;-0.641129
9445.000000;-0.641092
9444.000000;-0.641048
9443.000000;-0.641083
9442.000000;-0.641215
9441.000000;-0.641396
9440.000000;-0.641529
9439.000000;-0.641489
9438.000000;-0.641219
9437.000000;-0.640832
9436.000000;-0.640543
9435.000000;-0.640440
9434.000000;-0.640385
9433.000000;-0.640206
9432.000000;-0.639898
9431.000000;-0.639570
9430.000000;-0.639264
9429.000000;-0.638930
9428.000000;-0.638531
9427.000000;-0.638066
9426.000000;-0.637513
9425.000000;-0.636855
9424.000000;-0.636163
9423.000000;-0.635555
9422.000000;-0.635074
9421.000000;-0.634664
9420.000000;-0.634247
9419.000000;-0.633758
9418.000000;-0.633144
9417.000000;-0.632410
9416.000000;-0.631667
9415.000000;-0.631041
9414.000000;-0.630551
9413.000000;-0.630116
9412.000000;-0.629665
9411.000000;-0.629163
9410.000000;-0.628556
9409.000000;-0.627798
9408.000000;-0.626952
9407.000000;-0.626141
9406.000000;-0.625386
9405.000000;-0.624565
9404.000000;-0.623586
9403.000000;-0.622506
9402.000000;-0.621442
9401.000000;-0.620429
9400.000000;-0.619434
9399.000000;-0.618458
9398.000000;-0.617560
9397.000000;-0.616771
9396.000000;-0.616026
9395.000000;-0.615196
9394.000000;-0.614198
9393.000000;-0.613090
9392.000000;-0.612017
9391.000000;-0.611042
9390.000000;-0.610073
9389.000000;-0.608992
9388.000000;-0.607816
9387.000000;-0.606673
9386.000000;-0.605622
9385.000000;-0.604597
9384.000000;-0.603510
9383.000000;-0.602355
9382.000000;-0.601159
9381.000000;-0.599941
9380.000000;-0.598738
9379.000000;-0.597624
9378.000000;-0.596631
9377.000000;-0.595681
9376.000000;-0.594647
9375.000000;-0.593473
9374.000000;-0.592210
9373.000000;-0.590921
9372.000000;-0.589604
9371.000000;-0.588213
9370.000000;-0.586757
9369.000000;-0.585346
9368.000000;-0.584101
9367.000000;-0.583034
9366.000000;-0.582040
9365.000000;-0.581005
9364.000000;-0.579884
9363.000000;-0.578662
9362.000000;-0.577321
9361.000000;-0.575886
9360.000000;-0.574462
9359.000000;-0.573149
9358.000000;-0.571948
9357.000000;-0.570807
9356.000000;-0.569704
9355.000000;-0.568621
9354.000000;-0.567478
9353.000000;-0.566186
9352.000000;-0.564793
9351.000000;-0.563479
9350.000000;-0.562357
9349.000000;-0.561350
9348.000000;-0.560287
9347.000000;-0.559079
9346.000000;-0.557744
9345.000000;-0.556327
9344.000000;-0.554843
9343.000000;-0.553322
9342.000000;-0.551831
9341.000000;-0.550440
9340.000000;-0.549173
9339.000000;-0.547986
9338.000000;-0.546819
9337.000000;-0.545639
9336.000000;-0.544455
9335.000000;-0.543263
9334.000000;-0.542028
9333.000000;-0.540711
9332.000000;-0.539335
9331.000000;-0.537982
9330.000000;-0.536728
9329.000000;-0.535582
9328.000000;-0.534471
9327.000000;-0.533305
9326.000000;-0.532048
9325.000000;-0.530732
9324.000000;-0.529398
9323.000000;-0.528051
9322.000000;-0.526701
9321.000000;-0.525419
9320.000000;-0.524283
9319.000000;-0.523262
9318.000000;-0.522213
9317.000000;-0.521034
9316.000000;-0.519761
9315.000000;-0.518506
9314.000000;-0.517324
9313.000000;-0.516203
9312.000000;-0.515117
9311.000000;-0.514046
9310.000000;-0.512933
9309.000000;-0.511693
9308.000000;-0.510298
9307.000000;-0.508822
9306.000000;-0.507408
9305.000000;-0.506160
9304.000000;-0.505053
9303.000000;-0.503950
9302.000000;-0.502747
9301.000000;-0.501499
9300.000000;-0.500354
9299.000000;-0.499355
9298.000000;-0.498353
9297.000000;-0.497174
9296.000000;-0.495807
9295.000000;-0.494402
9294.000000;-0.493119
9293.000000;-0.492005
9292.000000;-0.491001
9291.000000;-0.489992
9290.000000;-0.488897
9289.000000;-0.487719
9288.000000;-0.486535
9287.000000;-0.485401
9286.000000;-0.484294
9285.000000;-0.483157
9284.000000;-0.481964
9283.000000;-0.480744
9282.000000;-0.479559
9281.000000;-0.478481
9280.000000;-0.477519
9279.000000;-0.476568
9278.000000;-0.475481
9277.000000;-0.474232
9276.000000;-0.472944
9275.000000;-0.471735
9274.000000;-0.470590
9273.000000;-0.469447
9272.000000;-0.468324
9271.000000;-0.467270
9270.000000;-0.466260
9269.000000;-0.465220
9268.000000;-0.464133
9267.000000;-0.463051
9266.000000;-0.462015
9265.000000;-0.461024
9264.000000;-0.460066
9263.000000;-0.459104
9262.000000;-0.458068
9261.000000;-0.456918
9260.000000;-0.455724
9259.000000;-0.454604
9258.000000;-0.453595
9257.000000;-0.452640
9256.000000;-0.451686
9255.000000;-0.450740
9254.000000;-0.449818
9253.000000;-0.448907
9252.000000;-0.447977
9251.000000;-0.446997
9250.000000;-0.445944
9249.000000;-0.444847
9248.000000;-0.443804
9247.000000;-0.442899
9246.000000;-0.442104
9245.000000;-0.441311
9244.000000;-0.440457
9243.000000;-0.439552
9242.000000;-0.438608
9241.000000;-0.437610
9240.000000;-0.436562
9239.000000;-0.435514
9238.000000;-0.434505
9237.000000;-0.433516
9236.000000;-0.432497
9235.000000;-0.431426
9234.000000;-0.430338
9233.000000;-0.429310
9232.000000;-0.428395
9231.000000;-0.427563
9230.000000;-0.426716
9229.000000;-0.425791
9228.000000;-0.424826
9227.000000;-0.423890
9226.000000;-0.422990
9225.000000;-0.422089
9224.000000;-0.421191
9223.000000;-0.420338
9222.000000;-0.419526
9221.000000;-0.418691
9220.000000;-0.417788
9219.000000;-0.416850
9218.000000;-0.415942
9217.000000;-0.415112
9216.000000;-0.414376
9215.000000;-0.413719
9214.000000;-0.413086
9213.000000;-0.412397
9212.000000;-0.411594
9211.000000;-0.410681
9210.000000;-0.409712
9209.000000;-0.408760
9208.000000;-0.407876
9207.000000;-0.407058
9206.000000;-0.406261
9205.000000;-0.405459
9204.000000;-0.404670
9203.000000;-0.403910
9202.000000;-0.403151
9201.000000;-0.402351
9200.000000;-0.401520
9199.000000;-0.400698
9198.000000;-0.399904
9197.000000;-0.399129
9196.000000;-0.398375
9195.000000;-0.397633
9194.000000;-0.396861
9193.000000;-0.396024
9192.000000;-0.395159
9191.000000;-0.394340
9190.000000;-0.393587
9189.000000;-0.392839
9188.000000;-0.392048
9187.000000;-0.391237
9186.000000;-0.390454
9185.000000;-0.389708
9184.000000;-0.388984
9183.000000;-0.388282
9182.000000;-0.387606
9181.000000;-0.386920
9180.000000;-0.386161
9179.000000;-0.385314
9178.000000;-0.384462
9177.000000;-0.383737
9176.000000;-0.383200
9175.000000;-0.382770
9174.000000;-0.382292
9173.000000;-0.381661
9172.000000;-0.380874
9171.000000;-0.379987
9170.000000;-0.379070
9169.000000;-0.378211
9168.000000;-0.377500
9167.000000;-0.376951
9166.000000;-0.376468
9165.000000;-0.375921
9164.000000;-0.375256
9163.000000;-0.374506
9162.000000;-0.373752
9161.000000;-0.373067
9160.000000;-0.372482
9159.000000;-0.371952
9158.000000;-0.371386
9157.000000;-0.370745
9156.000000;-0.370099
9155.000000;-0.369537
9154.000000;-0.369049
9153.000000;-0.368548
9152.000000;-0.367979
9151.000000;-0.367347
9150.000000;-0.366659
9149.000000;-0.365909
9148.000000;-0.365141
9147.000000;-0.364448
9146.000000;-0.363881
9145.000000;-0.363383
9144.000000;-0.362848
9143.000000;-0.362236
9142.000000;-0.361591
9141.000000;-0.360971
9140.000000;-0.360387
9139.000000;-0.359819
9138.000000;-0.359256
9137.000000;-0.358715
9136.000000;-0.358199
9135.000000;-0.357675
9134.000000;-0.357110
9133.000000;-0.356526
9132.000000;-0.355973
9131.000000;-0.355443
9130.000000;-0.354862
9129.000000;-0.354182
9128.000000;-0.353459
9127.000000;-0.352800
9126.000000;-0.352265
9125.000000;-0.351843
9124.000000;-0.351484
9123.000000;-0.351126
9122.000000;-0.350696
9121.000000;-0.350157
9120.000000;-0.349558
9119.000000;-0.349000
9118.000000;-0.348539
9117.000000;-0.348123
9116.000000;-0.347647
9115.000000;-0.347054
9114.000000;-0.346392
9113.000000;-0.345762
9112.000000;-0.345225
9111.000000;-0.344760
9110.000000;-0.344312
9109.000000;-0.343850
9108.000000;-0.343370
9107.000000;-0.342864
9106.000000;-0.342326
9105.000000;-0.341783
9104.000000;-0.341280
9103.000000;-0.340827
9102.000000;-0.340398
9101.000000;-0.339985
9100.000000;-0.339595
9099.000000;-0.339194
9098.000000;-0.338701
9097.000000;-0.338080
9096.000000;-0.337403
9095.000000;-0.336779
9094.000000;-0.336267
9093.000000;-0.335859
9092.000000;-0.335514
9091.000000;-0.335169
9090.000000;-0.334773
9089.000000;-0.334355
9088.000000;-0.334010
9087.000000;-0.333776
9086.000000;-0.333551
9085.000000;-0.333180
9084.000000;-0.332612
9083.000000;-0.331932
9082.000000;-0.331271
9081.000000;-0.330722
9080.000000;-0.330321
9079.000000;-0.330039
9078.000000;-0.329784
9077.000000;-0.329457
9076.000000;-0.329030
9075.000000;-0.328549
9074.000000;-0.328073
9073.000000;-0.327631
9072.000000;-0.327227
9071.000000;-0.326853
9070.000000;-0.326494
9069.000000;-0.326143
9068.000000;-0.325811
9067.000000;-0.325508
9066.000000;-0.325222
9065.000000;-0.324927
9064.000000;-0.324604
9063.000000;-0.324238
9062.000000;-0.323822
9061.000000;-0.323373
9060.000000;-0.322944
9059.000000;-0.322591
9058.000000;-0.322328
9057.000000;-0.322119
9056.000000;-0.321908
9055.000000;-0.321640
9054.000000;-0.321292
9053.000000;-0.320894
9052.000000;-0.320509
9051.000000;-0.320166
9050.000000;-0.319844
9049.000000;-0.319509
9048.000000;-0.319156
9047.000000;-0.318792
9046.000000;-0.318411
9045.000000;-0.318012
9044.000000;-0.317620
9043.000000;-0.317260
9042.000000;-0.316928
9041.000000;-0.316602
9040.000000;-0.316277
9039.000000;-0.315957
9038.000000;-0.315645
9037.000000;-0.315343
9036.000000;-0.315056
9035.000000;-0.314773
9034.000000;-0.314471
9033.000000;-0.314150
9032.000000;-0.313842
9031.000000;-0.313567
9030.000000;-0.313317
9029.000000;-0.313078
9028.000000;-0.312837
9027.000000;-0.312576
9026.000000;-0.312268
9025.000000;-0.311926
9024.000000;-0.311591
9023.000000;-0.311276
9022.000000;-0.310958
9021.000000;-0.310643
9020.000000;-0.310388
9019.000000;-0.310223
9018.000000;-0.310092
9017.000000;-0.309919
9016.000000;-0.309691
9015.000000;-0.309440
9014.000000;-0.309174
9013.000000;-0.308885
9012.000000;-0.308610
9011.000000;-0.308397
9010.000000;-0.308230
9009.000000;-0.308028
9008.000000;-0.307743
9007.000000;-0.307402
9006.000000;-0.307057
9005.000000;-0.306732
9004.000000;-0.306432
9003.000000;-0.306178
9002.000000;-0.305996
9001.000000;-0.305875
9000.000000;-0.305758
8999.000000;-0.305582
8998.000000;-0.305332
8997.000000;-0.305053
8996.000000;-0.304798
8995.000000;-0.304583
8994.000000;-0.304377
8993.000000;-0.304153
8992.000000;-0.303914
8991.000000;-0.303677
8990.000000;-0.303455
8989.000000;-0.303259
8988.000000;-0.303086
8987.000000;-0.302909
8986.000000;-0.302709
8985.000000;-0.302502
8984.000000;-0.302316
8983.000000;-0.302122
8982.000000;-0.301863
8981.000000;-0.301540
8980.000000;-0.301233
8979.000000;-0.301021
8978.000000;-0.300912
8977.000000;-0.300863
8976.000000;-0.300830
8975.000000;-0.300766
8974.000000;-0.300636
8973.000000;-0.300455
8972.000000;-0.300269
8971.000000;-0.300089
8970.000000;-0.299870
8969.000000;-0.299603
8968.000000;-0.299356
8967.000000;-0.299195
8966.000000;-0.299107
8965.000000;-0.299034
8964.000000;-0.298953
8963.000000;-0.298870
8962.000000;-0.298765
8961.000000;-0.298612
8960.000000;-0.298414
8959.000000;-0.298180
8958.000000;-0.297898
8957.000000;-0.297569
8956.000000;-0.297255
8955.000000;-0.297034
8954.000000;-0.296913
8953.000000;-0.296827
8952.000000;-0.296715
8951.000000;-0.296574
8950.000000;-0.296440
8949.000000;-0.296354
8948.000000;-0.296340
8947.000000;-0.296374
8946.000000;-0.296387
8945.000000;-0.296305
8944.000000;-0.296104
8943.000000;-0.295816
8942.000000;-0.295513
8941.000000;-0.295279
8940.000000;-0.295165
8939.000000;-0.295138
8938.000000;-0.295101
8937.000000;-0.294991
8936.000000;-0.294844
8935.000000;-0.294729
8934.000000;-0.294656
8933.000000;-0.294584
8932.000000;-0.294489
8931.000000;-0.294388
8930.000000;-0.294281
8929.000000;-0.294137
8928.000000;-0.293930
8927.000000;-0.293690
8926.000000;-0.293488
8925.000000;-0.293378
8924.000000;-0.293356
8923.000000;-0.293370
8922.000000;-0.293381
8921.000000;-0.293382
8920.000000;-0.293363
8919.000000;-0.293287
8918.000000;-0.293133
8917.000000;-0.292964
8916.000000;-0.292863
8915.000000;-0.292812
8914.000000;-0.292698
8913.000000;-0.292466
8912.000000;-0.292198
8911.000000;-0.292000
8910.000000;-0.291875
8909.000000;-0.291769
8908.000000;-0.291685
8907.000000;-0.291662
8906.000000;-0.291692
8905.000000;-0.291727
8904.000000;-0.291751
8903.000000;-0.291775
8902.000000;-0.291765
8901.000000;-0.291643
8900.000000;-0.291392
8899.000000;-0.291120
8898.000000;-0.290972
8897.000000;-0.291005
8896.000000;-0.291151
8895.000000;-0.291288
8894.000000;-0.291329
8893.000000;-0.291264
8892.000000;-0.291140
8891.000000;-0.291016
8890.000000;-0.290923
8889.000000;-0.290842
8888.000000;-0.290705
8887.000000;-0.290442
8886.000000;-0.290084
8885.000000;-0.289789
8884.000000;-0.289715
8883.000000;-0.289846
8882.000000;-0.289994
8881.000000;-0.290007
8880.000000;-0.289932
8879.000000;-0.289922
8878.000000;-0.290046
8877.000000;-0.290220
8876.000000;-0.290325
8875.000000;-0.290317
8874.000000;-0.290238
8873.000000;-0.290156
8872.000000;-0.290106
8871.000000;-0.290067
8870.000000;-0.289972
8869.000000;-0.289760
8868.000000;-0.289434
8867.000000;-0.289095
8866.000000;-0.288911
8865.000000;-0.289005
8864.000000;-0.289336
8863.000000;-0.289704
8862.000000;-0.289917
8861.000000;-0.289935
8860.000000;-0.289836
8859.000000;-0.289674
8858.000000;-0.289470
8857.000000;-0.289297
8856.000000;-0.289257
8855.000000;-0.289319
8854.000000;-0.289298
8853.000000;-0.289065
8852.000000;-0.288725
8851.000000;-0.288501
8850.000000;-0.288495
8849.000000;-0.288628
8848.000000;-0.288772
8847.000000;-0.288861
8846.000000;-0.288884
8845.000000;-0.288846
8844.000000;-0.288772
8843.000000;-0.288699
8842.000000;-0.288651
8841.000000;-0.288633
8840.000000;-0.288634
8839.000000;-0.288622
8838.000000;-0.288563
8837.000000;-0.288459
8836.000000;-0.288356
8835.000000;-0.288295
8834.000000;-0.288277
8833.000000;-0.288271
8832.000000;-0.288243
8831.000000;-0.288160
8830.000000;-0.288010
8829.000000;-0.287822
8828.000000;-0.287651
8827.000000;-0.287509
8826.000000;-0.287363
8825.000000;-0.287205
8824.000000;-0.287087
8823.000000;-0.287055
8822.000000;-0.287083
8821.000000;-0.287110
8820.000000;-0.287098
8819.000000;-0.287048
8818.000000;-0.286983
8817.000000;-0.286925
8816.000000;-0.286859
8815.000000;-0.286693
8814.000000;-0.286337
8813.000000;-0.285852
8812.000000;-0.285469
8811.000000;-0.285392
8810.000000;-0.285614
8809.000000;-0.285952
8808.000000;-0.286219
8807.000000;-0.286320
8806.000000;-0.286232
8805.000000;-0.285987
8804.000000;-0.285661
8803.000000;-0.285342
8802.000000;-0.285110
8801.000000;-0.285039
8800.000000;-0.285164
8799.000000;-0.285399
8798.000000;-0.285563
8797.000000;-0.285551
8796.000000;-0.285431
8795.000000;-0.285335
8794.000000;-0.285285
8793.000000;-0.285204
8792.000000;-0.285061
8791.000000;-0.284904
8790.000000;-0.284778
8789.000000;-0.284680
8788.000000;-0.284601
8787.000000;-0.284534
8786.000000;-0.284447
8785.000000;-0.284306
8784.000000;-0.284147
8783.000000;-0.284055
8782.000000;-0.284061
8781.000000;-0.284097
8780.000000;-0.284070
8779.000000;-0.283959
8778.000000;-0.283822
8777.000000;-0.283726
8776.000000;-0.283679
8775.000000;-0.283611
8774.000000;-0.283449
8773.000000;-0.283206
8772.000000;-0.282996
8771.000000;-0.282912
8770.000000;-0.282931
8769.000000;-0.282946
8768.000000;-0.282873
8767.000000;-0.282697
8766.000000;-0.282457
8765.000000;-0.282229
8764.000000;-0.282090
8763.000000;-0.282050
8762.000000;-0.282034
8761.000000;-0.281978
8760.000000;-0.281896
8759.000000;-0.281835
8758.000000;-0.281775
8757.000000;-0.281660
8756.000000;-0.281493
8755.000000;-0.281336
8754.000000;-0.281216
8753.000000;-0.281118
8752.000000;-0.281046
8751.000000;-0.281035
8750.000000;-0.281075
8749.000000;-0.281103
8748.000000;-0.281086
8747.000000;-0.281055
8746.000000;-0.281027
8745.000000;-0.280957
8744.000000;-0.280805
8743.000000;-0.280600
8742.000000;-0.280398
8741.000000;-0.280204
8740.000000;-0.279996
8739.000000;-0.279796
8738.000000;-0.279672
8737.000000;-0.279647
8736.000000;-0.279661
8735.000000;-0.279629
8734.000000;-0.279542
8733.000000;-0.279471
8732.000000;-0.279484
8731.000000;-0.279580
8730.000000;-0.279694
8729.000000;-0.279753
8728.000000;-0.279714
8727.000000;-0.279584
8726.000000;-0.279418
8725.000000;-0.279274
8724.000000;-0.279149
8723.000000;-0.278977
8722.000000;-0.278720
8721.000000;-0.278447
8720.000000;-0.278289
8719.000000;-0.278313
8718.000000;-0.278470
8717.000000;-0.278637
8716.000000;-0.278691
8715.000000;-0.278564
8714.000000;-0.278303
8713.000000;-0.278067
8712.000000;-0.277995
8711.000000;-0.278063
8710.000000;-0.278123
8709.000000;-0.278099
8708.000000;-0.278062
8707.000000;-0.278098
8706.000000;-0.278176
8705.000000;-0.278216
8704.000000;-0.278212
8703.000000;-0.278222
8702.000000;-0.278263
8701.000000;-0.278279
8700.000000;-0.278209
8699.000000;-0.278036
8698.000000;-0.277804
8697.000000;-0.277614
8696.000000;-0.277580
8695.000000;-0.277735
8694.000000;-0.277992
8693.000000;-0.278228
8692.000000;-0.278389
8691.000000;-0.278498
8690.000000;-0.278579
8689.000000;-0.278623
8688.000000;-0.278610
8687.000000;-0.278537
8686.000000;-0.278438
8685.000000;-0.278387
8684.000000;-0.278455
8683.000000;-0.278626
8682.000000;-0.278796
8681.000000;-0.278885
8680.000000;-0.278909
8679.000000;-0.278912
8678.000000;-0.278874
8677.000000;-0.278757
8676.000000;-0.278619
8675.000000;-0.278596
8674.000000;-0.278774
8673.000000;-0.279100
8672.000000;-0.279439
8671.000000;-0.279674
8670.000000;-0.279769
8669.000000;-0.279761
8668.000000;-0.279729
8667.000000;-0.279743
8666.000000;-0.279838
8665.000000;-0.280009
8664.000000;-0.280208
8663.000000;-0.280365
8662.000000;-0.280449
8661.000000;-0.280514
8660.000000;-0.280651
8659.000000;-0.280877
8658.000000;-0.281124
8657.000000;-0.281333
8656.000000;-0.281510
8655.000000;-0.281665
8654.000000;-0.281773
8653.000000;-0.281848
8652.000000;-0.281978
8651.000000;-0.282227
8650.000000;-0.282536
8649.000000;-0.282795
8648.000000;-0.282974
8647.000000;-0.283112
8646.000000;-0.283217
8645.000000;-0.283253
8644.000000;-0.283237
8643.000000;-0.283263
8642.000000;-0.283413
8641.000000;-0.283682
8640.000000;-0.284003
8639.000000;-0.284301
8638.000000;-0.284522
8637.000000;-0.284661
8636.000000;-0.284760
8635.000000;-0.284882
8634.000000;-0.285060
8633.000000;-0.285291
8632.000000;-0.285552
8631.000000;-0.285801
8630.000000;-0.285992
8629.000000;-0.286127
8628.000000;-0.286275
8627.000000;-0.286499
8626.000000;-0.286776
8625.000000;-0.287033
8624.000000;-0.287241
8623.000000;-0.287427
8622.000000;-0.287615
8621.000000;-0.287809
8620.000000;-0.288017
8619.000000;-0.288260
8618.000000;-0.288523
8617.000000;-0.288757
8616.000000;-0.288934
8615.000000;-0.289080
8614.000000;-0.289259
8613.000000;-0.289519
8612.000000;-0.289858
8611.000000;-0.290212
8610.000000;-0.290486
8609.000000;-0.290630
8608.000000;-0.290691
8607.000000;-0.290766
8606.000000;-0.290925
8605.000000;-0.291177
8604.000000;-0.291499
8603.000000;-0.291852
8602.000000;-0.292177
8601.000000;-0.292419
8600.000000;-0.292573
8599.000000;-0.292702
8598.000000;-0.292885
8597.000000;-0.293138
8596.000000;-0.293399
8595.000000;-0.293595
8594.000000;-0.293731
8593.000000;-0.293904
8592.000000;-0.294203
8591.000000;-0.294622
8590.000000;-0.295071
8589.000000;-0.295477
8588.000000;-0.295813
8587.000000;-0.296059
8586.000000;-0.296196
8585.000000;-0.296252
8584.000000;-0.296310
8583.000000;-0.296442
8582.000000;-0.296659
8581.000000;-0.296953
8580.000000;-0.297323
8579.000000;-0.297731
8578.000000;-0.298090
8577.000000;-0.298352
8576.000000;-0.298566
8575.000000;-0.298816
8574.000000;-0.299122
8573.000000;-0.299437
8572.000000;-0.299715
8571.000000;-0.299950
8570.000000;-0.300149
8569.000000;-0.300324
8568.000000;-0.300493
8567.000000;-0.300666
8566.000000;-0.300856
8565.000000;-0.301100
8564.000000;-0.301432
8563.000000;-0.301814
8562.000000;-0.302135
8561.000000;-0.302330
8560.000000;-0.302451
8559.000000;-0.302612
8558.000000;-0.302859
8557.000000;-0.303162
8556.000000;-0.303474
8555.000000;-0.303773
8554.000000;-0.304054
8553.000000;-0.304333
8552.000000;-0.304637
8551.000000;-0.304965
8550.000000;-0.305278
8549.000000;-0.305553
8548.000000;-0.305820
8547.000000;-0.306116
8546.000000;-0.306426
8545.000000;-0.306707
8544.000000;-0.306938
8543.000000;-0.307127
8542.000000;-0.307292
8541.000000;-0.307478
8540.000000;-0.307748
8539.000000;-0.308123
8538.000000;-0.308538
8537.000000;-0.308900
8536.000000;-0.309182
8535.000000;-0.309421
8534.000000;-0.309656
8533.000000;-0.309907
8532.000000;-0.310176
8531.000000;-0.310444
8530.000000;-0.310668
8529.000000;-0.310841
8528.000000;-0.311018
8527.000000;-0.311261
8526.000000;-0.311569
8525.000000;-0.311888
8524.000000;-0.312182
8523.000000;-0.312447
8522.000000;-0.312689
8521.000000;-0.312929
8520.000000;-0.313221
8519.000000;-0.313586
8518.000000;-0.313966
8517.000000;-0.314275
8516.000000;-0.314506
8515.000000;-0.314725
8514.000000;-0.314967
8513.000000;-0.315187
8512.000000;-0.315329
8511.000000;-0.315407
8510.000000;-0.315492
8509.000000;-0.315654
8508.000000;-0.315915
8507.000000;-0.316240
8506.000000;-0.316564
8505.000000;-0.316849
8504.000000;-0.317108
8503.000000;-0.317389
8502.000000;-0.317724
8501.000000;-0.318106
8500.000000;-0.318492
8499.000000;-0.318819
8498.000000;-0.319039
8497.000000;-0.319159
8496.000000;-0.319251
8495.000000;-0.319395
8494.000000;-0.319620
8493.000000;-0.319905
8492.000000;-0.320202
8491.000000;-0.320465
8490.000000;-0.320666
8489.000000;-0.320824
8488.000000;-0.320987
8487.000000;-0.321188
8486.000000;-0.321429
8485.000000;-0.321700
8484.000000;-0.322000
8483.000000;-0.322303
8482.000000;-0.322565
8481.000000;-0.322787
8480.000000;-0.323025
8479.000000;-0.323313
8478.000000;-0.323616
8477.000000;-0.323878
8476.000000;-0.324097
8475.000000;-0.324310
8474.000000;-0.324540
8473.000000;-0.324781
8472.000000;-0.325030
8471.000000;-0.325285
8470.000000;-0.325534
8469.000000;-0.325779
8468.000000;-0.326042
8467.000000;-0.326322
8466.000000;-0.326574
8465.000000;-0.326772
8464.000000;-0.326952
8463.000000;-0.327174
8462.000000;-0.327440
8461.000000;-0.327706
8460.000000;-0.327944
8459.000000;-0.328157
8458.000000;-0.328349
8457.000000;-0.328523
8456.000000;-0.328702
8455.000000;-0.328906
8454.000000;-0.329126
8453.000000;-0.329332
8452.000000;-0.329520
8451.000000;-0.329716
8450.000000;-0.329948
8449.000000;-0.330227
8448.000000;-0.330550
8447.000000;-0.330891
8446.000000;-0.331206
8445.000000;-0.331467
8444.000000;-0.331685
8443.000000;-0.331887
8442.000000;-0.332094
8441.000000;-0.332321
8440.000000;-0.332568
8439.000000;-0.332799
8438.000000;-0.332968
8437.000000;-0.333082
8436.000000;-0.333215
8435.000000;-0.333420
8434.000000;-0.333655
8433.000000;-0.333837
8432.000000;-0.333939
8431.000000;-0.334012
8430.000000;-0.334140
8429.000000;-0.334376
8428.000000;-0.334713
8427.000000;-0.335082
8426.000000;-0.335400
8425.000000;-0.335654
8424.000000;-0.335892
8423.000000;-0.336122
8422.000000;-0.336284
8421.000000;-0.336331
8420.000000;-0.336322
8419.000000;-0.336363
8418.000000;-0.336511
8417.000000;-0.336760
8416.000000;-0.337086
8415.000000;-0.337446
8414.000000;-0.337766
8413.000000;-0.337991
8412.000000;-0.338142
8411.000000;-0.338277
8410.000000;-0.338416
8409.000000;-0.338554
8408.000000;-0.338711
8407.000000;-0.338926
8406.000000;-0.339188
8405.000000;-0.339444
8404.000000;-0.339647
8403.000000;-0.339792
8402.000000;-0.339910
8401.000000;-0.340065
8400.000000;-0.340322
8399.000000;-0.340680
8398.000000;-0.341040
8397.000000;-0.341308
8396.000000;-0.341487
8395.000000;-0.341640
8394.000000;-0.341790
8393.000000;-0.341915
8392.000000;-0.342031
8391.000000;-0.342187
8390.000000;-0.342391
8389.000000;-0.342596
8388.000000;-0.342783
8387.000000;-0.342984
8386.000000;-0.343209
8385.000000;-0.343410
8384.000000;-0.343555
8383.000000;-0.343677
8382.000000;-0.343830
8381.000000;-0.344019
8380.000000;-0.344210
8379.000000;-0.344382
8378.000000;-0.344544
8377.000000;-0.344713
8376.000000;-0.344903
8375.000000;-0.345118
8374.000000;-0.345348
8373.000000;-0.345580
8372.000000;-0.345818
8371.000000;-0.346066
8370.000000;-0.346310
8369.000000;-0.346517
8368.000000;-0.346666
8367.000000;-0.346761
8366.000000;-0.346821
8365.000000;-0.346871
8364.000000;-0.346947
8363.000000;-0.347092
8362.000000;-0.347323
8361.000000;-0.347621
8360.000000;-0.347946
8359.000000;-0.348255
8358.000000;-0.348517
8357.000000;-0.348718
8356.000000;-0.348866
8355.000000;-0.348983
8354.000000;-0.349100
8353.000000;-0.349246
8352.000000;-0.349428
8351.000000;-0.349621
8350.000000;-0.349786
8349.000000;-0.349926
8348.000000;-0.350084
8347.000000;-0.350290
8346.000000;-0.350523
8345.000000;-0.350747
8344.000000;-0.350961
8343.000000;-0.351188
8342.000000;-0.351430
8341.000000;-0.351661
8340.000000;-0.351848
8339.000000;-0.351967
8338.000000;-0.352019
8337.000000;-0.352040
8336.000000;-0.352098
8335.000000;-0.352238
8334.000000;-0.352452
8333.000000;-0.352701
8332.000000;-0.352960
8331.000000;-0.353209
8330.000000;-0.353422
8329.000000;-0.353589
8328.000000;-0.353726
8327.000000;-0.353853
8326.000000;-0.353968
8325.000000;-0.354075
8324.000000;-0.354207
8323.000000;-0.354383
8322.000000;-0.354573
8321.000000;-0.354730
8320.000000;-0.354858
8319.000000;-0.355003
8318.000000;-0.355175
8317.000000;-0.355343
8316.000000;-0.355486
8315.000000;-0.355635
8314.000000;-0.355829
8313.000000;-0.356057
8312.000000;-0.356264
8311.000000;-0.356397
8310.000000;-0.356447
8309.000000;-0.356458
8308.000000;-0.356498
8307.000000;-0.356627
8306.000000;-0.356859
8305.000000;-0.357156
8304.000000;-0.357450
8303.000000;-0.357675
8302.000000;-0.357816
8301.000000;-0.357916
8300.000000;-0.358024
8299.000000;-0.358129
8298.000000;-0.358178
8297.000000;-0.358168
8296.000000;-0.358180
8295.000000;-0.358304
8294.000000;-0.358545
8293.000000;-0.358812
8292.000000;-0.358999
8291.000000;-0.359062
8290.000000;-0.359043
8289.000000;-0.359038
8288.000000;-0.359129
8287.000000;-0.359329
8286.000000;-0.359578
8285.000000;-0.359810
8284.000000;-0.360007
8283.000000;-0.360191
8282.000000;-0.360374
8281.000000;-0.360536
8280.000000;-0.360639
8279.000000;-0.360670
8278.000000;-0.360675
8277.000000;-0.360733
8276.000000;-0.360876
8275.000000;-0.361048
8274.000000;-0.361186
8273.000000;-0.361307
8272.000000;-0.361477
8271.000000;-0.361693
8270.000000;-0.361872
8269.000000;-0.361960
8268.000000;-0.362008
8267.000000;-0.362092
8266.000000;-0.362222
8265.000000;-0.362346
8264.000000;-0.362424
8263.000000;-0.362448
8262.000000;-0.362443
8261.000000;-0.362464
8260.000000;-0.362574
8259.000000;-0.362766
8258.000000;-0.362963
8257.000000;-0.363100
8256.000000;-0.363192
8255.000000;-0.363287
8254.000000;-0.363402
8253.000000;-0.363526
8252.000000;-0.363650
8251.000000;-0.363760
8250.000000;-0.363828
8249.000000;-0.363848
8248.000000;-0.363864
8247.000000;-0.363927
8246.000000;-0.364036
8245.000000;-0.364169
8244.000000;-0.364322
8243.000000;-0.364497
8242.000000;-0.364677
8241.000000;-0.364832
8240.000000;-0.364948
8239.000000;-0.365012
8238.000000;-0.365008
8237.000000;-0.364971
8236.000000;-0.364987
8235.000000;-0.365113
8234.000000;-0.365303
8233.000000;-0.365459
8232.000000;-0.365539
8231.000000;-0.365578
8230.000000;-0.365625
8229.000000;-0.365703
8228.000000;-0.365805
8227.000000;-0.365915
8226.000000;-0.366008
8225.000000;-0.366077
8224.000000;-0.366129
8223.000000;-0.366160
8222.000000;-0.366159
8221.000000;-0.366151
8220.000000;-0.366201
8219.000000;-0.366330
8218.000000;-0.366480
8217.000000;-0.366585
8216.000000;-0.366656
8215.000000;-0.366743
8214.000000;-0.366854
8213.000000;-0.366953
8212.000000;-0.367027
8211.000000;-0.367089
8210.000000;-0.367141
8209.000000;-0.367175
8208.000000;-0.367213
8207.000000;-0.367287
8206.000000;-0.367379
8205.000000;-0.367437
8204.000000;-0.367451
8203.000000;-0.367473
8202.000000;-0.367542
8201.000000;-0.367637
8200.000000;-0.367703
8199.000000;-0.367709
8198.000000;-0.367685
8197.000000;-0.367695
8196.000000;-0.367785
8195.000000;-0.367925
8194.000000;-0.368034
8193.000000;-0.368061
8192.000000;-0.368040
8191.000000;-0.368032
8190.000000;-0.368047
8189.000000;-0.368045
8188.000000;-0.368009
8187.000000;-0.367972
8186.000000;-0.367983
8185.000000;-0.368060
8184.000000;-0.368192
8183.000000;-0.368333
8182.000000;-0.368430
8181.000000;-0.368459
8180.000000;-0.368451
8179.000000;-0.368459
8178.000000;-0.368502
8177.000000;-0.368562
8176.000000;-0.368618
8175.000000;-0.368663
8174.000000;-0.368694
8173.000000;-0.368722
8172.000000;-0.368762
8171.000000;-0.368811
8170.000000;-0.368839
8169.000000;-0.368834
8168.000000;-0.368827
8167.000000;-0.368856
8166.000000;-0.368918
8165.000000;-0.368981
8164.000000;-0.369026
8163.000000;-0.369056
8162.000000;-0.369074
8161.000000;-0.369081
8160.000000;-0.369092
8159.000000;-0.369123
8158.000000;-0.369179
8157.000000;-0.369242
8156.000000;-0.369287
8155.000000;-0.369286
8154.000000;-0.369228
8153.000000;-0.369143
8152.000000;-0.369089
8151.000000;-0.369099
8150.000000;-0.369159
8149.000000;-0.369246
8148.000000;-0.369351
8147.000000;-0.369449
8146.000000;-0.369483
8145.000000;-0.369421
8144.000000;-0.369302
8143.000000;-0.369198
8142.000000;-0.369137
8141.000000;-0.369118
8140.000000;-0.369152
8139.000000;-0.369246
8138.000000;-0.369367
8137.000000;-0.369455
8136.000000;-0.369478
8135.000000;-0.369444
8134.000000;-0.369375
8133.000000;-0.369299
8132.000000;-0.369250
8131.000000;-0.369249
8130.000000;-0.369277
8129.000000;-0.369306
8128.000000;-0.369338
8127.000000;-0.369390
8126.000000;-0.369445
8125.000000;-0.369460
8124.000000;-0.369419
8123.000000;-0.369349
8122.000000;-0.369295
8121.000000;-0.369286
8120.000000;-0.369329
8119.000000;-0.369406
8118.000000;-0.369469
8117.000000;-0.369479
8116.000000;-0.369436
8115.000000;-0.369374
8114.000000;-0.369317
8113.000000;-0.369273
8112.000000;-0.369239
8111.000000;-0.369212
8110.000000;-0.369190
8109.000000;-0.369188
8108.000000;-0.369231
8107.000000;-0.369315
8106.000000;-0.369383
8105.000000;-0.369377
8104.000000;-0.369292
8103.000000;-0.369184
8102.000000;-0.369108
8101.000000;-0.369074
8100.000000;-0.369056
8099.000000;-0.369019
8098.000000;-0.368953
8097.000000;-0.368891
8096.000000;-0.368886
8095.000000;-0.368952
8094.000000;-0.369035
8093.000000;-0.369066
8092.000000;-0.369027
8091.000000;-0.368949
8090.000000;-0.368878
8089.000000;-0.368844
8088.000000;-0.368850
8087.000000;-0.368854
8086.000000;-0.368806
8085.000000;-0.368710
8084.000000;-0.368637
8083.000000;-0.368642
8082.000000;-0.368696
8081.000000;-0.368716
8080.000000;-0.368657
8079.000000;-0.368532
8078.000000;-0.368382
8077.000000;-0.368253
8076.000000;-0.368186
8075.000000;-0.368199
8074.000000;-0.368258
8073.000000;-0.368315
8072.000000;-0.368341
8071.000000;-0.368324
8070.000000;-0.368252
8069.000000;-0.368131
8068.000000;-0.368003
8067.000000;-0.367926
8066.000000;-0.367915
8065.000000;-0.367932
8064.000000;-0.367933
8063.000000;-0.367912
8062.000000;-0.367891
8061.000000;-0.367897
8060.000000;-0.367930
8059.000000;-0.367960
8058.000000;-0.367938
8057.000000;-0.367845
8056.000000;-0.367707
8055.000000;-0.367567
8054.000000;-0.367458
8053.000000;-0.367389
8052.000000;-0.367355
8051.000000;-0.367333
8050.000000;-0.367297
8049.000000;-0.367237
8048.000000;-0.367167
8047.000000;-0.367099
8046.000000;-0.367034
8045.000000;-0.366986
8044.000000;-0.366977
8043.000000;-0.367003
8042.000000;-0.367019
8041.000000;-0.366983
8040.000000;-0.366901
8039.000000;-0.366807
8038.000000;-0.366733
8037.000000;-0.366697
8036.000000;-0.366698
8035.000000;-0.366706
8034.000000;-0.366692
8033.000000;-0.366668
8032.000000;-0.366675
8031.000000;-0.366714
8030.000000;-0.366721
8029.000000;-0.366638
8028.000000;-0.366471
8027.000000;-0.366258
8026.000000;-0.366030
8025.000000;-0.365826
8024.000000;-0.365710
8023.000000;-0.365709
8022.000000;-0.365774
8021.000000;-0.365822
8020.000000;-0.365817
8019.000000;-0.365766
8018.000000;-0.365686
8017.000000;-0.365600
8016.000000;-0.365548
8015.000000;-0.365543
8014.000000;-0.365536
8013.000000;-0.365469
8012.000000;-0.365352
8011.000000;-0.365244
8010.000000;-0.365178
8009.000000;-0.365143
8008.000000;-0.365110
8007.000000;-0.365059
8006.000000;-0.364966
8005.000000;-0.364830
8004.000000;-0.364703
8003.000000;-0.364647
8002.000000;-0.364668
8001.000000;-0.364704
8000.000000;-0.364694
7999.000000;-0.364633
7998.000000;-0.364542
7997.000000;-0.364434
7996.000000;-0.364313
7995.000000;-0.364201
7994.000000;-0.364129
7993.000000;-0.364110
7992.000000;-0.364123
7991.000000;-0.364126
7990.000000;-0.364103
7989.000000;-0.364071
7988.000000;-0.364052
7987.000000;-0.364018
7986.000000;-0.363927
7985.000000;-0.363783
7984.000000;-0.363651
7983.000000;-0.363577
7982.000000;-0.363547
7981.000000;-0.363514
7980.000000;-0.363460
7979.000000;-0.363379
7978.000000;-0.363259
7977.000000;-0.363110
7976.000000;-0.362988
7975.000000;-0.362933
7974.000000;-0.362921
7973.000000;-0.362888
7972.000000;-0.362809
7971.000000;-0.362704
7970.000000;-0.362595
7969.000000;-0.362483
7968.000000;-0.362377
7967.000000;-0.362286
7966.000000;-0.362209
7965.000000;-0.362136
7964.000000;-0.362068
7963.000000;-0.361995
7962.000000;-0.361895
7961.000000;-0.361756
7960.000000;-0.361611
7959.000000;-0.361510
7958.000000;-0.361470
7957.000000;-0.361468
7956.000000;-0.361476
7955.000000;-0.361472
7954.000000;-0.361427
7953.000000;-0.361325
7952.000000;-0.361181
7951.000000;-0.361030
7950.000000;-0.360894
7949.000000;-0.360775
7948.000000;-0.360677
7947.000000;-0.360614
7946.000000;-0.360589
7945.000000;-0.360593
7944.000000;-0.360592
7943.000000;-0.360544
7942.000000;-0.360419
7941.000000;-0.360240
7940.000000;-0.360070
7939.000000;-0.359955
7938.000000;-0.359883
7937.000000;-0.359829
7936.000000;-0.359791
7935.000000;-0.359771
7934.000000;-0.359737
7933.000000;-0.359654
7932.000000;-0.359527
7931.000000;-0.359388
7930.000000;-0.359257
7929.000000;-0.359126
7928.000000;-0.359000
7927.000000;-0.358896
7926.000000;-0.358826
7925.000000;-0.358776
7924.000000;-0.358720
7923.000000;-0.358632
7922.000000;-0.358504
7921.000000;-0.358356
7920.000000;-0.358222
7919.000000;-0.358117
7918.000000;-0.358025
7917.000000;-0.357927
7916.000000;-0.357826
7915.000000;-0.357730
7914.000000;-0.357635
7913.000000;-0.357541
7912.000000;-0.357460
7911.000000;-0.357389
7910.000000;-0.357299
7909.000000;-0.357175
7908.000000;-0.357038
7907.000000;-0.356914
7906.000000;-0.356803
7905.000000;-0.356696
7904.000000;-0.356603
7903.000000;-0.356524
7902.000000;-0.356439
7901.000000;-0.356335
7900.000000;-0.356238
7899.000000;-0.356177
7898.000000;-0.356128
7897.000000;-0.356048
7896.000000;-0.355937
7895.000000;-0.355840
7894.000000;-0.355778
7893.000000;-0.355721
7892.000000;-0.355627
7891.000000;-0.355484
7890.000000;-0.355307
7889.000000;-0.355125
7888.000000;-0.354965
7887.000000;-0.354845
7886.000000;-0.354768
7885.000000;-0.354722
7884.000000;-0.354693
7883.000000;-0.354653
7882.000000;-0.354571
7881.000000;-0.354438
7880.000000;-0.354271
7879.000000;-0.354098
7878.000000;-0.353937
7877.000000;-0.353798
7876.000000;-0.353689
7875.000000;-0.353604
7874.000000;-0.353527
7873.000000;-0.353455
7872.000000;-0.353400
7871.000000;-0.353345
7870.000000;-0.353235
7869.000000;-0.353037
7868.000000;-0.352793
7867.000000;-0.352590
7866.000000;-0.352481
7865.000000;-0.352452
7864.000000;-0.352446
7863.000000;-0.352397
7862.000000;-0.352266
7861.000000;-0.352061
7860.000000;-0.351821
7859.000000;-0.351587
7858.000000;-0.351380
7857.000000;-0.351222
7856.000000;-0.351135
7855.000000;-0.351104
7854.000000;-0.351080
7853.000000;-0.351024
7852.000000;-0.350943
7851.000000;-0.350853
7850.000000;-0.350749
7849.000000;-0.350616
7848.000000;-0.350459
7847.000000;-0.350285
7846.000000;-0.350100
7845.000000;-0.349926
7844.000000;-0.349804
7843.000000;-0.349736
7842.000000;-0.349669
7841.000000;-0.349558
7840.000000;-0.349420
7839.000000;-0.349292
7838.000000;-0.349158
7837.000000;-0.348980
7836.000000;-0.348759
7835.000000;-0.348543
7834.000000;-0.348363
7833.000000;-0.348216
7832.000000;-0.348100
7831.000000;-0.348025
7830.000000;-0.347982
7829.000000;-0.347938
7828.000000;-0.347862
7827.000000;-0.347750
7826.000000;-0.347620
7825.000000;-0.347499
7824.000000;-0.347403
7823.000000;-0.347312
7822.000000;-0.347186
7821.000000;-0.347009
7820.000000;-0.346817
7819.000000;-0.346653
7818.000000;-0.346511
7817.000000;-0.346360
7816.000000;-0.346200
7815.000000;-0.346065
7814.000000;-0.345966
7813.000000;-0.345867
7812.000000;-0.345726
7811.000000;-0.345544
7810.000000;-0.345361
7809.000000;-0.345207
7808.000000;-0.345075
7807.000000;-0.344942
7806.000000;-0.344800
7805.000000;-0.344670
7804.000000;-0.344568
7803.000000;-0.344469
7802.000000;-0.344338
7801.000000;-0.344180
7800.000000;-0.344027
7799.000000;-0.343886
7798.000000;-0.343729
7797.000000;-0.343553
7796.000000;-0.343396
7795.000000;-0.343286
7794.000000;-0.343189
7793.000000;-0.343051
7792.000000;-0.342858
7791.000000;-0.342648
7790.000000;-0.342452
7789.000000;-0.342274
7788.000000;-0.342107
7787.000000;-0.341939
7786.000000;-0.341771
7785.000000;-0.341618
7784.000000;-0.341500
7783.000000;-0.341406
7782.000000;-0.341290
7781.000000;-0.341113
7780.000000;-0.340891
7779.000000;-0.340670
7778.000000;-0.340483
7777.000000;-0.340330
7776.000000;-0.340195
7775.000000;-0.340053
7774.000000;-0.339885
7773.000000;-0.339689
7772.000000;-0.339487
7771.000000;-0.339301
7770.000000;-0.339134
7769.000000;-0.338980
7768.000000;-0.338833
7767.000000;-0.338684
7766.000000;-0.338524
7765.000000;-0.338358
7764.000000;-0.338197
7763.000000;-0.338038
7762.000000;-0.337867
7761.000000;-0.337688
7760.000000;-0.337524
7759.000000;-0.337375
7758.000000;-0.337202
7757.000000;-0.336975
7756.000000;-0.336702
7755.000000;-0.336428
7754.000000;-0.336201
7753.000000;-0.336054
7752.000000;-0.335978
7751.000000;-0.335910
7750.000000;-0.335776
7749.000000;-0.335564
7748.000000;-0.335335
7747.000000;-0.335140
7746.000000;-0.334979
7745.000000;-0.334836
7744.000000;-0.334707
7743.000000;-0.334585
7742.000000;-0.334439
7741.000000;-0.334262
7740.000000;-0.334079
7739.000000;-0.333902
7738.000000;-0.333694
7737.000000;-0.333426
7736.000000;-0.333139
7735.000000;-0.332898
7734.000000;-0.332709
7733.000000;-0.332522
7732.000000;-0.332312
7731.000000;-0.332100
7730.000000;-0.331911
7729.000000;-0.331743
7728.000000;-0.331578
7727.000000;-0.331405
7726.000000;-0.331213
7725.000000;-0.330985
7724.000000;-0.330718
7723.000000;-0.330447
7722.000000;-0.330228
7721.000000;-0.330088
7720.000000;-0.329986
7719.000000;-0.329846
7718.000000;-0.329630
7717.000000;-0.329377
7716.000000;-0.329147
7715.000000;-0.328962
7714.000000;-0.328802
7713.000000;-0.328648
7712.000000;-0.328486
7711.000000;-0.328290
7710.000000;-0.328045
7709.000000;-0.327786
7708.000000;-0.327562
7707.000000;-0.327368
7706.000000;-0.327153
7705.000000;-0.326905
7704.000000;-0.326670
7703.000000;-0.326482
7702.000000;-0.326314
7701.000000;-0.326127
7700.000000;-0.325916
7699.000000;-0.325700
7698.000000;-0.325484
7697.000000;-0.325274
7696.000000;-0.325081
7695.000000;-0.324900
7694.000000;-0.324706
7693.000000;-0.324494
7692.000000;-0.324281
7691.000000;-0.324062
7690.000000;-0.323806
7689.000000;-0.323512
7688.000000;-0.323233
7687.000000;-0.323018
7686.000000;-0.322860
7685.000000;-0.322723
7684.000000;-0.322586
7683.000000;-0.322430
7682.000000;-0.322227
7681.000000;-0.321970
7680.000000;-0.321693
7679.000000;-0.321435
7678.000000;-0.321201
7677.000000;-0.320972
7676.000000;-0.320735
7675.000000;-0.320483
7674.000000;-0.320217
7673.000000;-0.319953
7672.000000;-0.319715
7671.000000;-0.319496
7670.000000;-0.319260
7669.000000;-0.318994
7668.000000;-0.318723
7667.000000;-0.318468
7666.000000;-0.318218
7665.000000;-0.317966
7664.000000;-0.317719
7663.000000;-0.317466
7662.000000;-0.317181
7661.000000;-0.316865
7660.000000;-0.316558
7659.000000;-0.316282
7658.000000;-0.316019
7657.000000;-0.315763
7656.000000;-0.315532
7655.000000;-0.315322
7654.000000;-0.315096
7653.000000;-0.314845
7652.000000;-0.314607
7651.000000;-0.314402
7650.000000;-0.314186
7649.000000;-0.313921
7648.000000;-0.313628
7647.000000;-0.313343
7646.000000;-0.313055
7645.000000;-0.312746
7644.000000;-0.312438
7643.000000;-0.312164
7642.000000;-0.311906
7641.000000;-0.311629
7640.000000;-0.311329
7639.000000;-0.311017
7638.000000;-0.310701
7637.000000;-0.310397
7636.000000;-0.310145
7635.000000;-0.309950
7634.000000;-0.309742
7633.000000;-0.309455
7632.000000;-0.309109
7631.000000;-0.308774
7630.000000;-0.308479
7629.000000;-0.308199
7628.000000;-0.307921
7627.000000;-0.307658
7626.000000;-0.307407
7625.000000;-0.307136
7624.000000;-0.306823
7623.000000;-0.306480
7622.000000;-0.306142
7621.000000;-0.305836
7620.000000;-0.305561
7619.000000;-0.305280
7618.000000;-0.304950
7617.000000;-0.304567
7616.000000;-0.304176
7615.000000;-0.303813
7614.000000;-0.303468
7613.000000;-0.303116
7612.000000;-0.302756
7611.000000;-0.302404
7610.000000;-0.302073
7609.000000;-0.301775
7608.000000;-0.301521
7607.000000;-0.301289
7606.000000;-0.301032
7605.000000;-0.300728
7604.000000;-0.300404
7603.000000;-0.300089
7602.000000;-0.299768
7601.000000;-0.299419
7600.000000;-0.299043
7599.000000;-0.298659
7598.000000;-0.298279
7597.000000;-0.297925
7596.000000;-0.297623
7595.000000;-0.297356
7594.000000;-0.297059
7593.000000;-0.296690
7592.000000;-0.296273
7591.000000;-0.295857
7590.000000;-0.295465
7589.000000;-0.295105
7588.000000;-0.294792
7587.000000;-0.294507
7586.000000;-0.294198
7585.000000;-0.293835
7584.000000;-0.293461
7583.000000;-0.293125
7582.000000;-0.292814
7581.000000;-0.292481
7580.000000;-0.292109
7579.000000;-0.291722
7578.000000;-0.291334
7577.000000;-0.290946
7576.000000;-0.290565
7575.000000;-0.290187
7574.000000;-0.289803
7573.000000;-0.289416
7572.000000;-0.289049
7571.000000;-0.288700
7570.000000;-0.288330
7569.000000;-0.287913
7568.000000;-0.287480
7567.000000;-0.287070
7566.000000;-0.286686
7565.000000;-0.286308
7564.000000;-0.285932
7563.000000;-0.285557
7562.000000;-0.285166
7561.000000;-0.284750
7560.000000;-0.284334
7559.000000;-0.283940
7558.000000;-0.283557
7557.000000;-0.283174
7556.000000;-0.282793
7555.000000;-0.282412
7554.000000;-0.282006
7553.000000;-0.281573
7552.000000;-0.281151
7551.000000;-0.280763
7550.000000;-0.280373
7549.000000;-0.279954
7548.000000;-0.279528
7547.000000;-0.279126
7546.000000;-0.278727
7545.000000;-0.278295
7544.000000;-0.277848
7543.000000;-0.277430
7542.000000;-0.277044
7541.000000;-0.276655
7540.000000;-0.276237
7539.000000;-0.275789
7538.000000;-0.275311
7537.000000;-0.274812
7536.000000;-0.274314
7535.000000;-0.273835
7534.000000;-0.273374
7533.000000;-0.272936
7532.000000;-0.272549
7531.000000;-0.272210
7530.000000;-0.271867
7529.000000;-0.271464
7528.000000;-0.271000
7527.000000;-0.270504
7526.000000;-0.269999
7525.000000;-0.269497
7524.000000;-0.269018
7523.000000;-0.268572
7522.000000;-0.268136
7521.000000;-0.267694
7520.000000;-0.267261
7519.000000;-0.266848
7518.000000;-0.266444
7517.000000;-0.266034
7516.000000;-0.265625
7515.000000;-0.265211
7514.000000;-0.264748
7513.000000;-0.264210
7512.000000;-0.263637
7511.000000;-0.263096
7510.000000;-0.262611
7509.000000;-0.262147
7508.000000;-0.261663
7507.000000;-0.261150
7506.000000;-0.260632
7505.000000;-0.260152
7504.000000;-0.259735
7503.000000;-0.259350
7502.000000;-0.258944
7501.000000;-0.258493
7500.000000;-0.258020
7499.000000;-0.257536
7498.000000;-0.257042
7497.000000;-0.256547
7496.000000;-0.256104
7495.000000;-0.255710
7494.000000;-0.255253
7493.000000;-0.254744
7492.000000;-0.254202
7491.000000;-0.253673
7490.000000;-0.253164
7489.000000;-0.252676
7488.000000;-0.252221
7487.000000;-0.251791
7486.000000;-0.251351
7485.000000;-0.250891
7484.000000;-0.250433
7483.000000;-0.249986
7482.000000;-0.249515
7481.000000;-0.248997
7480.000000;-0.248459
7479.000000;-0.247940
7478.000000;-0.247455
7477.000000;-0.246995
7476.000000;-0.246537
7475.000000;-0.246042
7474.000000;-0.245495
7473.000000;-0.244939
7472.000000;-0.244443
7471.000000;-0.244007
7470.000000;-0.243573
7469.000000;-0.243119
7468.000000;-0.242671
7467.000000;-0.242229
7466.000000;-0.241743
7465.000000;-0.241203
7464.000000;-0.240656
7463.000000;-0.240138
7462.000000;-0.239628
7461.000000;-0.239114
7460.000000;-0.238622
7459.000000;-0.238164
7458.000000;-0.237710
7457.000000;-0.237247
7456.000000;-0.236792
7455.000000;-0.236334
7454.000000;-0.235837
7453.000000;-0.235314
7452.000000;-0.234827
7451.000000;-0.234389
7450.000000;-0.233938
7449.000000;-0.233436
7448.000000;-0.232916
7447.000000;-0.232405
7446.000000;-0.231881
7445.000000;-0.231344
7444.000000;-0.230832
7443.000000;-0.230344
7442.000000;-0.229826
7441.000000;-0.229277
7440.000000;-0.228765
7439.000000;-0.228316
7438.000000;-0.227865
7437.000000;-0.227383
7436.000000;-0.226923
7435.000000;-0.226520
7434.000000;-0.226123
7433.000000;-0.225684
7432.000000;-0.225228
7431.000000;-0.224778
7430.000000;-0.224306
7429.000000;-0.223801
7428.000000;-0.223306
7427.000000;-0.222840
7426.000000;-0.222371
7425.000000;-0.221895
7424.000000;-0.221454
7423.000000;-0.221021
7422.000000;-0.220470
7421.000000;-0.219750
7420.000000;-0.218999
7419.000000;-0.218399
7418.000000;-0.217994
7417.000000;-0.217697
7416.000000;-0.217411
7415.000000;-0.217074
7414.000000;-0.216655
7413.000000;-0.216189
7412.000000;-0.215748
7411.000000;-0.215348
7410.000000;-0.214929
7409.000000;-0.214449
7408.000000;-0.213911
7407.000000;-0.213302
7406.000000;-0.212614
7405.000000;-0.211958
7404.000000;-0.211524
7403.000000;-0.211341
7402.000000;-0.211188
7401.000000;-0.210826
7400.000000;-0.210202
7399.000000;-0.209421
7398.000000;-0.208665
7397.000000;-0.208119
7396.000000;-0.207812
7395.000000;-0.207551
7394.000000;-0.207165
7393.000000;-0.206752
7392.000000;-0.206508
7391.000000;-0.206352
7390.000000;-0.205990
7389.000000;-0.205376
7388.000000;-0.204784
7387.000000;-0.204355
7386.000000;-0.203910
7385.000000;-0.203272
7384.000000;-0.202469
7383.000000;-0.201535
7382.000000;-0.200437
7381.000000;-0.199422
7380.000000;-0.199032
7379.000000;-0.199393
7378.000000;-0.199758
7377.000000;-0.199185
7376.000000;-0.197616
7375.000000;-0.196030
7374.000000;-0.195491
7373.000000;-0.196149
7372.000000;-0.197154
7371.000000;-0.197347
7370.000000;-0.196204
7369.000000;-0.194343
7368.000000;-0.192989
7367.000000;-0.192790
7366.000000;-0.193346
7365.000000;-0.193830
7364.000000;-0.193754
7363.000000;-0.193078
7362.000000;-0.191978
7361.000000;-0.190852
7360.000000;-0.190281
7359.000000;-0.190414
7358.000000;-0.190531
7357.000000;-0.189706
7356.000000;-0.187938
7355.000000;-0.186234
7354.000000;-0.185601
7353.000000;-0.186143
7352.000000;-0.187101
7351.000000;-0.187423
7350.000000;-0.186435
7349.000000;-0.184428
7348.000000;-0.182609
7347.000000;-0.182028
7346.000000;-0.182477
7345.000000;-0.182809
7344.000000;-0.182216
7343.000000;-0.180771
7342.000000;-0.178857
7341.000000;-0.176774
7340.000000;-0.175076
7339.000000;-0.174600
7338.000000;-0.175605
7337.000000;-0.177224
7336.000000;-0.178192
7335.000000;-0.177946
7334.000000;-0.176842
7333.000000;-0.175589
7332.000000;-0.174742
7331.000000;-0.174320
7330.000000;-0.173630
7329.000000;-0.171933
7328.000000;-0.169620
7327.000000;-0.168223
7326.000000;-0.168661
7325.000000;-0.169984
7324.000000;-0.170465
7323.000000;-0.169522
7322.000000;-0.168051
7321.000000;-0.167078
7320.000000;-0.166690
7319.000000;-0.166305
7318.000000;-0.165441
7317.000000;-0.164125
7316.000000;-0.162842
7315.000000;-0.162119
7314.000000;-0.161824
7313.000000;-0.161088
7312.000000;-0.159443
7311.000000;-0.157694
7310.000000;-0.156942
7309.000000;-0.156979
7308.000000;-0.156492
7307.000000;-0.154926
7306.000000;-0.153312
7305.000000;-0.152904
7304.000000;-0.153659
7303.000000;-0.154400
7302.000000;-0.154009
7301.000000;-0.152220
7300.000000;-0.149659
7299.000000;-0.147545
7298.000000;-0.146852
7297.000000;-0.147251
7296.000000;-0.147167
7295.000000;-0.145391
7294.000000;-0.142524
7293.000000;-0.140360
7292.000000;-0.139866
7291.000000;-0.140230
7290.000000;-0.139869
7289.000000;-0.138023
7288.000000;-0.135354
7287.000000;-0.133190
7286.000000;-0.132284
7285.000000;-0.132224
7284.000000;-0.132015
7283.000000;-0.131080
7282.000000;-0.129638
7281.000000;-0.128215
7280.000000;-0.127000
7279.000000;-0.125829
7278.000000;-0.124566
7277.000000;-0.123162
7276.000000;-0.121546
7275.000000;-0.119699
7274.000000;-0.117771
7273.000000;-0.116012
7272.000000;-0.114563
7271.000000;-0.113344
7270.000000;-0.112097
7269.000000;-0.110553
7268.000000;-0.108656
7267.000000;-0.106681
7266.000000;-0.104945
7265.000000;-0.103359
7264.000000;-0.101470
7263.000000;-0.099088
7262.000000;-0.096645
7261.000000;-0.094776
7260.000000;-0.093614
7259.000000;-0.092684
7258.000000;-0.091413
7257.000000;-0.089547
7256.000000;-0.087120
7255.000000;-0.084281
7254.000000;-0.081287
7253.000000;-0.078580
7252.000000;-0.076562
7251.000000;-0.075238
7250.000000;-0.074146
7249.000000;-0.072661
7248.000000;-0.070499
7247.000000;-0.067906
7246.000000;-0.065119
7245.000000;-0.061836
7244.000000;-0.057630
7243.000000;-0.052955
7242.000000;-0.049295
7241.000000;-0.047791
7240.000000;-0.047869
7239.000000;-0.047683
7238.000000;-0.045890
7237.000000;-0.042678
7236.000000;-0.039032
7235.000000;-0.035339
7234.000000;-0.031164
7233.000000;-0.026377
7232.000000;-0.021962
7231.000000;-0.019328
7230.000000;-0.018751
7229.000000;-0.018677
7228.000000;-0.017005
7227.000000;-0.013086
7226.000000;-0.008230
7225.000000;-0.004282
7224.000000;-0.001857
7223.000000;-0.000019
7222.000000;0.002577
7221.000000;0.006460
7220.000000;0.010994
7219.000000;0.015012
7218.000000;0.017899
7217.000000;0.020143
7216.000000;0.022787
7215.000000;0.026392
7214.000000;0.030616
7213.000000;0.034776
7212.000000;0.038562
7211.000000;0.042097
7210.000000;0.045580
7209.000000;0.049215
7208.000000;0.053301
7207.000000;0.058067
7206.000000;0.063409
7205.000000;0.068847
7204.000000;0.073745
7203.000000;0.077679
7202.000000;0.080774
7201.000000;0.083734
7200.000000;0.087320
7199.000000;0.091720
7198.000000;0.096535
7197.000000;0.101386
7196.000000;0.106260
7195.000000;0.111190
7194.000000;0.115939
7193.000000;0.120312
7192.000000;0.124544
7191.000000;0.129053
7190.000000;0.133941
7189.000000;0.138996
7188.000000;0.144046
7187.000000;0.149061
7186.000000;0.153989
7185.000000;0.158831
7184.000000;0.163931
7183.000000;0.169765
7182.000000;0.176237
7181.000000;0.182468
7180.000000;0.187554
7179.000000;0.191501
7178.000000;0.195277
7177.000000;0.199961
7176.000000;0.205840
7175.000000;0.212276
7174.000000;0.218355
7173.000000;0.223683
7172.000000;0.228687
7171.000000;0.234161
7170.000000;0.240500
7169.000000;0.247321
7168.000000;0.253818
7167.000000;0.259485
7166.000000;0.264409
7165.000000;0.269003
7164.000000;0.273780
7163.000000;0.279277
7162.000000;0.285764
7161.000000;0.292792
7160.000000;0.299261
7159.000000;0.304411
7158.000000;0.308708
7157.000000;0.313408
7156.000000;0.319233
7155.000000;0.325766
7154.000000;0.332163
7153.000000;0.338050
7152.000000;0.343608
7151.000000;0.349117
7150.000000;0.354648
7149.000000;0.360157
7148.000000;0.365719
7147.000000;0.371553
7146.000000;0.377807
7145.000000;0.384295
7144.000000;0.390499
7143.000000;0.396049
7142.000000;0.401278
7141.000000;0.407018
7140.000000;0.413614
7139.000000;0.420354
7138.000000;0.426178
7137.000000;0.430904
7136.000000;0.435408
7135.000000;0.440566
7134.000000;0.446383
7133.000000;0.452234
7132.000000;0.457700
7131.000000;0.462915
7130.000000;0.468204
7129.000000;0.473689
7128.000000;0.479265
7127.000000;0.484737
7126.000000;0.489957
7125.000000;0.494961
7124.000000;0.499943
7123.000000;0.505039
7122.000000;0.510151
7121.000000;0.515172
7120.000000;0.520356
7119.000000;0.526152
7118.000000;0.532514
7117.000000;0.538563
7116.000000;0.543303
7115.000000;0.546736
7114.000000;0.549991
7113.000000;0.554232
7112.000000;0.559593
7111.000000;0.565279
7110.000000;0.570528
7109.000000;0.575256
7108.000000;0.579839
7107.000000;0.584592
7106.000000;0.589499
7105.000000;0.594239
7104.000000;0.598481
7103.000000;0.602242
7102.000000;0.605894
7101.000000;0.609790
7100.000000;0.613896
7099.000000;0.617885
7098.000000;0.621658
7097.000000;0.625532
7096.000000;0.629829
7095.000000;0.634411
7094.000000;0.638760
7093.000000;0.642489
7092.000000;0.645713
7091.000000;0.648920
7090.000000;0.652520
7089.000000;0.656493
7088.000000;0.660431
7087.000000;0.663960
7086.000000;0.667097
7085.000000;0.670153
7084.000000;0.673356
7083.000000;0.676684
7082.000000;0.680047
7081.000000;0.683463
7080.000000;0.686948
7079.000000;0.690348
7078.000000;0.693457
7077.000000;0.696262
7076.000000;0.698927
7075.000000;0.701623
7074.000000;0.704453
7073.000000;0.707444
7072.000000;0.710497
7071.000000;0.713398
7070.000000;0.716017
7069.000000;0.718465
7068.000000;0.720946
7067.000000;0.723511
7066.000000;0.726071
7065.000000;0.728566
7064.000000;0.731006
7063.000000;0.733392
7062.000000;0.735696
7061.000000;0.737914
7060.000000;0.740042
7059.000000;0.742016
7058.000000;0.743798
7057.000000;0.745512
7056.000000;0.747351
7055.000000;0.749399
7054.000000;0.751626
7053.000000;0.753957
7052.000000;0.756248
7051.000000;0.758340
7050.000000;0.760256
7049.000000;0.762254
7048.000000;0.764495
7047.000000;0.766747
7046.000000;0.768629
7045.000000;0.770090
7044.000000;0.771430
7043.000000;0.772892
7042.000000;0.774461
7041.000000;0.776052
7040.000000;0.777654
7039.000000;0.779209
7038.000000;0.780583
7037.000000;0.781751
7036.000000;0.782869
7035.000000;0.784092
7034.000000;0.785470
7033.000000;0.787017
7032.000000;0.788732
7031.000000;0.790486
7030.000000;0.792044
7029.000000;0.793303
7028.000000;0.794405
7027.000000;0.795531
7026.000000;0.796698
7025.000000;0.797808
7024.000000;0.798825
7023.000000;0.799819
7022.000000;0.800880
7021.000000;0.802042
7020.000000;0.803238
7019.000000;0.804342
7018.000000;0.805310
7017.000000;0.806248
7016.000000;0.807276
7015.000000;0.808331
7014.000000;0.809215
7013.000000;0.809848
7012.000000;0.810391
7011.000000;0.811084
7010.000000;0.812032
7009.000000;0.813146
7008.000000;0.814224
7007.000000;0.815105
7006.000000;0.815809
7005.000000;0.816525
7004.000000;0.817392
7003.000000;0.818330
7002.000000;0.819188
7001.000000;0.819966
7000.000000;0.820746
6999.000000;0.821444
6998.000000;0.821846
6997.000000;0.821963
6996.000000;0.822156
6995.000000;0.822768
6994.000000;0.823723
6993.000000;0.824617
6992.000000;0.825152
6991.000000;0.825409
6990.000000;0.825697
6989.000000;0.826242
6988.000000;0.827031
6987.000000;0.827906
6986.000000;0.828724
6985.000000;0.829416
6984.000000;0.829948
6983.000000;0.830270
6982.000000;0.830323
6981.000000;0.830106
6980.000000;0.829758
6979.000000;0.829544
6978.000000;0.829680
6977.000000;0.830104
6976.000000;0.830501
6975.000000;0.830657
6974.000000;0.830728
6973.000000;0.831014
6972.000000;0.831514
6971.000000;0.831895
6970.000000;0.831951
6969.000000;0.831850
6968.000000;0.831831
6967.000000;0.831886
6966.000000;0.831882
6965.000000;0.831852
6964.000000;0.831946
6963.000000;0.832186
6962.000000;0.832430
6961.000000;0.832551
6960.000000;0.832528
6959.000000;0.832414
6958.000000;0.832356
6957.000000;0.832545
6956.000000;0.832994
6955.000000;0.833430
6954.000000;0.833573
6953.000000;0.833458
6952.000000;0.833357
6951.000000;0.833429
6950.000000;0.833634
6949.000000;0.833904
6948.000000;0.834167
6947.000000;0.834239
6946.000000;0.833947
6945.000000;0.833411
6944.000000;0.832981
6943.000000;0.832820
6942.000000;0.832723
6941.000000;0.832460
6940.000000;0.832113
6939.000000;0.831929
6938.000000;0.831955
6937.000000;0.831965
6936.000000;0.831720
6935.000000;0.831187
6934.000000;0.830538
6933.000000;0.830035
6932.000000;0.829891
6931.000000;0.830123
6930.000000;0.830489
6929.000000;0.830620
6928.000000;0.830270
6927.000000;0.829484
6926.000000;0.828525
6925.000000;0.827649
6924.000000;0.826946
6923.000000;0.826401
6922.000000;0.826033
6921.000000;0.825905
6920.000000;0.826036
6919.000000;0.826349
6918.000000;0.826724
6917.000000;0.827016
6916.000000;0.827023
6915.000000;0.826569
6914.000000;0.825719
6913.000000;0.824836
6912.000000;0.824282
6911.000000;0.824078
6910.000000;0.823897
6909.000000;0.823399
6908.000000;0.822530
6907.000000;0.821531
6906.000000;0.820725
6905.000000;0.820292
6904.000000;0.820192
6903.000000;0.820248
6902.000000;0.820291
6901.000000;0.820201
6900.000000;0.819905
6899.000000;0.819408
6898.000000;0.818827
6897.000000;0.818339
6896.000000;0.818067
6895.000000;0.818039
6894.000000;0.818191
6893.000000;0.818341
6892.000000;0.818234
6891.000000;0.817732
6890.000000;0.816983
6889.000000;0.816267
6888.000000;0.815700
6887.000000;0.815214
6886.000000;0.814797
6885.000000;0.814537
6884.000000;0.814374
6883.000000;0.814051
6882.000000;0.813438
6881.000000;0.812746
6880.000000;0.812266
6879.000000;0.811996
6878.000000;0.811696
6877.000000;0.811222
6876.000000;0.810667
6875.000000;0.810203
6874.000000;0.809916
6873.000000;0.809737
6872.000000;0.809416
6871.000000;0.808659
6870.000000;0.807453
6869.000000;0.806223
6868.000000;0.805472
6867.000000;0.805255
6866.000000;0.805164
6865.000000;0.804824
6864.000000;0.804263
6863.000000;0.803740
6862.000000;0.803377
6861.000000;0.803054
6860.000000;0.802595
6859.000000;0.801919
6858.000000;0.801067
6857.000000;0.800144
6856.000000;0.799238
6855.000000;0.798358
6854.000000;0.797482
6853.000000;0.796629
6852.000000;0.795849
6851.000000;0.795124
6850.000000;0.794362
6849.000000;0.793518
6848.000000;0.792648
6847.000000;0.791796
6846.000000;0.790889
6845.000000;0.789813
6844.000000;0.788582
6843.000000;0.787380
6842.000000;0.786396
6841.000000;0.785645
6840.000000;0.784950
6839.000000;0.784097
6838.000000;0.783006
6837.000000;0.781780
6836.000000;0.780595
6835.000000;0.779547
6834.000000;0.778578
6833.000000;0.777533
6832.000000;0.776295
6831.000000;0.774884
6830.000000;0.773427
6829.000000;0.772008
6828.000000;0.770570
6827.000000;0.768999
6826.000000;0.767297
6825.000000;0.765618
6824.000000;0.764138
6823.000000;0.762927
6822.000000;0.761919
6821.000000;0.760938
6820.000000;0.759726
6819.000000;0.758070
6818.000000;0.755975
6817.000000;0.753713
6816.000000;0.751628
6815.000000;0.749874
6814.000000;0.748365
6813.000000;0.746914
6812.000000;0.745400
6811.000000;0.743792
6810.000000;0.742091
6809.000000;0.740283
6808.000000;0.738389
6807.000000;0.736531
6806.000000;0.734867
6805.000000;0.733404
6804.000000;0.731924
6803.000000;0.730172
6802.000000;0.728120
6801.000000;0.725985
6800.000000;0.723970
6799.000000;0.722072
6798.000000;0.720175
6797.000000;0.718218
6796.000000;0.716248
6795.000000;0.714366
6794.000000;0.712647
6793.000000;0.711069
6792.000000;0.709471
6791.000000;0.707639
6790.000000;0.705497
6789.000000;0.703181
6788.000000;0.700893
6787.000000;0.698727
6786.000000;0.696650
6785.000000;0.694609
6784.000000;0.692579
6783.000000;0.690553
6782.000000;0.688514
6781.000000;0.686420
6780.000000;0.684215
6779.000000;0.681904
6778.000000;0.679614
6777.000000;0.677517
6776.000000;0.675622
6775.000000;0.673725
6774.000000;0.671618
6773.000000;0.669315
6772.000000;0.667011
6771.000000;0.664839
6770.000000;0.662756
6769.000000;0.660640
6768.000000;0.658461
6767.000000;0.656295
6766.000000;0.654214
6765.000000;0.652185
6764.000000;0.650096
6763.000000;0.647872
6762.000000;0.645546
6761.000000;0.643210
6760.000000;0.640922
6759.000000;0.638692
6758.000000;0.636541
6757.000000;0.634490
6756.000000;0.632485
6755.000000;0.630394
6754.000000;0.628120
6753.000000;0.625704
6752.000000;0.623299
6751.000000;0.621046
6750.000000;0.618975
6749.000000;0.616981
6748.000000;0.614892
6747.000000;0.612604
6746.000000;0.610181
6745.000000;0.607820
6744.000000;0.605673
6743.000000;0.603723
6742.000000;0.601799
6741.000000;0.599730
6740.000000;0.597489
6739.000000;0.595199
6738.000000;0.592988
6737.000000;0.590826
6736.000000;0.588532
6735.000000;0.585998
6734.000000;0.583349
6733.000000;0.580824
6732.000000;0.578535
6731.000000;0.576412
6730.000000;0.574365
6729.000000;0.572380
6728.000000;0.570427
6727.000000;0.568405
6726.000000;0.566235
6725.000000;0.563963
6724.000000;0.561696
6723.000000;0.559477
6722.000000;0.557282
6721.000000;0.555088
6720.000000;0.552894
6719.000000;0.550700
6718.000000;0.548513
6717.000000;0.546353
6716.000000;0.544217
6715.000000;0.542062
6714.000000;0.539867
6713.000000;0.537667
6712.000000;0.535503
6711.000000;0.533316
6710.000000;0.531045
6709.000000;0.528714
6708.000000;0.526406
6707.000000;0.524183
6706.000000;0.522021
6705.000000;0.519848
6704.000000;0.517685
6703.000000;0.515541
6702.000000;0.513463
6701.000000;0.511338
6700.000000;0.509039
6699.000000;0.506707
6698.000000;0.504472
6697.000000;0.502452
6696.000000;0.500565
6695.000000;0.498651
6694.000000;0.496628
6693.000000;0.494556
6692.000000;0.492511
6691.000000;0.490460
6690.000000;0.488307
6689.000000;0.486018
6688.000000;0.483693
6687.000000;0.481482
6686.000000;0.479448
6685.000000;0.477501
6684.000000;0.475472
6683.000000;0.473259
6682.000000;0.470920
6681.000000;0.468604
6680.000000;0.466411
6679.000000;0.464339
6678.000000;0.462335
6677.000000;0.460353
6676.000000;0.458350
6675.000000;0.456283
6674.000000;0.454136
6673.000000;0.451936
6672.000000;0.449726
6671.000000;0.447536
6670.000000;0.445384
6669.000000;0.443291
6668.000000;0.441268
6667.000000;0.439308
6666.000000;0.437379
6665.000000;0.435444
6664.000000;0.433478
6663.000000;0.431480
6662.000000;0.429473
6661.000000;0.427476
6660.000000;0.425482
6659.000000;0.423482
6658.000000;0.421487
6657.000000;0.419503
6656.000000;0.417505
6655.000000;0.415473
6654.000000;0.413436
6653.000000;0.411447
6652.000000;0.409519
6651.000000;0.407626
6650.000000;0.405757
6649.000000;0.403909
6648.000000;0.402040
6647.000000;0.400087
6646.000000;0.398053
6645.000000;0.396022
6644.000000;0.394045
6643.000000;0.392085
6642.000000;0.390099
6641.000000;0.388127
6640.000000;0.386241
6639.000000;0.384418
6638.000000;0.382551
6637.000000;0.380579
6636.000000;0.378559
6635.000000;0.376603
6634.000000;0.374763
6633.000000;0.372990
6632.000000;0.371191
6631.000000;0.369317
6630.000000;0.367393
6629.000000;0.365483
6628.000000;0.363621
6627.000000;0.361790
6626.000000;0.359956
6625.000000;0.358109
6624.000000;0.356259
6623.000000;0.354407
6622.000000;0.352545
6621.000000;0.350667
6620.000000;0.348782
6619.000000;0.346911
6618.000000;0.345074
6617.000000;0.343274
6616.000000;0.341499
6615.000000;0.339744
6614.000000;0.338012
6613.000000;0.336289
6612.000000;0.334531
6611.000000;0.332716
6610.000000;0.330889
6609.000000;0.329125
6608.000000;0.327434
6607.000000;0.325762
6606.000000;0.324076
6605.000000;0.322393
6604.000000;0.320726
6603.000000;0.319035
6602.000000;0.317283
6601.000000;0.315504
6600.000000;0.313763
6599.000000;0.312085
6598.000000;0.310435
6597.000000;0.308768
6596.000000;0.307060
6595.000000;0.305310
6594.000000;0.303552
6593.000000;0.301840
6592.000000;0.300197
6591.000000;0.298578
6590.000000;0.296920
6589.000000;0.295216
6588.000000;0.293521
6587.000000;0.291873
6586.000000;0.290256
6585.000000;0.288639
6584.000000;0.287026
6583.000000;0.285445
6582.000000;0.283900
6581.000000;0.282364
6580.000000;0.280802
6579.000000;0.279209
6578.000000;0.277598
6577.000000;0.275990
6576.000000;0.274388
6575.000000;0.272793
6574.000000;0.271217
6573.000000;0.269679
6572.000000;0.268179
6571.000000;0.266694
6570.000000;0.265193
6569.000000;0.263655
6568.000000;0.262079
6567.000000;0.260481
6566.000000;0.258898
6565.000000;0.257357
6564.000000;0.255847
6563.000000;0.254333
6562.000000;0.252803
6561.000000;0.251281
6560.000000;0.249783
6559.000000;0.248291
6558.000000;0.246786
6557.000000;0.245289
6556.000000;0.243832
6555.000000;0.242407
6554.000000;0.240974
6553.000000;0.239515
6552.000000;0.238063
6551.000000;0.236655
6550.000000;0.235289
6549.000000;0.233929
6548.000000;0.232539
6547.000000;0.231099
6546.000000;0.229607
6545.000000;0.228091
6544.000000;0.226599
6543.000000;0.225176
6542.000000;0.223832
6541.000000;0.222534
6540.000000;0.221229
6539.000000;0.219883
6538.000000;0.218498
6537.000000;0.217109
6536.000000;0.215742
6535.000000;0.214384
6534.000000;0.212989
6533.000000;0.211525
6532.000000;0.210024
6531.000000;0.208567
6530.000000;0.207213
6529.000000;0.205936
6528.000000;0.204658
6527.000000;0.203337
6526.000000;0.202001
6525.000000;0.200708
6524.000000;0.199473
6523.000000;0.198261
6522.000000;0.197030
6521.000000;0.195760
6520.000000;0.194456
6519.000000;0.193144
6518.000000;0.191863
6517.000000;0.190635
6516.000000;0.189442
6515.000000;0.188234
6514.000000;0.186973
6513.000000;0.185669
6512.000000;0.184363
6511.000000;0.183091
6510.000000;0.181857
6509.000000;0.180641
6508.000000;0.179417
6507.000000;0.178177
6506.000000;0.176932
6505.000000;0.175697
6504.000000;0.174471
6503.000000;0.173243
6502.000000;0.172020
6501.000000;0.170827
6500.000000;0.169683
6499.000000;0.168578
6498.000000;0.167477
6497.000000;0.166349
6496.000000;0.165195
6495.000000;0.164045
6494.000000;0.162924
6493.000000;0.161810
6492.000000;0.160655
6491.000000;0.159438
6490.000000;0.158202
6489.000000;0.157011
6488.000000;0.155882
6487.000000;0.154768
6486.000000;0.153625
6485.000000;0.152455
6484.000000;0.151298
6483.000000;0.150181
6482.000000;0.149089
6481.000000;0.147980
6480.000000;0.146832
6479.000000;0.145670
6478.000000;0.144550
6477.000000;0.143498
6476.000000;0.142475
6475.000000;0.141422
6474.000000;0.140330
6473.000000;0.139245
6472.000000;0.138208
6471.000000;0.137207
6470.000000;0.136204
6469.000000;0.135182
6468.000000;0.134151
6467.000000;0.133123
6466.000000;0.132091
6465.000000;0.131045
6464.000000;0.129989
6463.000000;0.128944
6462.000000;0.127921
6461.000000;0.126908
6460.000000;0.125885
6459.000000;0.124853
6458.000000;0.123830
6457.000000;0.122817
6456.000000;0.121792
6455.000000;0.120749
6454.000000;0.119731
6453.000000;0.118787
6452.000000;0.117902
6451.000000;0.117002
6450.000000;0.116036
6449.000000;0.115028
6448.000000;0.114033
6447.000000;0.113067
6446.000000;0.112100
6445.000000;0.111104
6444.000000;0.110094
6443.000000;0.109108
6442.000000;0.108173
6441.000000;0.107283
6440.000000;0.106413
6439.000000;0.105543
6438.000000;0.104663
6437.000000;0.103770
6436.000000;0.102861
6435.000000;0.101931
6434.000000;0.100992
6433.000000;0.100063
6432.000000;0.099157
6431.000000;0.098269
6430.000000;0.097392
6429.000000;0.096519
6428.000000;0.095650
6427.000000;0.094791
6426.000000;0.093947
6425.000000;0.093108
6424.000000;0.092260
6423.000000;0.091398
6422.000000;0.090538
6421.000000;0.089699
6420.000000;0.088874
6419.000000;0.088042
6418.000000;0.087198
6417.000000;0.086353
6416.000000;0.085511
6415.000000;0.084663
6414.000000;0.083813
6413.000000;0.082982
6412.000000;0.082180
6411.000000;0.081387
6410.000000;0.080572
6409.000000;0.079724
6408.000000;0.078868
6407.000000;0.078040
6406.000000;0.077258
6405.000000;0.076508
6404.000000;0.075770
6403.000000;0.075038
6402.000000;0.074320
6401.000000;0.073613
6400.000000;0.072886
6399.000000;0.072116
6398.000000;0.071315
6397.000000;0.070520
6396.000000;0.069747
6395.000000;0.068991
6394.000000;0.068252
6393.000000;0.067538
6392.000000;0.066833
6391.000000;0.066100
6390.000000;0.065329
6389.000000;0.064553
6388.000000;0.063809
6387.000000;0.063089
6386.000000;0.062357
6385.000000;0.061599
6384.000000;0.060849
6383.000000;0.060148
6382.000000;0.059504
6381.000000;0.058879
6380.000000;0.058223
6379.000000;0.057516
6378.000000;0.056780
6377.000000;0.056050
6376.000000;0.055335
6375.000000;0.054630
6374.000000;0.053935
6373.000000;0.053261
6372.000000;0.052601
6371.000000;0.051936
6370.000000;0.051263
6369.000000;0.050601
6368.000000;0.049960
6367.000000;0.049321
6366.000000;0.048664
6365.000000;0.047991
6364.000000;0.047313
6363.000000;0.046634
6362.000000;0.045957
6361.000000;0.045292
6360.000000;0.044644
6359.000000;0.044007
6358.000000;0.043375
6357.000000;0.042749
6356.000000;0.042127
6355.000000;0.041495
6354.000000;0.040852
6353.000000;0.040222
6352.000000;0.039619
6351.000000;0.039031
6350.000000;0.038439
6349.000000;0.037853
6348.000000;0.037294
6347.000000;0.036758
6346.000000;0.036221
6345.000000;0.035677
6344.000000;0.035142
6343.000000;0.034624
6342.000000;0.034100
6341.000000;0.033542
6340.000000;0.032945
6339.000000;0.032328
6338.000000;0.031723
6337.000000;0.031148
6336.000000;0.030595
6335.000000;0.030036
6334.000000;0.029454
6333.000000;0.028865
6332.000000;0.028303
6331.000000;0.027778
6330.000000;0.027272
6329.000000;0.026769
6328.000000;0.026264
6327.000000;0.025758
6326.000000;0.025245
6325.000000;0.024725
6324.000000;0.024198
6323.000000;0.023666
6322.000000;0.023129
6321.000000;0.022594
6320.000000;0.022067
6319.000000;0.021540
6318.000000;0.021008
6317.000000;0.020489
6316.000000;0.020001
6315.000000;0.019540
6314.000000;0.019070
6313.000000;0.018567
6312.000000;0.018038
6311.000000;0.017508
6310.000000;0.016989
6309.000000;0.016484
6308.000000;0.015992
6307.000000;0.015506
6306.000000;0.015015
6305.000000;0.014515
6304.000000;0.014016
6303.000000;0.013527
6302.000000;0.013049
6301.000000;0.012580
6300.000000;0.012124
6299.000000;0.011680
6298.000000;0.011226
6297.000000;0.010750
6296.000000;0.010266
6295.000000;0.009810
6294.000000;0.009402
6293.000000;0.009029
6292.000000;0.008663
6291.000000;0.008274
6290.000000;0.007843
6289.000000;0.007368
6288.000000;0.006866
6287.000000;0.006367
6286.000000;0.005893
6285.000000;0.005454
6284.000000;0.005051
6283.000000;0.004678
6282.000000;0.004321
6281.000000;0.003959
6280.000000;0.003578
6279.000000;0.003176
6278.000000;0.002762
6277.000000;0.002350
6276.000000;0.001949
6275.000000;0.001561
6274.000000;0.001173
6273.000000;0.000765
6272.000000;0.000329
6271.000000;-0.000115
6270.000000;-0.000538
6269.000000;-0.000925
6268.000000;-0.001284
6267.000000;-0.001632
6266.000000;-0.001988
6265.000000;-0.002367
6264.000000;-0.002774
6263.000000;-0.003193
6262.000000;-0.003598
6261.000000;-0.003969
6260.000000;-0.004319
6259.000000;-0.004675
6258.000000;-0.005050
6257.000000;-0.005438
6256.000000;-0.005824
6255.000000;-0.006196
6254.000000;-0.006544
6253.000000;-0.006858
6252.000000;-0.007146
6251.000000;-0.007438
6250.000000;-0.007763
6249.000000;-0.008124
6248.000000;-0.008499
6247.000000;-0.008866
6246.000000;-0.009222
6245.000000;-0.009583
6244.000000;-0.009963
6243.000000;-0.010359
6242.000000;-0.010749
6241.000000;-0.011106
6240.000000;-0.011421
6239.000000;-0.011710
6238.000000;-0.012007
6237.000000;-0.012330
6236.000000;-0.012677
6235.000000;-0.013027
6234.000000;-0.013364
6233.000000;-0.013687
6232.000000;-0.014001
6231.000000;-0.014320
6230.000000;-0.014654
6229.000000;-0.015003
6228.000000;-0.015354
6227.000000;-0.015685
6226.000000;-0.015982
6225.000000;-0.016255
6224.000000;-0.016530
6223.000000;-0.016819
6222.000000;-0.017112
6221.000000;-0.017389
6220.000000;-0.017645
6219.000000;-0.017892
6218.000000;-0.018146
6217.000000;-0.018405
6216.000000;-0.018665
6215.000000;-0.018928
6214.000000;-0.019203
6213.000000;-0.019488
6212.000000;-0.019774
6211.000000;-0.020057
6210.000000;-0.020341
6209.000000;-0.020634
6208.000000;-0.020931
6207.000000;-0.021221
6206.000000;-0.021499
6205.000000;-0.021778
6204.000000;-0.022080
6203.000000;-0.022409
6202.000000;-0.022742
6201.000000;-0.023049
6200.000000;-0.023316
6199.000000;-0.023564
6198.000000;-0.023820
6197.000000;-0.024096
6196.000000;-0.024377
6195.000000;-0.024641
6194.000000;-0.024874
6193.000000;-0.025080
6192.000000;-0.025281
6191.000000;-0.025511
6190.000000;-0.025788
6189.000000;-0.026096
6188.000000;-0.026402
6187.000000;-0.026677
6186.000000;-0.026919
6185.000000;-0.027137
6184.000000;-0.027344
6183.000000;-0.027553
6182.000000;-0.027769
6181.000000;-0.027982
6180.000000;-0.028182
6179.000000;-0.028377
6178.000000;-0.028590
6177.000000;-0.028837
6176.000000;-0.029118
6175.000000;-0.029420
6174.000000;-0.029728
6173.000000;-0.030021
6172.000000;-0.030273
6171.000000;-0.030477
6170.000000;-0.030647
6169.000000;-0.030808
6168.000000;-0.030977
6167.000000;-0.031160
6166.000000;-0.031364
6165.000000;-0.031593
6164.000000;-0.031842
6163.000000;-0.032099
6162.000000;-0.032350
6161.000000;-0.032586
6160.000000;-0.032804
6159.000000;-0.033007
6158.000000;-0.033204
6157.000000;-0.033405
6156.000000;-0.033614
6155.000000;-0.033827
6154.000000;-0.034035
6153.000000;-0.034222
6152.000000;-0.034380
6151.000000;-0.034526
6150.000000;-0.034695
6149.000000;-0.034913
6148.000000;-0.035175
6147.000000;-0.035451
6146.000000;-0.035716
6145.000000;-0.035955
6144.000000;-0.036160
6143.000000;-0.036323
6142.000000;-0.036448
6141.000000;-0.036554
6140.000000;-0.036667
6139.000000;-0.036805
6138.000000;-0.036972
6137.000000;-0.037157
6136.000000;-0.037338
6135.000000;-0.037507
6134.000000;-0.037680
6133.000000;-0.037882
6132.000000;-0.038114
6131.000000;-0.038343
6130.000000;-0.038540
6129.000000;-0.038707
6128.000000;-0.038867
6127.000000;-0.039035
6126.000000;-0.039206
6125.000000;-0.039369
6124.000000;-0.039525
6123.000000;-0.039686
6122.000000;-0.039856
6121.000000;-0.040026
6120.000000;-0.040184
6119.000000;-0.040334
6118.000000;-0.040492
6117.000000;-0.040665
6116.000000;-0.040839
6115.000000;-0.040995
6114.000000;-0.041128
6113.000000;-0.041256
6112.000000;-0.041395
6111.000000;-0.041544
6110.000000;-0.041697
6109.000000;-0.041849
6108.000000;-0.042009
6107.000000;-0.042181
6106.000000;-0.042359
6105.000000;-0.042527
6104.000000;-0.042672
6103.000000;-0.042795
6102.000000;-0.042908
6101.000000;-0.043020
6100.000000;-0.043129
6099.000000;-0.043231
6098.000000;-0.043333
6097.000000;-0.043446
6096.000000;-0.043581
6095.000000;-0.043739
6094.000000;-0.043911
6093.000000;-0.044079
6092.000000;-0.044219
6091.000000;-0.044323
6090.000000;-0.044403
6089.000000;-0.044480
6088.000000;-0.044572
6087.000000;-0.044682
6086.000000;-0.044808
6085.000000;-0.044952
6084.000000;-0.045115
6083.000000;-0.045287
6082.000000;-0.045442
6081.000000;-0.045551
6080.000000;-0.045602
6079.000000;-0.045625
6078.000000;-0.045675
6077.000000;-0.045787
6076.000000;-0.045945
6075.000000;-0.046104
6074.000000;-0.046240
6073.000000;-0.046358
6072.000000;-0.046469
6071.000000;-0.046571
6070.000000;-0.046660
6069.000000;-0.046745
6068.000000;-0.046843
6067.000000;-0.046957
6066.000000;-0.047077
6065.000000;-0.047200
6064.000000;-0.047324
6063.000000;-0.047441
6062.000000;-0.047542
6061.000000;-0.047626
6060.000000;-0.047698
6059.000000;-0.047768
6058.000000;-0.047839
6057.000000;-0.047911
6056.000000;-0.047989
6055.000000;-0.048077
6054.000000;-0.048185
6053.000000;-0.048308
6052.000000;-0.048423
6051.000000;-0.048504
6050.000000;-0.048549
6049.000000;-0.048583
6048.000000;-0.048627
6047.000000;-0.048681
6046.000000;-0.048742
6045.000000;-0.048822
6044.000000;-0.048931
6043.000000;-0.049050
6042.000000;-0.049144
6041.000000;-0.049201
6040.000000;-0.049247
6039.000000;-0.049314
6038.000000;-0.049406
6037.000000;-0.049495
6036.000000;-0.049554
6035.000000;-0.049578
6034.000000;-0.049583
6033.000000;-0.049597
6032.000000;-0.049631
6031.000000;-0.049679
6030.000000;-0.049729
6029.000000;-0.049780
6028.000000;-0.049841
6027.000000;-0.049912
6026.000000;-0.049984
6025.000000;-0.050044
6024.000000;-0.050094
6023.000000;-0.050145
6022.000000;-0.050202
6021.000000;-0.050261
6020.000000;-0.050316
6019.000000;-0.050365
6018.000000;-0.050407
6017.000000;-0.050439
6016.000000;-0.050458
6015.000000;-0.050466
6014.000000;-0.050476
6013.000000;-0.050505
6012.000000;-0.050552
6011.000000;-0.050594
6010.000000;-0.050610
6009.000000;-0.050607
6008.000000;-0.050616
6007.000000;-0.050659
6006.000000;-0.050720
6005.000000;-0.050765
6004.000000;-0.050774
6003.000000;-0.050756
6002.000000;-0.050733
6001.000000;-0.050722
6000.000000;-0.050721
5999.000000;-0.050722
5998.000000;-0.050713
5997.000000;-0.050684
5996.000000;-0.050637
5995.000000;-0.050588
5994.000000;-0.050558
5993.000000;-0.050553
5992.000000;-0.050565
5991.000000;-0.050582
5990.000000;-0.050603
5989.000000;-0.050631
5988.000000;-0.050661
5987.000000;-0.050684
5986.000000;-0.050701
5985.000000;-0.050721
5984.000000;-0.050748
5983.000000;-0.050777
5982.000000;-0.050796
5981.000000;-0.050795
5980.000000;-0.050763
5979.000000;-0.050710
5978.000000;-0.050658
5977.000000;-0.050632
5976.000000;-0.050626
5975.000000;-0.050606
5974.000000;-0.050546
5973.000000;-0.050451
5972.000000;-0.050352
5971.000000;-0.050275
5970.000000;-0.050226
5969.000000;-0.050202
5968.000000;-0.050189
5967.000000;-0.050169
5966.000000;-0.050125
5965.000000;-0.050056
5964.000000;-0.049978
5963.000000;-0.049909
5962.000000;-0.049861
5961.000000;-0.049831
5960.000000;-0.049803
5959.000000;-0.049762
5958.000000;-0.049703
5957.000000;-0.049635
5956.000000;-0.049565
5955.000000;-0.049490
5954.000000;-0.049410
5953.000000;-0.049338
5952.000000;-0.049284
5951.000000;-0.049233
5950.000000;-0.049164
5949.000000;-0.049069
5948.000000;-0.048963
5947.000000;-0.048868
5946.000000;-0.048792
5945.000000;-0.048735
5944.000000;-0.048690
5943.000000;-0.048645
5942.000000;-0.048590
5941.000000;-0.048530
5940.000000;-0.048478
5939.000000;-0.048436
5938.000000;-0.048378
5937.000000;-0.048286
5936.000000;-0.048168
5935.000000;-0.048048
5934.000000;-0.047939
5933.000000;-0.047829
5932.000000;-0.047705
5931.000000;-0.047564
5930.000000;-0.047421
5929.000000;-0.047290
5928.000000;-0.047182
5927.000000;-0.047093
5926.000000;-0.047014
5925.000000;-0.046933
5924.000000;-0.046841
5923.000000;-0.046733
5922.000000;-0.046607
5921.000000;-0.046471
5920.000000;-0.046343
5919.000000;-0.046241
5918.000000;-0.046162
5917.000000;-0.046088
5916.000000;-0.046002
5915.000000;-0.045897
5914.000000;-0.045773
5913.000000;-0.045630
5912.000000;-0.045480
5911.000000;-0.045346
5910.000000;-0.045244
5909.000000;-0.045168
5908.000000;-0.045093
5907.000000;-0.045001
5906.000000;-0.044891
5905.000000;-0.044771
5904.000000;-0.044642
5903.000000;-0.044502
5902.000000;-0.044356
5901.000000;-0.044211
5900.000000;-0.044076
5899.000000;-0.043949
5898.000000;-0.043824
5897.000000;-0.043691
5896.000000;-0.043545
5895.000000;-0.043389
5894.000000;-0.043231
5893.000000;-0.043081
5892.000000;-0.042938
5891.000000;-0.042796
5890.000000;-0.042654
5889.000000;-0.042509
5888.000000;-0.042354
5887.000000;-0.042186
5886.000000;-0.042004
5885.000000;-0.041820
5884.000000;-0.041643
5883.000000;-0.041482
5882.000000;-0.041337
5881.000000;-0.041199
5880.000000;-0.041057
5879.000000;-0.040902
5878.000000;-0.040732
5877.000000;-0.040543
5876.000000;-0.040334
5875.000000;-0.040116
5874.000000;-0.039921
5873.000000;-0.039764
5872.000000;-0.039625
5871.000000;-0.039455
5870.000000;-0.039231
5869.000000;-0.038975
5868.000000;-0.038720
5867.000000;-0.038483
5866.000000;-0.038260
5865.000000;-0.038057
5864.000000;-0.037881
5863.000000;-0.037721
5862.000000;-0.037548
5861.000000;-0.037341
5860.000000;-0.037110
5859.000000;-0.036874
5858.000000;-0.036642
5857.000000;-0.036405
5856.000000;-0.036153
5855.000000;-0.035893
5854.000000;-0.035638
5853.000000;-0.035399
5852.000000;-0.035167
5851.000000;-0.034927
5850.000000;-0.034673
5849.000000;-0.034414
5848.000000;-0.034166
5847.000000;-0.033930
5846.000000;-0.033695
5845.000000;-0.033446
5844.000000;-0.033181
5843.000000;-0.032900
5842.000000;-0.032608
5841.000000;-0.032310
5840.000000;-0.032015
5839.000000;-0.031730
5838.000000;-0.031452
5837.000000;-0.031174
5836.000000;-0.030887
5835.000000;-0.030590
5834.000000;-0.030283
5833.000000;-0.029971
5832.000000;-0.029658
5831.000000;-0.029350
5830.000000;-0.029046
5829.000000;-0.028744
5828.000000;-0.028446
5827.000000;-0.028153
5826.000000;-0.027858
5825.000000;-0.027549
5824.000000;-0.027227
5823.000000;-0.026906
5822.000000;-0.026599
5821.000000;-0.026299
5820.000000;-0.025988
5819.000000;-0.025655
5818.000000;-0.025301
5817.000000;-0.024938
5816.000000;-0.024577
5815.000000;-0.024222
5814.000000;-0.023860
5813.000000;-0.023480
5812.000000;-0.023090
5811.000000;-0.022724
5810.000000;-0.022404
5809.000000;-0.022103
5808.000000;-0.021773
5807.000000;-0.021394
5806.000000;-0.020988
5805.000000;-0.020583
5804.000000;-0.020186
5803.000000;-0.019789
5802.000000;-0.019391
5801.000000;-0.018994
5800.000000;-0.018592
5799.000000;-0.018180
5798.000000;-0.017772
5797.000000;-0.017386
5796.000000;-0.017029
5795.000000;-0.016681
5794.000000;-0.016318
5793.000000;-0.015923
5792.000000;-0.015501
5791.000000;-0.015071
5790.000000;-0.014648
5789.000000;-0.014222
5788.000000;-0.013775
5787.000000;-0.013305
5786.000000;-0.012842
5785.000000;-0.012407
5784.000000;-0.011993
5783.000000;-0.011568
5782.000000;-0.011115
5781.000000;-0.010639
5780.000000;-0.010156
5779.000000;-0.009676
5778.000000;-0.009204
5777.000000;-0.008733
5776.000000;-0.008258
5775.000000;-0.007783
5774.000000;-0.007321
5773.000000;-0.006874
5772.000000;-0.006429
5771.000000;-0.005972
5770.000000;-0.005504
5769.000000;-0.005025
5768.000000;-0.004522
5767.000000;-0.003984
5766.000000;-0.003425
5765.000000;-0.002880
5764.000000;-0.002374
5763.000000;-0.001899
5762.000000;-0.001424
5761.000000;-0.000917
5760.000000;-0.000367
5759.000000;0.000200
5758.000000;0.000742
5757.000000;0.001243
5756.000000;0.001735
5755.000000;0.002263
5754.000000;0.002841
5753.000000;0.003441
5752.000000;0.004026
5751.000000;0.004576
5750.000000;0.005100
5749.000000;0.005635
5748.000000;0.006226
5747.000000;0.006891
5746.000000;0.007600
5745.000000;0.008290
5744.000000;0.008913
5743.000000;0.009474
5742.000000;0.010008
5741.000000;0.010549
5740.000000;0.011112
5739.000000;0.011689
5738.000000;0.012270
5737.000000;0.012859
5736.000000;0.013467
5735.000000;0.014101
5734.000000;0.014756
5733.000000;0.015428
5732.000000;0.016119
5731.000000;0.016824
5730.000000;0.017524
5729.000000;0.018207
5728.000000;0.018887
5727.000000;0.019578
5726.000000;0.020275
5725.000000;0.020956
5724.000000;0.021614
5723.000000;0.022257
5722.000000;0.022891
5721.000000;0.023512
5720.000000;0.024118
5719.000000;0.024723
5718.000000;0.025347
5717.000000;0.026020
5716.000000;0.026760
5715.000000;0.027559
5714.000000;0.028369
5713.000000;0.029146
5712.000000;0.029891
5711.000000;0.030637
5710.000000;0.031398
5709.000000;0.032148
5708.000000;0.032859
5707.000000;0.033545
5706.000000;0.034238
5705.000000;0.034960
5704.000000;0.035706
5703.000000;0.036465
5702.000000;0.037233
5701.000000;0.038008
5700.000000;0.038793
5699.000000;0.039572
5698.000000;0.040335
5697.000000;0.041039
5696.000000;0.041733
5695.000000;0.042460
5694.000000;0.043232
5693.000000;0.044059
5692.000000;0.044896
5691.000000;0.045691
5690.000000;0.046420
5689.000000;0.047108
5688.000000;0.047796
5687.000000;0.048508
5686.000000;0.049242
5685.000000;0.049991
5684.000000;0.050754
5683.000000;0.051522
5682.000000;0.052274
5681.000000;0.053011
5680.000000;0.053763
5679.000000;0.054556
5678.000000;0.055375
5677.000000;0.056187
5676.000000;0.056980
5675.000000;0.057767
5674.000000;0.058550
5673.000000;0.059311
5672.000000;0.060040
5671.000000;0.060751
5670.000000;0.061478
5669.000000;0.062249
5668.000000;0.063065
5667.000000;0.063886
5666.000000;0.064666
5665.000000;0.065399
5664.000000;0.066129
5663.000000;0.066894
5662.000000;0.067670
5661.000000;0.068413
5660.000000;0.069110
5659.000000;0.069778
5658.000000;0.070429
5657.000000;0.071071
5656.000000;0.071735
5655.000000;0.072453
5654.000000;0.073206
5653.000000;0.073934
5652.000000;0.074604
5651.000000;0.075241
5650.000000;0.075883
5649.000000;0.076544
5648.000000;0.077221
5647.000000;0.077910
5646.000000;0.078604
5645.000000;0.079294
5644.000000;0.079978
5643.000000;0.080664
5642.000000;0.081351
5641.000000;0.082025
5640.000000;0.082677
5639.000000;0.083306
5638.000000;0.083911
5637.000000;0.084492
5636.000000;0.085056
5635.000000;0.085617
5634.000000;0.086190
5633.000000;0.086780
5632.000000;0.087390
5631.000000;0.088003
5630.000000;0.088597
5629.000000;0.089158
5628.000000;0.089698
5627.000000;0.090226
5626.000000;0.090736
5625.000000;0.091219
5624.000000;0.091689
5623.000000;0.092170
5622.000000;0.092661
5621.000000;0.093138
5620.000000;0.093594
5619.000000;0.094037
5618.000000;0.094478
5617.000000;0.094927
5616.000000;0.095399
5615.000000;0.095889
5614.000000;0.096355
5613.000000;0.096753
5612.000000;0.097090
5611.000000;0.097419
5610.000000;0.097776
5609.000000;0.098149
5608.000000;0.098510
5607.000000;0.098861
5606.000000;0.099229
5605.000000;0.099646
5604.000000;0.100111
5603.000000;0.100566
5602.000000;0.100936
5601.000000;0.101194
5600.000000;0.101402
5599.000000;0.101637
5598.000000;0.101922
5597.000000;0.102228
5596.000000;0.102528
5595.000000;0.102811
5594.000000;0.103069
5593.000000;0.103306
5592.000000;0.103553
5591.000000;0.103829
5590.000000;0.104106
5589.000000;0.104351
5588.000000;0.104579
5587.000000;0.104826
5586.000000;0.105081
5585.000000;0.105298
5584.000000;0.105468
5583.000000;0.105624
5582.000000;0.105781
5581.000000;0.105933
5580.000000;0.106089
5579.000000;0.106262
5578.000000;0.106434
5577.000000;0.106572
5576.000000;0.106680
5575.000000;0.106786
5574.000000;0.106897
5573.000000;0.107010
5572.000000;0.107157
5571.000000;0.107360
5570.000000;0.107566
5569.000000;0.107685
5568.000000;0.107718
5567.000000;0.107756
5566.000000;0.107853
5565.000000;0.107947
5564.000000;0.107956
5563.000000;0.107887
5562.000000;0.107815
5561.000000;0.107796
5560.000000;0.107851
5559.000000;0.107972
5558.000000;0.108126
5557.000000;0.108263
5556.000000;0.108360
5555.000000;0.108427
5554.000000;0.108478
5553.000000;0.108512
5552.000000;0.108520
5551.000000;0.108509
5550.000000;0.108501
5549.000000;0.108522
5548.000000;0.108571
5547.000000;0.108603
5546.000000;0.108561
5545.000000;0.108459
5544.000000;0.108392
5543.000000;0.108418
5542.000000;0.108485
5541.000000;0.108517
5540.000000;0.108545
5539.000000;0.108671
5538.000000;0.108912
5537.000000;0.109143
5536.000000;0.109204
5535.000000;0.109062
5534.000000;0.108840
5533.000000;0.108700
5532.000000;0.108701
5531.000000;0.108777
5530.000000;0.108838
5529.000000;0.108867
5528.000000;0.108894
5527.000000;0.108917
5526.000000;0.108898
5525.000000;0.108862
5524.000000;0.108915
5523.000000;0.109090
5522.000000;0.109243
5521.000000;0.109195
5520.000000;0.108975
5519.000000;0.108839
5518.000000;0.108986
5517.000000;0.109316
5516.000000;0.109533
5515.000000;0.109463
5514.000000;0.109209
5513.000000;0.109013
5512.000000;0.109015
5511.000000;0.109208
5510.000000;0.109569
5509.000000;0.110068
5508.000000;0.110534
5507.000000;0.110678
5506.000000;0.110410
5505.000000;0.110039
5504.000000;0.109958
5503.000000;0.110160
5502.000000;0.110326
5501.000000;0.110355
5500.000000;0.110467
5499.000000;0.110749
5498.000000;0.110892
5497.000000;0.110674
5496.000000;0.110517
5495.000000;0.111142
5494.000000;0.112588
5493.000000;0.113895
5492.000000;0.114110
5491.000000;0.113419
5490.000000;0.112897
5489.000000;0.113184
5488.000000;0.113824
5487.000000;0.114009
5486.000000;0.113586
5485.000000;0.113070
5484.000000;0.112925
5483.000000;0.113127
5482.000000;0.113427
5481.000000;0.113691
5480.000000;0.113863
5479.000000;0.114009
5478.000000;0.114556
5477.000000;0.116018
5476.000000;0.118076
5475.000000;0.119325
5474.000000;0.118663
5473.000000;0.116785
5472.000000;0.115595
5471.000000;0.116113
5470.000000;0.117639
5469.000000;0.118905
5468.000000;0.119415
5467.000000;0.119482
5466.000000;0.119519
5465.000000;0.119757
5464.000000;0.120375
5463.000000;0.121432
5462.000000;0.122673
5461.000000;0.123628
5460.000000;0.123932
5459.000000;0.123622
5458.000000;0.123268
5457.000000;0.123572
5456.000000;0.124552
5455.000000;0.125403
5454.000000;0.125493
5453.000000;0.125277
5452.000000;0.125799
5451.000000;0.127330
5450.000000;0.129040
5449.000000;0.130109
5448.000000;0.130749
5447.000000;0.131753
5446.000000;0.133241
5445.000000;0.134371
5444.000000;0.134626
5443.000000;0.134807
5442.000000;0.136005
5441.000000;0.137886
5440.000000;0.138855
5439.000000;0.138192
5438.000000;0.137333
5437.000000;0.138360
5436.000000;0.141480
5435.000000;0.144626
5434.000000;0.145684
5433.000000;0.144772
5432.000000;0.144047
5431.000000;0.145484
5430.000000;0.149003
5429.000000;0.152505
5428.000000;0.153876
5427.000000;0.153072
5426.000000;0.151969
5425.000000;0.152271
5424.000000;0.154003
5423.000000;0.156027
5422.000000;0.157508
5421.000000;0.158584
5420.000000;0.159815
5419.000000;0.161326
5418.000000;0.162867
5417.000000;0.164645
5416.000000;0.167428
5415.000000;0.171377
5414.000000;0.175251
5413.000000;0.177583
5412.000000;0.178501
5411.000000;0.179513
5410.000000;0.181468
5409.000000;0.183653
5408.000000;0.185154
5407.000000;0.186250
5406.000000;0.187896
5405.000000;0.190411
5404.000000;0.193185
5403.000000;0.195619
5402.000000;0.197742
5401.000000;0.199866
5400.000000;0.202283
5399.000000;0.205243
5398.000000;0.208744
5397.000000;0.212493
5396.000000;0.216380
5395.000000;0.220598
5394.000000;0.224915
5393.000000;0.228427
5392.000000;0.230644
5391.000000;0.232377
5390.000000;0.234922
5389.000000;0.238769
5388.000000;0.243584
5387.000000;0.248853
5386.000000;0.254020
5385.000000;0.258393
5384.000000;0.261697
5383.000000;0.264710
5382.000000;0.268522
5381.000000;0.273250
5380.000000;0.278344
5379.000000;0.283911
5378.000000;0.290457
5377.000000;0.297406
5376.000000;0.303269
5375.000000;0.307646
5374.000000;0.311817
5373.000000;0.316953
5372.000000;0.322877
5371.000000;0.328937
5370.000000;0.335095
5369.000000;0.341599
5368.000000;0.348365
5367.000000;0.355254
5366.000000;0.362526
5365.000000;0.370376
5364.000000;0.378363
5363.000000;0.385952
5362.000000;0.393286
5361.000000;0.400912
5360.000000;0.409079
5359.000000;0.417676
5358.000000;0.426580
5357.000000;0.435861
5356.000000;0.445888
5355.000000;0.457048
5354.000000;0.468977
5353.000000;0.480263
5352.000000;0.489759
5351.000000;0.498283
5350.000000;0.507922
5349.000000;0.519453
5348.000000;0.531764
5347.000000;0.544162
5346.000000;0.557500
5345.000000;0.572086
5344.000000;0.585978
5343.000000;0.597214
5342.000000;0.606985
5341.000000;0.618641
5340.000000;0.633841
5339.000000;0.650905
5338.000000;0.666901
5337.000000;0.680523
5336.000000;0.692820
5335.000000;0.705820
5334.000000;0.720908
5333.000000;0.737828
5332.000000;0.754870
5331.000000;0.770718
5330.000000;0.786124
5329.000000;0.802814
5328.000000;0.821000
5327.000000;0.839109
5326.000000;0.855888
5325.000000;0.871825
5324.000000;0.888186
5323.000000;0.905497
5322.000000;0.923358
5321.000000;0.941160
5320.000000;0.958648
5319.000000;0.976096
5318.000000;0.994036
5317.000000;1.012421
5316.000000;1.030344
5315.000000;1.047082
5314.000000;1.063120
5313.000000;1.079377
5312.000000;1.095780
5311.000000;1.111587
5310.000000;1.126839
5309.000000;1.142301
5308.000000;1.157959
5307.000000;1.172810
5306.000000;1.186252
5305.000000;1.198669
5304.000000;1.210640
5303.000000;1.222480
5302.000000;1.234369
5301.000000;1.245971
5300.000000;1.256248
5299.000000;1.264699
5298.000000;1.272339
5297.000000;1.280454
5296.000000;1.288936
5295.000000;1.296736
5294.000000;1.303511
5293.000000;1.309875
5292.000000;1.316306
5291.000000;1.322623
5290.000000;1.328225
5289.000000;1.332320
5288.000000;1.334589
5287.000000;1.336149
5286.000000;1.338877
5285.000000;1.343071
5284.000000;1.346904
5283.000000;1.348999
5282.000000;1.350311
5281.000000;1.352299
5280.000000;1.354628
5279.000000;1.356090
5278.000000;1.356665
5277.000000;1.357247
5276.000000;1.358208
5275.000000;1.359438
5274.000000;1.360939
5273.000000;1.362469
5272.000000;1.363459
5271.000000;1.364109
5270.000000;1.365531
5269.000000;1.367856
5268.000000;1.369558
5267.000000;1.369876
5266.000000;1.370423
5265.000000;1.372700
5264.000000;1.375466
5263.000000;1.376400
5262.000000;1.375369
5261.000000;1.374085
5260.000000;1.373373
5259.000000;1.372775
5258.000000;1.372285
5257.000000;1.372656
5256.000000;1.373932
5255.000000;1.375093
5254.000000;1.375290
5253.000000;1.374586
5252.000000;1.373562
5251.000000;1.373036
5250.000000;1.373813
5249.000000;1.375609
5248.000000;1.376786
5247.000000;1.376354
5246.000000;1.375587
5245.000000;1.376242
5244.000000;1.378037
5243.000000;1.379254
5242.000000;1.379221
5241.000000;1.378792
5240.000000;1.378650
5239.000000;1.378512
5238.000000;1.378063
5237.000000;1.377637
5236.000000;1.377631
5235.000000;1.377999
5234.000000;1.378576
5233.000000;1.379283
5232.000000;1.379912
5231.000000;1.380216
5230.000000;1.380217
5229.000000;1.380084
5228.000000;1.380049
5227.000000;1.380548
5226.000000;1.381702
5225.000000;1.382537
5224.000000;1.381753
5223.000000;1.379647
5222.000000;1.378156
5221.000000;1.378490
5220.000000;1.379809
5219.000000;1.380677
5218.000000;1.380791
5217.000000;1.380587
5216.000000;1.380087
5215.000000;1.379200
5214.000000;1.378395
5213.000000;1.378146
5212.000000;1.378357
5211.000000;1.378981
5210.000000;1.380432
5209.000000;1.382766
5208.000000;1.385128
5207.000000;1.386491
5206.000000;1.386453
5205.000000;1.385090
5204.000000;1.382873
5203.000000;1.381008
5202.000000;1.380798
5201.000000;1.382194
5200.000000;1.383812
5199.000000;1.384631
5198.000000;1.384776
5197.000000;1.384448
5196.000000;1.383431
5195.000000;1.382155
5194.000000;1.381737
5193.000000;1.382296
5192.000000;1.382636
5191.000000;1.382259
5190.000000;1.382205
5189.000000;1.383184
5188.000000;1.384357
5187.000000;1.384830
5186.000000;1.384960
5185.000000;1.385138
5184.000000;1.384704
5183.000000;1.383288
5182.000000;1.381938
5181.000000;1.381647
5180.000000;1.381960
5179.000000;1.382185
5178.000000;1.382745
5177.000000;1.384052
5176.000000;1.385113
5175.000000;1.384731
5174.000000;1.383367
5173.000000;1.382442
5172.000000;1.382461
5171.000000;1.382998
5170.000000;1.383799
5169.000000;1.384739
5168.000000;1.385241
5167.000000;1.384915
5166.000000;1.384282
5165.000000;1.383928
5164.000000;1.383585
5163.000000;1.382896
5162.000000;1.382396
5161.000000;1.382724
5160.000000;1.383531
5159.000000;1.384100
5158.000000;1.384401
5157.000000;1.384675
5156.000000;1.384626
5155.000000;1.383970
5154.000000;1.383156
5153.000000;1.382697
5152.000000;1.382349
5151.000000;1.381744
5150.000000;1.381226
5149.000000;1.381256
5148.000000;1.381592
5147.000000;1.381849
5146.000000;1.382248
5145.000000;1.382980
5144.000000;1.383531
5143.000000;1.383454
5142.000000;1.383142
5141.000000;1.383010
5140.000000;1.382648
5139.000000;1.381665
5138.000000;1.380627
5137.000000;1.380243
5136.000000;1.380306
5135.000000;1.380305
5134.000000;1.380388
5133.000000;1.380848
5132.000000;1.381320
5131.000000;1.381403
5130.000000;1.381431
5129.000000;1.381773
5128.000000;1.382044
5127.000000;1.381846
5126.000000;1.381562
5125.000000;1.381553
5124.000000;1.381329
5123.000000;1.380510
5122.000000;1.379844
5121.000000;1.380193
5120.000000;1.381081
5119.000000;1.381375
5118.000000;1.380942
5117.000000;1.380557
5116.000000;1.380528
5115.000000;1.380451
5114.000000;1.380079
5113.000000;1.379569
5112.000000;1.379044
5111.000000;1.378574
5110.000000;1.378319
5109.000000;1.378156
5108.000000;1.377577
5107.000000;1.376468
5106.000000;1.375478
5105.000000;1.375085
5104.000000;1.374926
5103.000000;1.374605
5102.000000;1.374483
5101.000000;1.374983
5100.000000;1.375807
5099.000000;1.376531
5098.000000;1.377293
5097.000000;1.378138
5096.000000;1.378403
5095.000000;1.377624
5094.000000;1.376435
5093.000000;1.375700
5092.000000;1.375377
5091.000000;1.375002
5090.000000;1.374717
5089.000000;1.374931
5088.000000;1.375488
5087.000000;1.376002
5086.000000;1.376568
5085.000000;1.377347
5084.000000;1.377869
5083.000000;1.377512
5082.000000;1.376305
5081.000000;1.374686
5080.000000;1.372985
5079.000000;1.371679
5078.000000;1.371423
5077.000000;1.372135
5076.000000;1.372700
5075.000000;1.372336
5074.000000;1.371576
5073.000000;1.371221
5072.000000;1.371085
5071.000000;1.370627
5070.000000;1.370080
5069.000000;1.369969
5068.000000;1.370094
5067.000000;1.369947
5066.000000;1.369662
5065.000000;1.369673
5064.000000;1.369858
5063.000000;1.369827
5062.000000;1.369579
5061.000000;1.369165
5060.000000;1.368255
5059.000000;1.366837
5058.000000;1.365710
5057.000000;1.365409
5056.000000;1.365196
5055.000000;1.364035
5054.000000;1.362147
5053.000000;1.360694
5052.000000;1.360323
5051.000000;1.360821
5050.000000;1.361784
5049.000000;1.362790
5048.000000;1.363294
5047.000000;1.363141
5046.000000;1.362900
5045.000000;1.363006
5044.000000;1.362980
5043.000000;1.362196
5042.000000;1.360959
5041.000000;1.360060
5040.000000;1.359675
5039.000000;1.359440
5038.000000;1.359181
5037.000000;1.358813
5036.000000;1.357935
5035.000000;1.356328
5034.000000;1.354560
5033.000000;1.353379
5032.000000;1.352792
5031.000000;1.352324
5030.000000;1.351806
5029.000000;1.351320
5028.000000;1.350748
5027.000000;1.350021
5026.000000;1.349438
5025.000000;1.349124
5024.000000;1.348590
5023.000000;1.347430
5022.000000;1.346060
5021.000000;1.345113
5020.000000;1.344562
5019.000000;1.344049
5018.000000;1.343614
5017.000000;1.343423
5016.000000;1.343140
5015.000000;1.342314
5014.000000;1.341124
5013.000000;1.340146
5012.000000;1.339651
5011.000000;1.339591
5010.000000;1.339852
5009.000000;1.340022
5008.000000;1.339386
5007.000000;1.337762
5006.000000;1.335961
5005.000000;1.334848
5004.000000;1.334324
5003.000000;1.333725
5002.000000;1.332751
5001.000000;1.331539
5000.000000;1.330242
4999.000000;1.329162
4998.000000;1.328651
4997.000000;1.328448
4996.000000;1.327599
4995.000000;1.325574
4994.000000;1.322972
4993.000000;1.320635
4992.000000;1.318659
4991.000000;1.316776
4990.000000;1.315061
4989.000000;1.313633
4988.000000;1.312219
4987.000000;1.310640
4986.000000;1.309192
4985.000000;1.308020
4984.000000;1.306700
4983.000000;1.305037
4982.000000;1.303631
4981.000000;1.302956
4980.000000;1.302497
4979.000000;1.301494
4978.000000;1.299982
4977.000000;1.298388
4976.000000;1.296681
4975.000000;1.294756
4974.000000;1.293080
4973.000000;1.292072
4972.000000;1.291257
4971.000000;1.289885
4970.000000;1.288083
4969.000000;1.286542
4968.000000;1.285434
4967.000000;1.284346
4966.000000;1.283076
4965.000000;1.281694
4964.000000;1.280073
4963.000000;1.278036
4962.000000;1.275809
4961.000000;1.273708
4960.000000;1.271670
4959.000000;1.269566
4958.000000;1.267673
4957.000000;1.266218
4956.000000;1.264807
4955.000000;1.262964
4954.000000;1.260901
4953.000000;1.259117
4952.000000;1.257484
4951.000000;1.255462
4950.000000;1.253001
4949.000000;1.250600
4948.000000;1.248640
4947.000000;1.247136
4946.000000;1.245960
4945.000000;1.244784
4944.000000;1.243075
4943.000000;1.240633
4942.000000;1.237941
4941.000000;1.235552
4940.000000;1.233436
4939.000000;1.231348
4938.000000;1.229437
4937.000000;1.227901
4936.000000;1.226402
4935.000000;1.224434
4934.000000;1.222046
4933.000000;1.219632
4932.000000;1.217258
4931.000000;1.214749
4930.000000;1.212222
4929.000000;1.209947
4928.000000;1.207846
4927.000000;1.205633
4926.000000;1.203279
4925.000000;1.200903
4924.000000;1.198384
4923.000000;1.195569
4922.000000;1.192705
4921.000000;1.190185
4920.000000;1.187988
4919.000000;1.185765
4918.000000;1.183366
4917.000000;1.180926
4916.000000;1.178559
4915.000000;1.176260
4914.000000;1.173998
4913.000000;1.171623
4912.000000;1.168922
4911.000000;1.165968
4910.000000;1.163150
4909.000000;1.160625
4908.000000;1.158072
4907.000000;1.155244
4906.000000;1.152387
4905.000000;1.149807
4904.000000;1.147415
4903.000000;1.145029
4902.000000;1.142726
4901.000000;1.140498
4900.000000;1.138001
4899.000000;1.135084
4898.000000;1.132205
4897.000000;1.129798
4896.000000;1.127586
4895.000000;1.125013
4894.000000;1.122083
4893.000000;1.119232
4892.000000;1.116595
4891.000000;1.113929
4890.000000;1.111115
4889.000000;1.108261
4888.000000;1.105412
4887.000000;1.102551
4886.000000;1.099781
4885.000000;1.097157
4884.000000;1.094494
4883.000000;1.091639
4882.000000;1.088734
4881.000000;1.085932
4880.000000;1.083067
4879.000000;1.079970
4878.000000;1.076841
4877.000000;1.073963
4876.000000;1.071269
4875.000000;1.068565
4874.000000;1.065906
4873.000000;1.063375
4872.000000;1.060711
4871.000000;1.057610
4870.000000;1.054232
4869.000000;1.051003
4868.000000;1.048029
4867.000000;1.045076
4866.000000;1.042028
4865.000000;1.039001
4864.000000;1.036087
4863.000000;1.033283
4862.000000;1.030603
4861.000000;1.027996
4860.000000;1.025265
4859.000000;1.022316
4858.000000;1.019356
4857.000000;1.016593
4856.000000;1.013908
4855.000000;1.011073
4854.000000;1.008122
4853.000000;1.005236
4852.000000;1.002421
4851.000000;0.999604
4850.000000;0.996883
4849.000000;0.994396
4848.000000;0.992036
4847.000000;0.989542
4846.000000;0.986789
4845.000000;0.983769
4844.000000;0.980483
4843.000000;0.977052
4842.000000;0.973777
4841.000000;0.970831
4840.000000;0.968036
4839.000000;0.965148
4838.000000;0.962194
4837.000000;0.959320
4836.000000;0.956491
4835.000000;0.953605
4834.000000;0.950727
4833.000000;0.947920
4832.000000;0.945023
4831.000000;0.941859
4830.000000;0.938544
4829.000000;0.935328
4828.000000;0.932258
4827.000000;0.929243
4826.000000;0.926314
4825.000000;0.923539
4824.000000;0.920828
4823.000000;0.918052
4822.000000;0.915265
4821.000000;0.912575
4820.000000;0.909886
4819.000000;0.907037
4818.000000;0.904082
4817.000000;0.901200
4816.000000;0.898405
4815.000000;0.895570
4814.000000;0.892678
4813.000000;0.889835
4812.000000;0.887080
4811.000000;0.884365
4810.000000;0.881658
4809.000000;0.878899
4808.000000;0.875991
4807.000000;0.872924
4806.000000;0.869878
4805.000000;0.867006
4804.000000;0.864243
4803.000000;0.861437
4802.000000;0.858545
4801.000000;0.855584
4800.000000;0.852523
4799.000000;0.849386
4798.000000;0.846353
4797.000000;0.843597
4796.000000;0.841093
4795.000000;0.838694
4794.000000;0.836288
4793.000000;0.833778
4792.000000;0.831053
4791.000000;0.828109
4790.000000;0.825087
4789.000000;0.822099
4788.000000;0.819130
4787.000000;0.816187
4786.000000;0.813365
4785.000000;0.810668
4784.000000;0.807946
4783.000000;0.805123
4782.000000;0.802323
4781.000000;0.799655
4780.000000;0.797069
4779.000000;0.794520
4778.000000;0.792057
4777.000000;0.789605
4776.000000;0.786906
4775.000000;0.783873
4774.000000;0.780797
4773.000000;0.777993
4772.000000;0.775423
4771.000000;0.772846
4770.000000;0.770171
4769.000000;0.767439
4768.000000;0.764637
4767.000000;0.761761
4766.000000;0.758955
4765.000000;0.756369
4764.000000;0.753973
4763.000000;0.751665
4762.000000;0.749427
4761.000000;0.747221
4760.000000;0.744885
4759.000000;0.742320
4758.000000;0.739661
4757.000000;0.737068
4756.000000;0.734497
4755.000000;0.731853
4754.000000;0.729232
4753.000000;0.726778
4752.000000;0.724431
4751.000000;0.722032
4750.000000;0.719594
4749.000000;0.717242
4748.000000;0.714969
4747.000000;0.712635
4746.000000;0.710193
4745.000000;0.707732
4744.000000;0.705342
4743.000000;0.703060
4742.000000;0.700888
4741.000000;0.698744
4740.000000;0.696480
4739.000000;0.694044
4738.000000;0.691545
4737.000000;0.689077
4736.000000;0.686598
4735.000000;0.684111
4734.000000;0.681768
4733.000000;0.679654
4732.000000;0.677601
4731.000000;0.675408
4730.000000;0.673110
4729.000000;0.670854
4728.000000;0.668627
4727.000000;0.666335
4726.000000;0.664051
4725.000000;0.661944
4724.000000;0.660016
4723.000000;0.658082
4722.000000;0.656012
4721.000000;0.653844
4720.000000;0.651681
4719.000000;0.649602
4718.000000;0.647629
4717.000000;0.645675
4716.000000;0.643594
4715.000000;0.641394
4714.000000;0.639282
4713.000000;0.637413
4712.000000;0.635679
4711.000000;0.633899
4710.000000;0.632065
4709.000000;0.630253
4708.000000;0.628395
4707.000000;0.626351
4706.000000;0.624156
4705.000000;0.622005
4704.000000;0.620018
4703.000000;0.618173
4702.000000;0.616410
4701.000000;0.614674
4700.000000;0.612881
4699.000000;0.610973
4698.000000;0.608998
4697.000000;0.607038
4696.000000;0.605119
4695.000000;0.603280
4694.000000;0.601624
4693.000000;0.600175
4692.000000;0.598771
4691.000000;0.597238
4690.000000;0.595600
4689.000000;0.593979
4688.000000;0.592370
4687.000000;0.590686
4686.000000;0.588946
4685.000000;0.587244
4684.000000;0.585585
4683.000000;0.583910
4682.000000;0.582253
4681.000000;0.580733
4680.000000;0.579381
4679.000000;0.578103
4678.000000;0.576786
4677.000000;0.575361
4676.000000;0.573780
4675.000000;0.572078
4674.000000;0.570398
4673.000000;0.568858
4672.000000;0.567425
4671.000000;0.566000
4670.000000;0.564579
4669.000000;0.563202
4668.000000;0.561822
4667.000000;0.560360
4666.000000;0.558869
4665.000000;0.557485
4664.000000;0.556231
4663.000000;0.554984
4662.000000;0.553643
4661.000000;0.552232
4660.000000;0.550828
4659.000000;0.549479
4658.000000;0.548195
4657.000000;0.546952
4656.000000;0.545710
4655.000000;0.544461
4654.000000;0.543240
4653.000000;0.542065
4652.000000;0.540919
4651.000000;0.539804
4650.000000;0.538750
4649.000000;0.537717
4648.000000;0.536594
4647.000000;0.535349
4646.000000;0.534093
4645.000000;0.532933
4644.000000;0.531843
4643.000000;0.530750
4642.000000;0.529668
4641.000000;0.528636
4640.000000;0.527634
4639.000000;0.526644
4638.000000;0.525714
4637.000000;0.524862
4636.000000;0.523997
4635.000000;0.523042
4634.000000;0.522048
4633.000000;0.521090
4632.000000;0.520136
4631.000000;0.519117
4630.000000;0.518064
4629.000000;0.517059
4628.000000;0.516126
4627.000000;0.515257
4626.000000;0.514475
4625.000000;0.513748
4624.000000;0.512934
4623.000000;0.511927
4622.000000;0.510809
4621.000000;0.509767
4620.000000;0.508895
4619.000000;0.508163
4618.000000;0.507496
4617.000000;0.506798
4616.000000;0.505979
4615.000000;0.505054
4614.000000;0.504160
4613.000000;0.503397
4612.000000;0.502738
4611.000000;0.502151
4610.000000;0.501697
4609.000000;0.501385
4608.000000;0.501060
4607.000000;0.500564
4606.000000;0.499910
4605.000000;0.499192
4604.000000;0.498432
4603.000000;0.497658
4602.000000;0.497008
4601.000000;0.496568
4600.000000;0.496183
4599.000000;0.495629
4598.000000;0.494915
4597.000000;0.494246
4596.000000;0.493743
4595.000000;0.493363
4594.000000;0.493044
4593.000000;0.492747
4592.000000;0.492370
4591.000000;0.491808
4590.000000;0.491132
4589.000000;0.490538
4588.000000;0.490127
4587.000000;0.489834
4586.000000;0.489577
4585.000000;0.489331
4584.000000;0.489066
4583.000000;0.488737
4582.000000;0.488372
4581.000000;0.488059
4580.000000;0.487824
4579.000000;0.487613
4578.000000;0.487397
4577.000000;0.487222
4576.000000;0.487124
4575.000000;0.487066
4574.000000;0.486975
4573.000000;0.486791
4572.000000;0.486508
4571.000000;0.486210
4570.000000;0.486037
4569.000000;0.486043
4568.000000;0.486138
4567.000000;0.486219
4566.000000;0.486285
4565.000000;0.486365
4564.000000;0.486422
4563.000000;0.486424
4562.000000;0.486446
4561.000000;0.486569
4560.000000;0.486734
4559.000000;0.486805
4558.000000;0.486767
4557.000000;0.486738
4556.000000;0.486830
4555.000000;0.487075
4554.000000;0.487470
4553.000000;0.487980
4552.000000;0.488510
4551.000000;0.488958
4550.000000;0.489303
4549.000000;0.489578
4548.000000;0.489811
4547.000000;0.490041
4546.000000;0.490347
4545.000000;0.490762
4544.000000;0.491210
4543.000000;0.491596
4542.000000;0.491930
4541.000000;0.492276
4540.000000;0.492645
4539.000000;0.493015
4538.000000;0.493413
4537.000000;0.493878
4536.000000;0.494392
4535.000000;0.494919
4534.000000;0.495471
4533.000000;0.496043
4532.000000;0.496569
4531.000000;0.497014
4530.000000;0.497457
4529.000000;0.497960
4528.000000;0.498446
4527.000000;0.498797
4526.000000;0.499034
4525.000000;0.499288
4524.000000;0.499633
4523.000000;0.500058
4522.000000;0.500547
4521.000000;0.501082
4520.000000;0.501599
4519.000000;0.502041
4518.000000;0.502422
4517.000000;0.502790
4516.000000;0.503146
4515.000000;0.503490
4514.000000;0.503877
4513.000000;0.504356
4512.000000;0.504893
4511.000000;0.505445
4510.000000;0.506028
4509.000000;0.506646
4508.000000;0.507217
4507.000000;0.507680
4506.000000;0.508095
4505.000000;0.508535
4504.000000;0.508953
4503.000000;0.509281
4502.000000;0.509598
4501.000000;0.510070
4500.000000;0.510744
4499.000000;0.511511
4498.000000;0.512249
4497.000000;0.512924
4496.000000;0.513557
4495.000000;0.514188
4494.000000;0.514851
4493.000000;0.515538
4492.000000;0.516216
4491.000000;0.516917
4490.000000;0.517743
4489.000000;0.518704
4488.000000;0.519661
4487.000000;0.520518
4486.000000;0.521373
4485.000000;0.522384
4484.000000;0.523534
4483.000000;0.524637
4482.000000;0.525534
4481.000000;0.526223
4480.000000;0.526838
4479.000000;0.527572
4478.000000;0.528560
4477.000000;0.529755
4476.000000;0.530972
4475.000000;0.532092
4474.000000;0.533152
4473.000000;0.534205
4472.000000;0.535227
4471.000000;0.536237
4470.000000;0.537340
4469.000000;0.538569
4468.000000;0.539800
4467.000000;0.540936
4466.000000;0.542068
4465.000000;0.543323
4464.000000;0.544676
4463.000000;0.546035
4462.000000;0.547402
4461.000000;0.548805
4460.000000;0.550191
4459.000000;0.551536
4458.000000;0.552952
4457.000000;0.554544
4456.000000;0.556219
4455.000000;0.557799
4454.000000;0.559225
4453.000000;0.560544
4452.000000;0.561786
4451.000000;0.563007
4450.000000;0.564364
4449.000000;0.565964
4448.000000;0.567703
4447.000000;0.569391
4446.000000;0.570984
4445.000000;0.572562
4444.000000;0.574161
4443.000000;0.575770
4442.000000;0.577425
4441.000000;0.579161
4440.000000;0.580907
4439.000000;0.582575
4438.000000;0.584204
4437.000000;0.585893
4436.000000;0.587641
4435.000000;0.589370
4434.000000;0.591069
4433.000000;0.592800
4432.000000;0.594614
4431.000000;0.596529
4430.000000;0.598539
4429.000000;0.600576
4428.000000;0.602560
4427.000000;0.604551
4426.000000;0.606700
4425.000000;0.608973
4424.000000;0.611084
4423.000000;0.612850
4422.000000;0.614464
4421.000000;0.616260
4420.000000;0.618348
4419.000000;0.620626
4418.000000;0.623005
4417.000000;0.625423
4416.000000;0.627743
4415.000000;0.629855
4414.000000;0.631837
4413.000000;0.633866
4412.000000;0.636020
4411.000000;0.638292
4410.000000;0.640679
4409.000000;0.643127
4408.000000;0.645471
4407.000000;0.647599
4406.000000;0.649606
4405.000000;0.651670
4404.000000;0.653852
4403.000000;0.656137
4402.000000;0.658549
4401.000000;0.661100
4400.000000;0.663706
4399.000000;0.666263
4398.000000;0.668720
4397.000000;0.671030
4396.000000;0.673192
4395.000000;0.675402
4394.000000;0.677937
4393.000000;0.680779
4392.000000;0.683588
4391.000000;0.686193
4390.000000;0.688837
4389.000000;0.691747
4388.000000;0.694711
4387.000000;0.697362
4386.000000;0.699715
4385.000000;0.702144
4384.000000;0.704932
4383.000000;0.708024
4382.000000;0.711146
4381.000000;0.713988
4380.000000;0.716434
4379.000000;0.718747
4378.000000;0.721351
4377.000000;0.724334
4376.000000;0.727357
4375.000000;0.730165
4374.000000;0.732900
4373.000000;0.735747
4372.000000;0.738626
4371.000000;0.741471
4370.000000;0.744481
4369.000000;0.747768
4368.000000;0.751043
4367.000000;0.754021
4366.000000;0.756893
4365.000000;0.760024
4364.000000;0.763418
4363.000000;0.766834
4362.000000;0.770220
4361.000000;0.773640
4360.000000;0.776959
4359.000000;0.779995
4358.000000;0.782877
4357.000000;0.785879
4356.000000;0.789045
4355.000000;0.792281
4354.000000;0.795649
4353.000000;0.799214
4352.000000;0.802763
4351.000000;0.806077
4350.000000;0.809330
4349.000000;0.812854
4348.000000;0.816608
4347.000000;0.820272
4346.000000;0.823746
4345.000000;0.827194
4344.000000;0.830672
4343.000000;0.834090
4342.000000;0.837477
4341.000000;0.840942
4340.000000;0.844454
4339.000000;0.847981
4338.000000;0.851737
4337.000000;0.855968
4336.000000;0.860562
4335.000000;0.865151
4334.000000;0.869509
4333.000000;0.873611
4332.000000;0.877443
4331.000000;0.881043
4330.000000;0.884606
4329.000000;0.888255
4328.000000;0.891883
4327.000000;0.895435
4326.000000;0.899152
4325.000000;0.903237
4324.000000;0.907525
4323.000000;0.911755
4322.000000;0.915918
4321.000000;0.920036
4320.000000;0.923915
4319.000000;0.927509
4318.000000;0.931249
4317.000000;0.935600
4316.000000;0.940485
4315.000000;0.945460
4314.000000;0.950206
4313.000000;0.954560
4312.000000;0.958405
4311.000000;0.961960
4310.000000;0.965818
4309.000000;0.970277
4308.000000;0.974913
4307.000000;0.979212
4306.000000;0.983238
4305.000000;0.987248
4304.000000;0.991095
4303.000000;0.994617
4302.000000;0.998221
4301.000000;1.002464
4300.000000;1.007297
4299.000000;1.012273
4298.000000;1.017186
4297.000000;1.021984
4296.000000;1.026377
4295.000000;1.030185
4294.000000;1.033795
4293.000000;1.037711
4292.000000;1.041876
4291.000000;1.045982
4290.000000;1.050108
4289.000000;1.054486
4288.000000;1.058999
4287.000000;1.063457
4286.000000;1.068038
4285.000000;1.072913
4284.000000;1.077822
4283.000000;1.082625
4282.000000;1.087792
4281.000000;1.093612
4280.000000;1.099398
4279.000000;1.104343
4278.000000;1.108788
4277.000000;1.113698
4276.000000;1.119196
4275.000000;1.124557
4274.000000;1.129425
4273.000000;1.134076
4272.000000;1.138536
4271.000000;1.142412
4270.000000;1.145753
4269.000000;1.149326
4268.000000;1.153861
4267.000000;1.159408
4266.000000;1.165372
4265.000000;1.170838
4264.000000;1.175143
4263.000000;1.178580
4262.000000;1.182201
4261.000000;1.186564
4260.000000;1.191172
4259.000000;1.195575
4258.000000;1.200299
4257.000000;1.206017
4256.000000;1.212398
4255.000000;1.218558
4254.000000;1.224147
4253.000000;1.229261
4252.000000;1.233842
4251.000000;1.237938
4250.000000;1.242026
4249.000000;1.246313
4248.000000;1.250365
4247.000000;1.254114
4246.000000;1.258527
4245.000000;1.264185
4244.000000;1.270223
4243.000000;1.275460
4242.000000;1.279986
4241.000000;1.284645
4240.000000;1.289674
4239.000000;1.294939
4238.000000;1.300773
4237.000000;1.307319
4236.000000;1.313590
4235.000000;1.318383
4234.000000;1.321724
4233.000000;1.324498
4232.000000;1.327283
4231.000000;1.330539
4230.000000;1.335112
4229.000000;1.341399
4228.000000;1.348650
4227.000000;1.355900
4226.000000;1.362818
4225.000000;1.368877
4224.000000;1.373022
4223.000000;1.375521
4222.000000;1.378785
4221.000000;1.384672
4220.000000;1.392063
4219.000000;1.398549
4218.000000;1.403539
4217.000000;1.408156
4216.000000;1.413013
4215.000000;1.417940
4214.000000;1.423125
4213.000000;1.428570
4212.000000;1.433148
4211.000000;1.436109
4210.000000;1.438971
4209.000000;1.444184
4208.000000;1.452265
4207.000000;1.461374
4206.000000;1.468974
4205.000000;1.473140
4204.000000;1.473612
4203.000000;1.472792
4202.000000;1.474368
4201.000000;1.479605
4200.000000;1.486168
4199.000000;1.491821
4198.000000;1.497633
4197.000000;1.505605
4196.000000;1.514880
4195.000000;1.522673
4194.000000;1.527723
4193.000000;1.530530
4192.000000;1.531468
4191.000000;1.531341
4190.000000;1.532527
4189.000000;1.536869
4188.000000;1.543389
4187.000000;1.550023
4186.000000;1.556538
4185.000000;1.563651
4184.000000;1.570579
4183.000000;1.575952
4182.000000;1.580060
4181.000000;1.584000
4180.000000;1.587878
4179.000000;1.591748
4178.000000;1.596634
4177.000000;1.602539
4176.000000;1.607534
4175.000000;1.611284
4174.000000;1.617132
4173.000000;1.627668
4172.000000;1.640271
4171.000000;1.649864
4170.000000;1.654551
4169.000000;1.655535
4168.000000;1.653785
4167.000000;1.650762
4166.000000;1.649875
4165.000000;1.653115
4164.000000;1.658108
4163.000000;1.661908
4162.000000;1.665867
4161.000000;1.672744
4160.000000;1.681473
4159.000000;1.689011
4158.000000;1.695613
4157.000000;1.703821
4156.000000;1.713256
4155.000000;1.720798
4154.000000;1.725260
4153.000000;1.727850
4152.000000;1.728935
4151.000000;1.728777
4150.000000;1.729783
4149.000000;1.734166
4148.000000;1.740611
4147.000000;1.746180
4146.000000;1.750811
4145.000000;1.755709
4144.000000;1.759547
4143.000000;1.761137
4142.000000;1.763254
4141.000000;1.769167
4140.000000;1.777682
4139.000000;1.785263
4138.000000;1.790673
4137.000000;1.793831
4136.000000;1.793030
4135.000000;1.788609
4134.000000;1.786363
4133.000000;1.791823
4132.000000;1.803589
4131.000000;1.816373
4130.000000;1.828540
4129.000000;1.841281
4128.000000;1.852156
4127.000000;1.856581
4126.000000;1.855329
4125.000000;1.853333
4124.000000;1.851866
4123.000000;1.848672
4122.000000;1.843528
4121.000000;1.838708
4120.000000;1.835755
4119.000000;1.835503
4118.000000;1.839875
4117.000000;1.848901
4116.000000;1.857397
4115.000000;1.860487
4114.000000;1.861636
4113.000000;1.868663
4112.000000;1.883265
4111.000000;1.899019
4110.000000;1.908998
4109.000000;1.911414
4108.000000;1.908104
4107.000000;1.903142
4106.000000;1.902215
4105.000000;1.907998
4104.000000;1.916843
4103.000000;1.923905
4102.000000;1.929188
4101.000000;1.934812
4100.000000;1.939843
4099.000000;1.942340
4098.000000;1.944270
4097.000000;1.948494
4096.000000;1.953295
4095.000000;1.955599
4094.000000;1.956644
4093.000000;1.959576
4092.000000;1.964011
4091.000000;1.967249
4090.000000;1.971080
4089.000000;1.979031
4088.000000;1.987852
4087.000000;1.991587
4086.000000;1.990852
4085.000000;1.988874
4084.000000;1.982970
4083.000000;1.970920
4082.000000;1.959670
4081.000000;1.957305
4080.000000;1.963029
4079.000000;1.970977
4078.000000;1.979150
4077.000000;1.989072
4076.000000;2.000199
4075.000000;2.009977
4074.000000;2.017300
4073.000000;2.020971
4072.000000;2.017548
4071.000000;2.008060
4070.000000;2.002211
4069.000000;2.007129
4068.000000;2.019220
4067.000000;2.030882
4066.000000;2.039341
4065.000000;2.044261
4064.000000;2.041725
4063.000000;2.031230
4062.000000;2.021548
4061.000000;2.019474
4060.000000;2.024691
4059.000000;2.037627
4058.000000;2.061358
4057.000000;2.091307
4056.000000;2.109723
4055.000000;2.103838
4054.000000;2.083362
4053.000000;2.063061
4052.000000;2.046432
4051.000000;2.034131
4050.000000;2.032167
4049.000000;2.045182
4048.000000;2.067914
4047.000000;2.087558
4046.000000;2.095728
4045.000000;2.093061
4044.000000;2.082974
4043.000000;2.072519
4042.000000;2.072683
4041.000000;2.087390
4040.000000;2.107274
4039.000000;2.121657
4038.000000;2.132717
4037.000000;2.144545
4036.000000;2.148309
4035.000000;2.136747
4034.000000;2.121974
4033.000000;2.118665
4032.000000;2.122798
4031.000000;2.122104
4030.000000;2.117732
4029.000000;2.117107
4028.000000;2.117816
4027.000000;2.115189
4026.000000;2.115005
4025.000000;2.124906
4024.000000;2.140022
4023.000000;2.147685
4022.000000;2.145272
4021.000000;2.140175
4020.000000;2.137047
4019.000000;2.138218
4018.000000;2.143403
4017.000000;2.142676
4016.000000;2.123152
4015.000000;2.090312
4014.000000;2.072460
4013.000000;2.089929
4012.000000;2.131578
4011.000000;2.162100
4010.000000;2.161483
4009.000000;2.148352
4008.000000;2.147889
4007.000000;2.168390
4006.000000;2.205934
4005.000000;2.248547
4004.000000;2.280371
4003.000000;2.293876
4002.000000;2.295656
4001.000000;2.290490
4000.000000;2.271751
3999.000000;2.239433
3998.000000;2.209278
3997.000000;2.195847
3996.000000;2.200725
3995.000000;2.221723
3994.000000;2.261146
3993.000000;2.312909
3992.000000;2.350043
3991.000000;2.348237
3990.000000;2.315831
3989.000000;2.277607
3988.000000;2.248459
3987.000000;2.235613
3986.000000;2.245088
3985.000000;2.270305
3984.000000;2.288993
3983.000000;2.292462
3982.000000;2.293763
3981.000000;2.303242
3980.000000;2.312907
3979.000000;2.308901
3978.000000;2.299146
3977.000000;2.294742
3976.000000;2.287374
3975.000000;2.271955
3974.000000;2.263411
3973.000000;2.272727
3972.000000;2.285064
3971.000000;2.281451
3970.000000;2.272127
3969.000000;2.277643
3968.000000;2.293694
3967.000000;2.300262
3966.000000;2.299238
3965.000000;2.307616
3964.000000;2.328166
3963.000000;2.352437
3962.000000;2.382958
3961.000000;2.418761
3960.000000;2.433313
3959.000000;2.411465
3958.000000;2.376456
3957.000000;2.349648
3956.000000;2.331891
3955.000000;2.326828
3954.000000;2.341845
3953.000000;2.370500
3952.000000;2.380361
3951.000000;2.349089
3950.000000;2.317611
3949.000000;2.324413
3948.000000;2.354793
3947.000000;2.379635
3946.000000;2.400382
3945.000000;2.437411
3944.000000;2.485322
3943.000000;2.506677
3942.000000;2.516520
3941.000000;2.552021
3940.000000;2.596020
3939.000000;2.600092
3938.000000;2.555311
3937.000000;2.513134
3936.000000;2.501245
3935.000000;2.506946
3934.000000;2.526179
3933.000000;2.561251
3932.000000;2.586824
3931.000000;2.585740
3930.000000;2.561097
3929.000000;2.517506
3928.000000;2.485188
3927.000000;2.489542
3926.000000;2.522560
3925.000000;2.549624
3924.000000;2.534456
3923.000000;2.499897
3922.000000;2.507130
3921.000000;2.608473
3920.000000;2.798816
3919.000000;2.915433
3918.000000;2.891775
3917.000000;2.879377
3916.000000;2.899002
3915.000000;2.930550
3914.000000;2.942345
3913.000000;2.936731
3912.000000;2.969515
3911.000000;3.040103
3910.000000;3.169373
3909.000000;3.007233
3908.000000;2.789620
3907.000000;2.735208
3906.000000;2.776680
3905.000000;2.886674
3904.000000;3.062469
3903.000000;3.269282
3902.000000;3.494404
3901.000000;3.794690
3900.000000;3.950187
3899.000000;3.975644
3898.000000;3.933508
3897.000000;3.599802
3896.000000;3.296894
3895.000000;3.159458
3894.000000;3.244904
3893.000000;3.446369
3892.000000;3.212897
3891.000000;2.984297
3890.000000;2.901334
3889.000000;2.900719
3888.000000;2.990449
3887.000000;3.116055
3886.000000;3.022841
3885.000000;2.949054
3884.000000;2.990306
3883.000000;3.023193
3882.000000;3.005874
3881.000000;2.956968
3880.000000;2.876012
3879.000000;2.779555
3878.000000;2.697785
3877.000000;2.662115
3876.000000;2.704382
3875.000000;2.826368
3874.000000;2.955016
3873.000000;2.898848
3872.000000;2.881212
3871.000000;3.208548
3870.000000;2.924792
3869.000000;2.653855
3868.000000;2.633832
3867.000000;2.695570
3866.000000;2.824419
3865.000000;3.113877
3864.000000;3.613090
3863.000000;3.584931
3862.000000;3.342706
3861.000000;3.051588
3860.000000;2.805207
3859.000000;2.647502
3858.000000;2.599623
3857.000000;2.662965
3856.000000;2.783517
3855.000000;2.796312
3854.000000;2.777542
3853.000000;2.886249
3852.000000;2.977585
3851.000000;2.866339
3850.000000;2.713834
3849.000000;2.686876
3848.000000;2.853835
3847.000000;3.047532
3846.000000;3.023772
3845.000000;3.049544
3844.000000;2.900573
3843.000000;2.715113
3842.000000;2.639913
3841.000000;2.653166
3840.000000;2.731569
3839.000000;2.831873
3838.000000;3.201558
3837.000000;3.236498
3836.000000;2.701813
3835.000000;2.676726
3834.000000;2.739988
3833.000000;2.838778
3832.000000;2.993662
3831.000000;3.256476
3830.000000;3.233076
3829.000000;2.915983
3828.000000;2.747539
3827.000000;2.840733
3826.000000;3.181156
3825.000000;2.822844
3824.000000;2.659018
3823.000000;2.680397
3822.000000;2.687799
3821.000000;2.622282
3820.000000;2.548626
3819.000000;2.529257
3818.000000;2.599479
3817.000000;2.859258
3816.000000;3.523248
3815.000000;3.028431
3814.000000;2.871233
3813.000000;2.847568
3812.000000;2.797802
3811.000000;2.712565
3810.000000;2.702680
3809.000000;2.841009
3808.000000;3.070517
3807.000000;3.187600
3806.000000;3.103377
3805.000000;3.137213
3804.000000;3.084974
3803.000000;2.619306
3802.000000;2.429379
3801.000000;2.544835
3800.000000;2.314015
3799.000000;2.167610
3798.000000;2.231664
3797.000000;2.402116
3796.000000;2.654809
3795.000000;2.877309
3794.000000;2.815347
3793.000000;2.789564
3792.000000;2.899560
3791.000000;3.250853
3790.000000;3.260265
3789.000000;2.743231
3788.000000;2.610159
3787.000000;2.639366
3786.000000;2.858899
3785.000000;3.307178
3784.000000;3.142754
3783.000000;2.816129
3782.000000;2.804844
3781.000000;2.993722
3780.000000;2.808762
3779.000000;2.574691
3778.000000;2.537119
3777.000000;2.570100
3776.000000;2.639978
3775.000000;2.731949
3774.000000;2.874735
3773.000000;3.082230
3772.000000;3.291310
3771.000000;3.065638
3770.000000;2.803520
3769.000000;2.618880
3768.000000;2.486211
3767.000000;2.432418
3766.000000;2.491733
3765.000000;2.677729
3764.000000;2.875324
3763.000000;2.908381
3762.000000;2.906192
3761.000000;2.883539
3760.000000;2.792154
3759.000000;2.661839
3758.000000;2.621323
3757.000000;2.703596
3756.000000;2.738201
3755.000000;2.693459
3754.000000;2.790334
3753.000000;3.258528
3752.000000;3.036575
3751.000000;2.841400
3750.000000;2.731443
3749.000000;2.549171
3748.000000;2.668174
3747.000000;3.125367
3746.000000;2.646636
3745.000000;2.431355
3744.000000;2.517745
3743.000000;2.756993
3742.000000;2.974849
3741.000000;2.805113
3740.000000;2.645596
3739.000000;2.649137
3738.000000;2.820319
3737.000000;2.964640
3736.000000;2.784818
3735.000000;2.701128
3734.000000;2.681966
3733.000000;2.686684
3732.000000;2.695691
3731.000000;2.702894
3730.000000;2.662595
3729.000000;2.570216
3728.000000;2.520071
3727.000000;2.549749
3726.000000;2.632901
3725.000000;2.721865
3724.000000;2.727061
3723.000000;2.586476
3722.000000;2.391946
3721.000000;2.265526
3720.000000;2.257635
3719.000000;2.387211
3718.000000;2.546120
3717.000000;2.459909
3716.000000;2.356471
3715.000000;2.366617
3714.000000;2.449837
3713.000000;2.507210
3712.000000;2.491340
3711.000000;2.463623
3710.000000;2.481253
3709.000000;2.466130
3708.000000;2.382867
3707.000000;2.317539
3706.000000;2.301432
3705.000000;2.276478
3704.000000;2.202740
3703.000000;2.188349
3702.000000;2.277446
3701.000000;2.386149
3700.000000;2.407796
3699.000000;2.386125
3698.000000;2.401172
3697.000000;2.437176
3696.000000;2.412667
3695.000000;2.347466
3694.000000;2.322742
3693.000000;2.362270
3692.000000;2.377200
3691.000000;2.323824
3690.000000;2.178283
3689.000000;2.057901
3688.000000;2.090896
3687.000000;2.259902
3686.000000;2.462131
3685.000000;2.548527
3684.000000;2.402980
3683.000000;2.223747
3682.000000;2.141800
3681.000000;2.169682
3680.000000;2.264967
3679.000000;2.412751
3678.000000;2.801411
3677.000000;2.578652
3676.000000;2.137470
3675.000000;2.034931
3674.000000;2.052578
3673.000000;2.144459
3672.000000;2.144580
3671.000000;1.970459
3670.000000;1.877708
3669.000000;1.973106
3668.000000;2.176688
3667.000000;2.338699
3666.000000;2.440534
3665.000000;2.536741
3664.000000;2.535208
3663.000000;2.350586
3662.000000;2.127946
3661.000000;1.986822
3660.000000;1.957342
3659.000000;2.058155
3658.000000;2.330349
3657.000000;2.899606
3656.000000;2.725101
3655.000000;2.621489
3654.000000;2.466726
3653.000000;2.496052
3652.000000;2.660060
3651.000000;2.375140
3650.000000;2.212704
3649.000000;2.139706
3648.000000;2.153844
3647.000000;2.289231
3646.000000;2.552775
3645.000000;2.709335
3644.000000;2.512940
3643.000000;2.436329
3642.000000;2.415722
3641.000000;2.283840
3640.000000;2.194895
3639.000000;2.108791
3638.000000;2.046220
3637.000000;2.098210
3636.000000;2.246219
3635.000000;2.314182
3634.000000;2.318433
3633.000000;2.476683
3632.000000;2.965775
3631.000000;3.388812
3630.000000;2.691620
3629.000000;2.523524
3628.000000;2.545172
3627.000000;2.651390
3626.000000;2.807160
3625.000000;2.675941
3624.000000;2.296049
3623.000000;2.070886
3622.000000;1.988382
3621.000000;2.021284
3620.000000;2.124288
3619.000000;2.222571
3618.000000;2.281614
3617.000000;2.238952
3616.000000;2.090358
3615.000000;2.015346
3614.000000;2.029257
3613.000000;2.035227
3612.000000;2.065386
3611.000000;2.108234
3610.000000;2.086034
3609.000000;2.039229
3608.000000;2.041825
3607.000000;2.114079
3606.000000;2.276205
3605.000000;2.679458
3604.000000;2.626236
3603.000000;2.264670
3602.000000;2.233830
3601.000000;2.410526
3600.000000;2.352535
3599.000000;2.031774
3598.000000;1.883617
3597.000000;1.843887
3596.000000;1.904947
3595.000000;2.063359
3594.000000;2.225867
3593.000000;2.272410
3592.000000;2.319434
3591.000000;2.486679
3590.000000;2.842959
3589.000000;2.717250
3588.000000;2.539472
3587.000000;2.588944
3586.000000;2.535239
3585.000000;2.318453
3584.000000;2.154674
3583.000000;2.129425
3582.000000;2.250779
3581.000000;2.155093
3580.000000;1.960988
3579.000000;1.929428
3578.000000;2.049435
3577.000000;2.255648
3576.000000;2.375584
3575.000000;2.396481
3574.000000;2.371025
3573.000000;2.410737
3572.000000;2.301147
3571.000000;2.159779
3570.000000;2.154951
3569.000000;2.398713
3568.000000;2.773265
3567.000000;2.461291
3566.000000;2.254225
3565.000000;2.143334
3564.000000;2.075725
3563.000000;2.069695
3562.000000;2.074767
3561.000000;2.082623
3560.000000;2.100234
3559.000000;2.065029
3558.000000;2.063055
3557.000000;2.167930
3556.000000;2.234043
3555.000000;2.099022
3554.000000;1.952667
3553.000000;1.831758
3552.000000;1.781870
3551.000000;1.854926
3550.000000;1.991700
3549.000000;1.977201
3548.000000;1.924748
3547.000000;1.968061
3546.000000;2.079744
3545.000000;2.227087
3544.000000;2.371840
3543.000000;2.304144
3542.000000;2.123441
3541.000000;1.969699
3540.000000;1.862524
3539.000000;1.846619
3538.000000;1.905408
3537.000000;1.993405
3536.000000;2.094313
3535.000000;2.230230
3534.000000;2.231050
3533.000000;2.101283
3532.000000;2.038608
3531.000000;2.067384
3530.000000;2.268623
3529.000000;2.623752
3528.000000;2.266016
3527.000000;2.155363
3526.000000;2.238112
3525.000000;2.295797
3524.000000;2.287710
3523.000000;2.198705
3522.000000;2.095064
3521.000000;2.090124
3520.000000;2.232117
3519.000000;2.331033
3518.000000;2.219436
3517.000000;2.101509
3516.000000;2.138643
3515.000000;2.479016
3514.000000;2.452270
3513.000000;2.122233
3512.000000;2.068020
3511.000000;2.140145
3510.000000;2.398436
3509.000000;2.316780
3508.000000;2.131147
3507.000000;2.247421
3506.000000;2.414713
3505.000000;2.208022
3504.000000;2.137045
3503.000000;2.337745
3502.000000;3.087546
3501.000000;2.543391
3500.000000;2.415168
3499.000000;2.599775
3498.000000;2.593193
3497.000000;2.551402
3496.000000;2.566003
3495.000000;2.512818
3494.000000;2.415291
3493.000000;2.296126
3492.000000;2.161322
3491.000000;2.061058
3490.000000;2.029845
3489.000000;2.101170
3488.000000;2.359096
3487.000000;2.392587
3486.000000;2.168067
3485.000000;2.187904
3484.000000;2.287836
3483.000000;2.307372
3482.000000;2.301362
3481.000000;2.372810
3480.000000;2.492137
3479.000000;3.304856
3478.000000;2.701658
3477.000000;2.220075
3476.000000;2.072835
3475.000000;2.068719
3474.000000;2.210725
3473.000000;2.524638
3472.000000;3.784366
3471.000000;2.624372
3470.000000;2.372540
3469.000000;2.372880
3468.000000;2.522321
3467.000000;2.915911
3466.000000;2.890640
3465.000000;2.483373
3464.000000;2.569430
3463.000000;2.841992
3462.000000;2.398188
3461.000000;2.263010
3460.000000;2.335892
3459.000000;2.428888
3458.000000;2.424680
3457.000000;2.436480
3456.000000;2.654485
3455.000000;2.584079
3454.000000;2.286723
3453.000000;2.192198
3452.000000;2.237849
3451.000000;2.501677
3450.000000;3.087398
3449.000000;2.797448
3448.000000;2.588654
3447.000000;2.173764
3446.000000;1.941270
3445.000000;1.881251
3444.000000;1.913119
3443.000000;2.004838
3442.000000;2.116603
3441.000000;2.214864
3440.000000;2.314108
3439.000000;2.369451
3438.000000;2.397326
3437.000000;2.492625
3436.000000;2.450454
3435.000000;2.247445
3434.000000;2.157322
3433.000000;2.194670
3432.000000;2.340565
3431.000000;2.507826
3430.000000;2.655645
3429.000000;2.889850
3428.000000;2.680783
3427.000000;2.537906
3426.000000;2.755556
3425.000000;3.169053
3424.000000;2.935694
3423.000000;2.694234
3422.000000;2.681676
3421.000000;2.436164
3420.000000;2.315908
3419.000000;2.607481
3418.000000;2.731964
3417.000000;2.367312
3416.000000;2.435715
3415.000000;2.773598
3414.000000;2.661994
3413.000000;2.628045
3412.000000;2.900020
3411.000000;2.688956
3410.000000;2.300713
3409.000000;2.147975
3408.000000;2.137609
3407.000000;2.215293
3406.000000;2.430749
3405.000000;2.767932
3404.000000;2.405489
3403.000000;2.180724
3402.000000;2.257989
3401.000000;2.449968
3400.000000;2.331131
3399.000000;2.224390
3398.000000;2.300700
3397.000000;2.339572
3396.000000;2.295029
3395.000000;2.412952
3394.000000;2.943623
3393.000000;2.626831
3392.000000;2.490822
3391.000000;2.467773
3390.000000;2.240081
3389.000000;2.123042
3388.000000;2.158332
3387.000000;2.313179
3386.000000;2.582928
3385.000000;2.905526
3384.000000;2.567372
3383.000000;2.279852
3382.000000;2.167367
3381.000000;2.186133
3380.000000;2.469155
3379.000000;2.723033
3378.000000;2.392006
3377.000000;2.388596
3376.000000;2.456518
3375.000000;2.472316
3374.000000;2.959641
3373.000000;2.748159
3372.000000;2.363289
3371.000000;2.376992
3370.000000;2.727452
3369.000000;2.891485
3368.000000;2.668886
3367.000000;2.445812
3366.000000;2.111676
3365.000000;1.934388
3364.000000;1.884722
3363.000000;1.915735
3362.000000;2.017585
3361.000000;2.159157
3360.000000;2.230097
3359.000000;2.232539
3358.000000;2.364220
3357.000000;2.368948
3356.000000;2.063691
3355.000000;1.915396
3354.000000;1.896118
3353.000000;1.986004
3352.000000;2.090367
3351.000000;2.076013
3350.000000;2.091483
3349.000000;2.232689
3348.000000;2.287464
3347.000000;2.165357
3346.000000;2.132856
3345.000000;2.423183
3344.000000;2.522573
3343.000000;2.173319
3342.000000;2.160209
3341.000000;2.596634
3340.000000;2.414609
3339.000000;2.093860
3338.000000;2.049915
3337.000000;2.149807
3336.000000;2.366443
3335.000000;2.585115
3334.000000;2.615968
3333.000000;2.744021
3332.000000;2.740711
3331.000000;2.646288
3330.000000;2.641755
3329.000000;2.535362
3328.000000;2.407248
3327.000000;2.321748
3326.000000;2.258008
3325.000000;2.181503
3324.000000;2.099350
3323.000000;2.046902
3322.000000;2.080182
3321.000000;2.237338
3320.000000;2.320300
3319.000000;2.272941
3318.000000;2.309359
3317.000000;2.417419
3316.000000;2.631523
3315.000000;3.053240
3314.000000;2.861748
3313.000000;2.591087
3312.000000;2.550106
3311.000000;2.404368
3310.000000;2.252269
3309.000000;2.229031
3308.000000;2.269401
3307.000000;2.303409
3306.000000;2.351270
3305.000000;2.402486
3304.000000;2.360612
3303.000000;2.295639
3302.000000;2.278094
3301.000000;2.331044
3300.000000;2.457100
3299.000000;2.549238
3298.000000;2.546438
3297.000000;2.545034
3296.000000;2.551674
3295.000000;2.514075
3294.000000;2.435669
3293.000000;2.409149
3292.000000;2.484737
3291.000000;2.538358
3290.000000;2.531232
3289.000000;2.689820
3288.000000;3.208475
3287.000000;3.029945
3286.000000;2.740200
3285.000000;2.642059
3284.000000;2.646781
3283.000000;2.753486
3282.000000;2.732109
3281.000000;2.544302
3280.000000;2.521036
3279.000000;2.809112
3278.000000;2.999545
3277.000000;2.865202
3276.000000;2.873129
3275.000000;2.540134
3274.000000;2.275462
3273.000000;2.165309
3272.000000;2.220227
3271.000000;2.457610
3270.000000;3.074071
3269.000000;3.041886
3268.000000;2.579653
3267.000000;2.410008
3266.000000;2.295707
3265.000000;2.346943
3264.000000;2.541670
3263.000000;2.450245
3262.000000;2.286451
3261.000000;2.241403
3260.000000;2.277284
3259.000000;2.430163
3258.000000;2.767507
3257.000000;3.143322
3256.000000;2.827204
3255.000000;2.554375
3254.000000;2.385476
3253.000000;2.322237
3252.000000;2.449717
3251.000000;2.870506
3250.000000;3.732545
3249.000000;3.383507
3248.000000;2.747665
3247.000000;2.470632
3246.000000;2.341823
3245.000000;2.292482
3244.000000;2.290969
3243.000000;2.382647
3242.000000;2.606945
3241.000000;2.833761
3240.000000;3.341454
3239.000000;3.027034
3238.000000;2.468799
3237.000000;2.230744
3236.000000;2.127306
3235.000000;2.121521
3234.000000;2.144617
3233.000000;2.141964
3232.000000;2.146425
3231.000000;2.261290
3230.000000;2.608346
3229.000000;2.696835
3228.000000;2.568293
3227.000000;2.840823
3226.000000;3.062199
3225.000000;2.556783
3224.000000;2.600414
3223.000000;3.013245
3222.000000;2.381451
3221.000000;2.101990
3220.000000;2.065686
3219.000000;2.163217
3218.000000;2.621527
3217.000000;3.026966
3216.000000;2.542857
3215.000000;2.423545
3214.000000;2.137707
3213.000000;2.003958
3212.000000;2.030177
3211.000000;2.179464
3210.000000;2.428770
3209.000000;2.616020
3208.000000;2.830139
3207.000000;2.733151
3206.000000;2.455861
3205.000000;2.305574
3204.000000;2.231061
3203.000000;2.252274
3202.000000;2.447414
3201.000000;2.546425
3200.000000;2.282716
3199.000000;2.276636
3198.000000;2.409621
3197.000000;2.243355
3196.000000;2.095801
3195.000000;2.152988
3194.000000;2.514336
3193.000000;2.386817
3192.000000;2.037760
3191.000000;2.087785
3190.000000;2.460449
3189.000000;2.261805
3188.000000;1.932098
3187.000000;1.831396
3186.000000;1.761324
3185.000000;1.752846
3184.000000;1.865497
3183.000000;2.298062
3182.000000;2.570098
3181.000000;2.252905
3180.000000;2.304718
3179.000000;2.206839
3178.000000;2.010994
3177.000000;1.977402
3176.000000;2.164743
3175.000000;2.507155
3174.000000;2.478144
3173.000000;2.621652
3172.000000;2.378916
3171.000000;2.113422
3170.000000;2.117793
3169.000000;2.255608
3168.000000;2.181850
3167.000000;2.040551
3166.000000;2.092116
3165.000000;2.261122
3164.000000;2.201923
3163.000000;2.050009
3162.000000;2.055524
3161.000000;2.164830
3160.000000;2.305467
3159.000000;2.375618
3158.000000;2.283525
3157.000000;2.249034
3156.000000;2.328519
3155.000000;2.265032
3154.000000;2.161816
3153.000000;2.182748
3152.000000;2.303901
3151.000000;2.490276
3150.000000;2.537502
3149.000000;2.395250
3148.000000;2.347078
3147.000000;2.499086
3146.000000;2.907405
3145.000000;2.810447
3144.000000;2.401705
3143.000000;2.171550
3142.000000;2.115213
3141.000000;2.424639
3140.000000;2.855419
3139.000000;2.276576
3138.000000;2.196625
3137.000000;2.251259
3136.000000;2.368846
3135.000000;2.649584
3134.000000;3.001285
3133.000000;2.634487
3132.000000;2.397119
3131.000000;2.416395
3130.000000;2.674145
3129.000000;3.069493
3128.000000;2.764701
3127.000000;2.360019
3126.000000;2.096022
3125.000000;2.007905
3124.000000;2.064923
3123.000000;2.174354
3122.000000;2.223669
3121.000000;2.285891
3120.000000;2.429204
3119.000000;2.383706
3118.000000;2.244461
3117.000000;2.252628
3116.000000;2.364058
3115.000000;2.438992
3114.000000;2.446621
3113.000000;2.641290
3112.000000;2.767806
3111.000000;2.371058
3110.000000;2.245503
3109.000000;2.421009
3108.000000;2.475983
3107.000000;2.242928
3106.000000;2.213477
3105.000000;2.339076
3104.000000;2.670933
3103.000000;3.084140
3102.000000;2.911176
3101.000000;2.821185
3100.000000;2.520822
3099.000000;2.314121
3098.000000;2.277126
3097.000000;2.354253
3096.000000;2.542034
3095.000000;2.743761
3094.000000;2.823598
3093.000000;2.862068
3092.000000;2.758941
3091.000000;2.634890
3090.000000;2.576171
3089.000000;2.479487
3088.000000;2.363114
3087.000000;2.313991
3086.000000;2.358304
3085.000000;2.428803
3084.000000;2.354216
3083.000000;2.279483
3082.000000;2.329488
3081.000000;2.484759
3080.000000;2.855274
3079.000000;2.952446
3078.000000;2.645429
3077.000000;2.594444
3076.000000;2.645496
3075.000000;2.676914
3074.000000;2.633431
3073.000000;2.629538
3072.000000;2.808503
3071.000000;2.942679
3070.000000;2.674949
3069.000000;2.483336
3068.000000;2.417081
3067.000000;2.442552
3066.000000;2.674789
3065.000000;3.120782
3064.000000;3.066679
3063.000000;2.866949
3062.000000;2.444933
3061.000000;2.269404
3060.000000;2.247188
3059.000000;2.273749
3058.000000;2.308590
3057.000000;2.313607
3056.000000;2.360874
3055.000000;2.884835
3054.000000;2.837543
3053.000000;2.300732
3052.000000;2.229242
3051.000000;2.227799
3050.000000;2.260446
3049.000000;2.295881
3048.000000;2.323888
3047.000000;2.331822
3046.000000;2.263880
3045.000000;2.163400
3044.000000;2.115969
3043.000000;2.167195
3042.000000;2.361757
3041.000000;2.596366
3040.000000;2.479516
3039.000000;2.442756
3038.000000;2.569176
3037.000000;2.692895
3036.000000;2.698791
3035.000000;2.626738
3034.000000;2.624149
3033.000000;2.866232
3032.000000;2.726533
3031.000000;2.329569
3030.000000;2.224773
3029.000000;2.326378
3028.000000;2.587110
3027.000000;2.575487
3026.000000;2.573141
3025.000000;2.915335
3024.000000;2.694935
3023.000000;2.470102
3022.000000;2.424995
3021.000000;2.323543
3020.000000;2.183070
3019.000000;2.088061
3018.000000;2.076149
3017.000000;2.121661
3016.000000;2.177785
3015.000000;2.267892
3014.000000;2.429410
3013.000000;2.805959
3012.000000;3.145621
3011.000000;2.565177
3010.000000;2.444641
3009.000000;2.568967
3008.000000;2.601734
3007.000000;2.420483
3006.000000;2.349971
3005.000000;2.330166
3004.000000;2.258330
3003.000000;2.177798
3002.000000;2.155565
3001.000000;2.348967
3000.000000;2.624975
2999.000000;2.371784
2998.000000;2.269111
2997.000000;2.393951
2996.000000;2.520218
2995.000000;2.467989
2994.000000;2.270000
2993.000000;2.127310
2992.000000;2.107716
2991.000000;2.236247
2990.000000;2.449740
2989.000000;2.404132
2988.000000;2.325352
2987.000000;2.278977
2986.000000;2.185804
2985.000000;2.171791
2984.000000;2.297326
2983.000000;2.411129
2982.000000;2.337877
2981.000000;2.368634
2980.000000;2.490638
2979.000000;2.486645
2978.000000;2.443399
2977.000000;2.395712
2976.000000;2.334948
2975.000000;2.335104
2974.000000;2.527838
2973.000000;2.916885
2972.000000;2.994466
2971.000000;2.815915
2970.000000;2.453052
2969.000000;2.269009
2968.000000;2.393502
2967.000000;2.697662
2966.000000;2.421548
2965.000000;2.228694
2964.000000;2.244915
2963.000000;2.401098
2962.000000;2.764875
2961.000000;3.378543
2960.000000;3.732839
2959.000000;2.973410
2958.000000;2.795450
2957.000000;3.059115
2956.000000;3.713451
2955.000000;2.744961
2954.000000;2.383658
2953.000000;2.278196
2952.000000;2.369046
2951.000000;2.581990
2950.000000;2.709338
2949.000000;2.806527
2948.000000;2.516485
2947.000000;2.253297
2946.000000;2.208794
2945.000000;2.317140
2944.000000;2.442651
2943.000000;2.490312
2942.000000;2.720393
2941.000000;2.735477
2940.000000;2.539305
2939.000000;2.632682
2938.000000;2.737959
2937.000000;2.638282
2936.000000;2.616975
2935.000000;2.749764
2934.000000;2.864051
2933.000000;2.641520
2932.000000;2.417880
2931.000000;2.267720
2930.000000;2.180249
2929.000000;2.179648
2928.000000;2.284598
2927.000000;2.488731
2926.000000;2.552840
2925.000000;2.506937
2924.000000;2.622697
2923.000000;2.483152
2922.000000;2.234550
2921.000000;2.201229
2920.000000;2.446326
2919.000000;2.903999
2918.000000;2.618903
2917.000000;2.504685
2916.000000;2.739427
2915.000000;2.797684
2914.000000;2.448965
2913.000000;2.226199
2912.000000;2.156678
2911.000000;2.232776
2910.000000;2.576934
2909.000000;2.836385
2908.000000;2.521438
2907.000000;2.493382
2906.000000;2.494704
2905.000000;2.401856
2904.000000;2.428927
2903.000000;2.755362
2902.000000;2.668074
2901.000000;2.185599
2900.000000;2.019749
2899.000000;2.000075
2898.000000;2.058160
2897.000000;2.122378
2896.000000;2.142501
2895.000000;2.112111
2894.000000;2.068630
2893.000000;2.083580
2892.000000;2.097987
2891.000000;2.048720
2890.000000;2.037410
2889.000000;2.067969
2888.000000;2.048399
2887.000000;2.022806
2886.000000;2.119109
2885.000000;2.505730
2884.000000;2.596528
2883.000000;2.228373
2882.000000;2.074322
2881.000000;2.028921
2880.000000;2.121141
2879.000000;2.386824
2878.000000;2.437660
2877.000000;2.274608
2876.000000;2.261608
2875.000000;2.251922
2874.000000;2.150223
2873.000000;2.099188
2872.000000;2.180119
2871.000000;2.300575
2870.000000;2.296889
2869.000000;2.356234
2868.000000;2.578436
2867.000000;2.691671
2866.000000;2.424645
2865.000000;2.140468
2864.000000;1.991699
2863.000000;1.958947
2862.000000;1.979358
2861.000000;2.008330
2860.000000;2.044845
2859.000000;2.159546
2858.000000;2.339218
2857.000000;2.227624
2856.000000;2.081361
2855.000000;2.122976
2854.000000;2.366704
2853.000000;2.424882
2852.000000;2.209574
2851.000000;2.152431
2850.000000;2.180339
2849.000000;2.179050
2848.000000;2.087287
2847.000000;1.985187
2846.000000;2.012928
2845.000000;2.321185
2844.000000;2.314399
2843.000000;1.942726
2842.000000;1.906273
2841.000000;2.258456
2840.000000;2.285016
2839.000000;1.887029
2838.000000;1.852875
2837.000000;2.052600
2836.000000;2.440071
2835.000000;2.255085
2834.000000;2.055305
2833.000000;2.124915
2832.000000;2.365480
2831.000000;2.313018
2830.000000;2.012188
2829.000000;1.990408
2828.000000;2.085706
2827.000000;1.951376
2826.000000;1.849034
2825.000000;1.998539
2824.000000;2.415479
2823.000000;2.328380
2822.000000;2.351492
2821.000000;2.520161
2820.000000;2.223544
2819.000000;2.202564
2818.000000;2.357435
2817.000000;2.321615
2816.000000;2.258802
2815.000000;2.170412
2814.000000;1.967584
2813.000000;1.910806
2812.000000;2.249906
2811.000000;2.581755
2810.000000;2.146040
2809.000000;2.196825
2808.000000;2.285419
2807.000000;2.056887
2806.000000;1.974720
2805.000000;2.062552
2804.000000;2.041109
2803.000000;1.868508
2802.000000;1.804753
2801.000000;1.893545
2800.000000;2.136190
2799.000000;2.604864
2798.000000;3.099824
2797.000000;2.546049
2796.000000;2.253577
2795.000000;2.050517
2794.000000;1.912614
2793.000000;1.864382
2792.000000;1.981127
2791.000000;2.270652
2790.000000;2.103868
2789.000000;1.879399
2788.000000;1.902565
2787.000000;2.006476
2786.000000;1.977760
2785.000000;1.924902
2784.000000;2.024858
2783.000000;2.399575
2782.000000;2.695154
2781.000000;2.260356
2780.000000;2.095222
2779.000000;2.058484
2778.000000;2.191445
2777.000000;2.703057
2776.000000;2.596162
2775.000000;2.291244
2774.000000;2.421725
2773.000000;3.233847
2772.000000;2.310990
2771.000000;1.977152
2770.000000;1.903076
2769.000000;2.056211
2768.000000;2.157236
2767.000000;1.812697
2766.000000;1.698111
2765.000000;1.749242
2764.000000;2.040377
2763.000000;2.540910
2762.000000;2.175392
2761.000000;2.083042
2760.000000;2.180638
2759.000000;2.433738
2758.000000;2.448446
2757.000000;2.287491
2756.000000;2.665020
2755.000000;2.169248
2754.000000;1.772076
2753.000000;1.672532
2752.000000;1.732396
2751.000000;2.054395
2750.000000;2.279351
2749.000000;2.003245
2748.000000;2.029782
2747.000000;2.175538
2746.000000;2.336872
2745.000000;2.864915
2744.000000;2.373819
2743.000000;2.100186
2742.000000;2.253793
2741.000000;2.781368
2740.000000;2.329766
2739.000000;2.113686
2738.000000;2.276262
2737.000000;2.600409
2736.000000;2.392251
2735.000000;2.172044
2734.000000;2.123002
2733.000000;2.083506
2732.000000;2.201590
2731.000000;2.519386
2730.000000;2.171275
2729.000000;1.913798
2728.000000;1.953936
2727.000000;1.985759
2726.000000;1.837758
2725.000000;1.765011
2724.000000;1.847365
2723.000000;2.088403
2722.000000;2.653233
2721.000000;2.664836
2720.000000;2.255112
2719.000000;2.115404
2718.000000;2.175209
2717.000000;2.375724
2716.000000;2.208796
2715.000000;2.034366
2714.000000;1.979967
2713.000000;1.960525
2712.000000;1.993231
2711.000000;2.204902
2710.000000;2.519576
2709.000000;2.283952
2708.000000;2.176963
2707.000000;2.382752
2706.000000;2.630431
2705.000000;2.435440
2704.000000;2.342069
2703.000000;2.310672
2702.000000;2.204722
2701.000000;2.184682
2700.000000;2.279537
2699.000000;2.517046
2698.000000;2.970425
2697.000000;2.728767
2696.000000;2.445358
2695.000000;2.604200
2694.000000;2.767572
2693.000000;2.234681
2692.000000;2.035567
2691.000000;2.054557
2690.000000;2.361562
2689.000000;2.704105
2688.000000;2.229945
2687.000000;2.223984
2686.000000;2.428434
2685.000000;2.556636
2684.000000;2.697572
2683.000000;2.529405
2682.000000;2.584019
2681.000000;2.852772
2680.000000;2.396458
2679.000000;2.127746
2678.000000;2.203544
2677.000000;2.547099
2676.000000;2.235474
2675.000000;1.976072
2674.000000;2.054141
2673.000000;2.265275
2672.000000;2.234730
2671.000000;2.171486
2670.000000;2.280555
2669.000000;2.309291
2668.000000;2.256860
2667.000000;2.279722
2666.000000;2.263850
2665.000000;2.114777
2664.000000;2.133661
2663.000000;2.528540
2662.000000;2.392065
2661.000000;2.095247
2660.000000;2.047939
2659.000000;1.977663
2658.000000;1.938082
2657.000000;1.984635
2656.000000;1.985899
2655.000000;1.912337
2654.000000;1.968631
2653.000000;2.232295
2652.000000;2.164689
2651.000000;1.946881
2650.000000;1.990985
2649.000000;2.345129
2648.000000;2.591264
2647.000000;2.418684
2646.000000;2.504457
2645.000000;2.497548
2644.000000;2.541029
2643.000000;2.370580
2642.000000;2.058388
2641.000000;1.998485
2640.000000;2.332815
2639.000000;2.307475
2638.000000;1.884373
2637.000000;1.791697
2636.000000;1.924148
2635.000000;2.113113
2634.000000;1.960873
2633.000000;1.836306
2632.000000;1.837019
2631.000000;1.881983
2630.000000;2.165255
2629.000000;2.638282
2628.000000;2.135334
2627.000000;1.977791
2626.000000;2.200255
2625.000000;2.565014
2624.000000;2.143412
2623.000000;2.021198
2622.000000;2.541127
2621.000000;2.279950
2620.000000;1.838472
2619.000000;1.726543
2618.000000;1.681798
2617.000000;1.698515
2616.000000;1.803857
2615.000000;1.991449
2614.000000;1.867852
2613.000000;1.663549
2612.000000;1.605011
2611.000000;1.702083
2610.000000;1.897651
2609.000000;1.697985
2608.000000;1.499038
2607.000000;1.465682
2606.000000;1.605717
2605.000000;1.825559
2604.000000;1.704358
2603.000000;1.617524
2602.000000;1.700562
2601.000000;1.868871
2600.000000;1.944504
2599.000000;1.869094
2598.000000;1.781265
2597.000000;1.731081
2596.000000;1.746900
2595.000000;1.924302
2594.000000;2.456417
2593.000000;2.155578
2592.000000;1.888925
2591.000000;1.886464
2590.000000;1.820030
2589.000000;1.777084
2588.000000;1.849885
2587.000000;2.047149
2586.000000;2.443572
2585.000000;2.885825
2584.000000;2.263238
2583.000000;2.007657
2582.000000;1.958620
2581.000000;2.054722
2580.000000;2.280137
2579.000000;2.277992
2578.000000;2.206556
2577.000000;2.354223
2576.000000;2.637232
2575.000000;2.602038
2574.000000;2.582888
2573.000000;2.574178
2572.000000;2.437567
2571.000000;2.364919
2570.000000;2.465809
2569.000000;2.903570
2568.000000;2.851344
2567.000000;2.714206
2566.000000;2.873775
2565.000000;2.621344
2564.000000;2.548457
2563.000000;2.699113
2562.000000;2.640682
2561.000000;2.497679
2560.000000;2.449697
2559.000000;2.487364
2558.000000;2.595403
2557.000000;2.473452
2556.000000;2.288794
2555.000000;2.261108
2554.000000;2.451977
2553.000000;2.926524
2552.000000;3.358353
2551.000000;3.143028
2550.000000;2.666954
2549.000000;2.518520
2548.000000;2.561045
2547.000000;2.596068
2546.000000;2.573920
2545.000000;2.548865
2544.000000;2.544083
2543.000000;2.469382
2542.000000;2.438676
2541.000000;2.629149
2540.000000;2.689920
2539.000000;2.473354
2538.000000;2.531842
2537.000000;2.584167
2536.000000;2.326402
2535.000000;2.181370
2534.000000;2.159690
2533.000000;2.196972
2532.000000;2.292403
2531.000000;2.440232
2530.000000;2.618050
2529.000000;2.800938
2528.000000;2.968482
2527.000000;3.119505
2526.000000;2.980676
2525.000000;2.786094
2524.000000;2.864613
2523.000000;2.952488
2522.000000;2.817983
2521.000000;2.695884
2520.000000;2.539335
2519.000000;2.572133
2518.000000;2.914992
2517.000000;2.734088
2516.000000;2.419679
2515.000000;2.357465
2514.000000;2.395548
2513.000000;2.541560
2512.000000;2.782728
2511.000000;3.088803
2510.000000;3.684780
2509.000000;3.340336
2508.000000;2.828497
2507.000000;2.493746
2506.000000;2.290316
2505.000000;2.213425
2504.000000;2.225609
2503.000000;2.290431
2502.000000;2.382347
2501.000000;2.481416
2500.000000;2.555421
2499.000000;2.602737
2498.000000;2.589798
2497.000000;2.829586
2496.000000;3.288900
2495.000000;2.781033
2494.000000;2.672788
2493.000000;2.688803
2492.000000;2.662499
2491.000000;2.792747
2490.000000;3.124302
2489.000000;2.936167
2488.000000;2.655644
2487.000000;2.679104
2486.000000;2.918688
2485.000000;2.796109
2484.000000;2.587295
2483.000000;2.728458
2482.000000;2.738725
2481.000000;2.414531
2480.000000;2.280842
2479.000000;2.313691
2478.000000;2.530623
2477.000000;2.982798
2476.000000;2.997386
2475.000000;2.978738
2474.000000;3.063388
2473.000000;2.927391
2472.000000;2.884521
2471.000000;3.033401
2470.000000;3.345152
2469.000000;3.019194
2468.000000;2.811369
2467.000000;2.957190
2466.000000;3.311828
2465.000000;3.637264
2464.000000;3.412161
2463.000000;2.981184
2462.000000;2.814347
2461.000000;2.699512
2460.000000;2.617414
2459.000000;2.568430
2458.000000;2.549913
2457.000000;2.585431
2456.000000;2.753698
2455.000000;3.200903
2454.000000;3.033120
2453.000000;2.911463
2452.000000;2.988203
2451.000000;2.757905
2450.000000;2.621167
2449.000000;2.682389
2448.000000;2.692071
2447.000000;2.485069
2446.000000;2.387373
2445.000000;2.440676
2444.000000;2.569649
2443.000000;2.685796
2442.000000;2.755419
2441.000000;2.779042
2440.000000;2.684625
2439.000000;2.528613
2438.000000;2.415000
2437.000000;2.398293
2436.000000;2.520496
2435.000000;2.698703
2434.000000;2.636798
2433.000000;2.571636
2432.000000;2.632347
2431.000000;2.749437
2430.000000;2.999816
2429.000000;3.063354
2428.000000;2.828469
2427.000000;2.696770
2426.000000;2.593275
2425.000000;2.457221
2424.000000;2.342345
2423.000000;2.283684
2422.000000;2.260800
2421.000000;2.271083
2420.000000;2.333641
2419.000000;2.431988
2418.000000;2.519538
2417.000000;2.604484
2416.000000;2.738368
2415.000000;3.059696
2414.000000;3.263733
2413.000000;2.866439
2412.000000;2.708992
2411.000000;2.669889
2410.000000;2.608983
2409.000000;2.578215
2408.000000;2.609142
2407.000000;2.600168
2406.000000;2.462707
2405.000000;2.330675
2404.000000;2.254763
2403.000000;2.258971
2402.000000;2.329887
2401.000000;2.550979
2400.000000;3.054258
2399.000000;2.927535
2398.000000;2.796074
2397.000000;2.908078
2396.000000;3.010177
2395.000000;2.785900
2394.000000;2.491694
2393.000000;2.380855
2392.000000;2.393384
2391.000000;2.513977
2390.000000;2.545445
2389.000000;2.450759
2388.000000;2.481106
2387.000000;2.744657
2386.000000;3.301097
2385.000000;3.106066
2384.000000;2.896951
2383.000000;2.890249
2382.000000;2.918395
2381.000000;2.967587
2380.000000;3.075671
2379.000000;3.601557
2378.000000;3.392290
2377.000000;3.118321
2376.000000;3.127734
2375.000000;3.060911
2374.000000;3.050748
2373.000000;3.157008
2372.000000;3.351381
2371.000000;3.460965
2370.000000;3.467977
2369.000000;3.474911
2368.000000;3.413735
2367.000000;3.372213
2366.000000;3.406858
2365.000000;3.578867
2364.000000;3.904830
2363.000000;3.744909
2362.000000;3.477763
2361.000000;3.381630
2360.000000;3.373368
2359.000000;3.398486
2358.000000;3.388195
2357.000000;3.374836
2356.000000;3.466304
2355.000000;3.626774
2354.000000;3.781271
2353.000000;4.328217
2352.000000;4.176551
2351.000000;4.426248
2350.000000;3.740582
2349.000000;3.388765
2348.000000;3.717537
2347.000000;3.746848
2346.000000;3.552190
2345.000000;3.524320
2344.000000;3.379882
2343.000000;3.314814
2342.000000;3.372943
2341.000000;3.569029
2340.000000;3.765533
2339.000000;3.821600
2338.000000;3.674290
2337.000000;3.467493
2336.000000;3.317053
2335.000000;3.248128
2334.000000;3.318270
2333.000000;3.590028
2332.000000;3.870144
2331.000000;4.145210
2330.000000;4.403572
2329.000000;3.727404
2328.000000;3.384409
2327.000000;3.176726
2326.000000;3.064022
2325.000000;3.044578
2324.000000;3.078378
2323.000000;3.121412
2322.000000;3.159167
2321.000000;3.195993
2320.000000;3.178653
2319.000000;3.132385
2318.000000;3.133312
2317.000000;3.110816
2316.000000;3.035720
2315.000000;2.996907
2314.000000;3.071939
2313.000000;3.239273
2312.000000;3.223732
2311.000000;3.078560
2310.000000;3.054052
2309.000000;3.193396
2308.000000;3.557433
2307.000000;3.888320
2306.000000;3.513203
2305.000000;3.458403
2304.000000;3.197923
2303.000000;2.797338
2302.000000;2.601594
2301.000000;2.540106
2300.000000;2.599878
2299.000000;2.778217
2298.000000;3.058598
2297.000000;2.919687
2296.000000;2.699851
2295.000000;2.602102
2294.000000;2.674678
2293.000000;3.199950
2292.000000;2.943180
2291.000000;2.712200
2290.000000;3.049226
2289.000000;3.280833
2288.000000;2.852304
2287.000000;2.677670
2286.000000;2.524751
2285.000000;2.355556
2284.000000;2.259531
2283.000000;2.315353
2282.000000;2.569591
2281.000000;2.428963
2280.000000;2.103393
2279.000000;1.964372
2278.000000;1.931599
2277.000000;1.982105
2276.000000;2.081728
2275.000000;2.164367
2274.000000;2.429651
2273.000000;2.800377
2272.000000;2.340287
2271.000000;2.134154
2270.000000;2.152643
2269.000000;2.284902
2268.000000;2.331277
2267.000000;2.216996
2266.000000;2.192158
2265.000000;2.346803
2264.000000;2.706808
2263.000000;2.732216
2262.000000;2.630033
2261.000000;2.649037
2260.000000;2.612708
2259.000000;2.611671
2258.000000;2.634613
2257.000000;2.685603
2256.000000;2.708554
2255.000000;2.581332
2254.000000;2.434898
2253.000000;2.400047
2252.000000;2.525752
2251.000000;2.930769
2250.000000;2.967415
2249.000000;2.691270
2248.000000;2.901073
2247.000000;3.152552
2246.000000;2.822086
2245.000000;2.647619
2244.000000;2.640100
2243.000000;2.696543
2242.000000;2.831515
2241.000000;3.174141
2240.000000;2.848268
2239.000000;2.517481
2238.000000;2.434548
2237.000000;2.511287
2236.000000;2.654965
2235.000000;2.646873
2234.000000;2.543405
2233.000000;2.352359
2232.000000;2.174661
2231.000000;2.108969
2230.000000;2.200335
2229.000000;2.276910
2228.000000;2.147458
2227.000000;2.106684
2226.000000;2.214455
2225.000000;2.606287
2224.000000;3.108941
2223.000000;2.689277
2222.000000;2.734079
2221.000000;2.850144
2220.000000;2.739049
2219.000000;2.767922
2218.000000;3.012535
2217.000000;2.676762
2216.000000;2.383865
2215.000000;2.336873
2214.000000;2.412029
2213.000000;2.545578
2212.000000;2.756759
2211.000000;3.040694
2210.000000;2.665487
2209.000000;2.486122
2208.000000;2.511089
2207.000000;2.677251
2206.000000;3.025230
2205.000000;2.798582
2204.000000;2.553586
2203.000000;2.503850
2202.000000;2.527737
2201.000000;2.899121
2200.000000;3.274758
2199.000000;2.615845
2198.000000;2.515224
2197.000000;2.542554
2196.000000;2.505434
2195.000000;2.424564
2194.000000;2.374145
2193.000000;2.470387
2192.000000;2.824777
2191.000000;2.958842
2190.000000;2.726292
2189.000000;2.796054
2188.000000;2.869627
2187.000000;2.748015
2186.000000;2.853363
2185.000000;3.451213
2184.000000;2.984738
2183.000000;2.780159
2182.000000;2.991972
2181.000000;3.135151
2180.000000;3.294185
2179.000000;3.164551
2178.000000;2.607284
2177.000000;2.369103
2176.000000;2.314669
2175.000000;2.360171
2174.000000;2.495465
2173.000000;2.635735
2172.000000;2.687762
2171.000000;2.711520
2170.000000;2.788308
2169.000000;3.127610
2168.000000;3.344554
2167.000000;2.984390
2166.000000;2.840105
2165.000000;2.565175
2164.000000;2.417899
2163.000000;2.474288
2162.000000;2.720974
2161.000000;3.086373
2160.000000;2.932424
2159.000000;2.666943
2158.000000;2.532841
2157.000000;2.520100
2156.000000;2.654384
2155.000000;2.795892
2154.000000;2.759626
2153.000000;2.780297
2152.000000;2.819092
2151.000000;2.718319
2150.000000;2.598889
2149.000000;2.524752
2148.000000;2.530931
2147.000000;2.649835
2146.000000;2.881022
2145.000000;3.233596
2144.000000;3.394025
2143.000000;2.966185
2142.000000;2.772648
2141.000000;2.745951
2140.000000;2.688085
2139.000000;2.611090
2138.000000;2.629356
2137.000000;2.958050
2136.000000;3.118781
2135.000000;2.667473
2134.000000;2.516074
2133.000000;2.582010
2132.000000;2.734616
2131.000000;2.831492
2130.000000;3.087790
2129.000000;2.871694
2128.000000;2.501892
2127.000000;2.342863
2126.000000;2.324524
2125.000000;2.410867
2124.000000;2.718200
2123.000000;3.455375
2122.000000;2.881058
2121.000000;2.668256
2120.000000;2.654257
2119.000000;2.695389
2118.000000;2.773856
2117.000000;2.775899
2116.000000;2.734302
2115.000000;2.676755
2114.000000;2.668502
2113.000000;2.686104
2112.000000;2.679002
2111.000000;2.732995
2110.000000;3.077246
2109.000000;3.180283
2108.000000;2.857408
2107.000000;2.809664
2106.000000;2.797739
2105.000000;2.873756
2104.000000;3.266460
2103.000000;2.972366
2102.000000;2.567236
2101.000000;2.415433
2100.000000;2.404916
2099.000000;2.507338
2098.000000;2.649746
2097.000000;2.717279
2096.000000;2.739536
2095.000000;2.792151
2094.000000;3.086453
2093.000000;3.338451
2092.000000;2.889591
2091.000000;2.719537
2090.000000;2.670151
2089.000000;2.664593
2088.000000;2.700614
2087.000000;2.778689
2086.000000;2.900139
2085.000000;3.205861
2084.000000;3.220112
2083.000000;2.848258
2082.000000;2.752809
2081.000000;2.758867
2080.000000;2.860767
2079.000000;3.039609
2078.000000;3.008396
2077.000000;2.811214
2076.000000;2.635577
2075.000000;2.552618
2074.000000;2.553345
2073.000000;2.585442
2072.000000;2.598031
2071.000000;2.599822
2070.000000;2.650250
2069.000000;2.752294
2068.000000;2.865058
2067.000000;2.959923
2066.000000;3.212852
2065.000000;3.723914
2064.000000;3.212197
2063.000000;2.834527
2062.000000;2.702625
2061.000000;2.776193
2060.000000;3.060221
2059.000000;3.492504
2058.000000;3.682899
2057.000000;3.395123
2056.000000;3.148412
2055.000000;3.063692
2054.000000;3.078055
2053.000000;3.117504
2052.000000;3.087572
2051.000000;3.155726
2050.000000;3.432715
2049.000000;3.089822
2048.000000;2.884307
2047.000000;2.848675
2046.000000;2.739077
2045.000000;2.667772
2044.000000;2.669874
2043.000000;2.697393
2042.000000;2.745119
2041.000000;2.886844
2040.000000;3.335449
2039.000000;3.779896
2038.000000;3.026449
2037.000000;2.679330
2036.000000;2.546924
2035.000000;2.554597
2034.000000;2.724114
2033.000000;3.221989
2032.000000;3.552388
2031.000000;3.380390
2030.000000;3.284290
2029.000000;3.006261
2028.000000;3.054743
2027.000000;3.440350
2026.000000;3.729660
2025.000000;3.275849
2024.000000;3.191737
2023.000000;3.336578
2022.000000;3.329947
2021.000000;3.380131
2020.000000;3.156309
2019.000000;2.808277
2018.000000;2.609335
2017.000000;2.549678
2016.000000;2.744782
2015.000000;3.156229
2014.000000;2.834640
2013.000000;2.605758
2012.000000;2.563555
2011.000000;2.612247
2010.000000;2.898093
2009.000000;3.182168
2008.000000;2.953353
2007.000000;3.076716
2006.000000;2.969341
2005.000000;2.653350
2004.000000;2.583167
2003.000000;2.526207
2002.000000;2.460479
2001.000000;2.462857
2000.000000;2.639602
1999.000000;2.924241
1998.000000;3.129471
1997.000000;3.322734
1996.000000;2.769117
1995.000000;2.553991
1994.000000;2.578921
1993.000000;2.596902
1992.000000;2.551412
1991.000000;2.496572
1990.000000;2.486779
1989.000000;2.517963
1988.000000;2.581556
1987.000000;2.714464
1986.000000;2.881975
1985.000000;2.851788
1984.000000;2.757967
1983.000000;2.589222
1982.000000;2.388654
1981.000000;2.295625
1980.000000;2.303892
1979.000000;2.374983
1978.000000;2.471111
1977.000000;2.556751
1976.000000;2.648567
1975.000000;2.737587
1974.000000;2.841497
1973.000000;2.912829
1972.000000;2.959821
1971.000000;3.087068
1970.000000;3.256039
1969.000000;3.758235
1968.000000;3.236351
1967.000000;2.850714
1966.000000;2.821638
1965.000000;2.879359
1964.000000;2.854392
1963.000000;2.793764
1962.000000;2.758952
1961.000000;2.676729
1960.000000;2.599743
1959.000000;2.609589
1958.000000;2.795950
1957.000000;3.026742
1956.000000;2.915064
1955.000000;3.119727
1954.000000;3.331873
1953.000000;2.863453
1952.000000;2.699294
1951.000000;2.594559
1950.000000;2.514051
1949.000000;2.508963
1948.000000;2.580842
1947.000000;2.721343
1946.000000;2.818796
1945.000000;2.776689
1944.000000;2.767102
1943.000000;2.963715
1942.000000;3.064667
1941.000000;3.035460
1940.000000;3.337320
1939.000000;3.327551
1938.000000;3.159086
1937.000000;3.170353
1936.000000;3.002070
1935.000000;2.798925
1934.000000;2.688481
1933.000000;2.727779
1932.000000;2.946828
1931.000000;3.244216
1930.000000;3.123007
1929.000000;2.777729
1928.000000;2.578415
1927.000000;2.557424
1926.000000;2.688277
1925.000000;2.895438
1924.000000;3.098181
1923.000000;3.330595
1922.000000;3.434013
1921.000000;3.272370
1920.000000;2.989358
1919.000000;2.691490
1918.000000;2.495645
1917.000000;2.454891
1916.000000;2.573057
1915.000000;2.807056
1914.000000;3.176342
1913.000000;3.317880
1912.000000;3.111515
1911.000000;3.100967
1910.000000;3.044641
1909.000000;3.007904
1908.000000;3.097961
1907.000000;3.232672
1906.000000;3.670060
1905.000000;4.084464
1904.000000;3.865408
1903.000000;3.376674
1902.000000;2.831702
1901.000000;2.612264
1900.000000;2.541607
1899.000000;2.538150
1898.000000;2.601545
1897.000000;2.752350
1896.000000;2.790336
1895.000000;2.650080
1894.000000;2.583646
1893.000000;2.545383
1892.000000;2.505582
1891.000000;2.507870
1890.000000;2.590508
1889.000000;2.775219
1888.000000;2.970816
1887.000000;2.895097
1886.000000;2.662208
1885.000000;2.494369
1884.000000;2.430843
1883.000000;2.444806
1882.000000;2.478991
1881.000000;2.565971
1880.000000;2.768127
1879.000000;2.838630
1878.000000;2.735059
1877.000000;2.758335
1876.000000;2.859326
1875.000000;2.989261
1874.000000;3.220206
1873.000000;3.619314
1872.000000;4.135804
1871.000000;3.504930
1870.000000;3.003617
1869.000000;2.740288
1868.000000;2.605451
1867.000000;2.551172
1866.000000;2.547992
1865.000000;2.576869
1864.000000;2.600682
1863.000000;2.572091
1862.000000;2.499281
1861.000000;2.417748
1860.000000;2.359421
1859.000000;2.324473
1858.000000;2.340740
1857.000000;2.448700
1856.000000;2.821081
1855.000000;3.138573
1854.000000;2.643629
1853.000000;2.490816
1852.000000;2.475551
1851.000000;2.543383
1850.000000;2.619855
1849.000000;2.599299
1848.000000;2.593315
1847.000000;2.577258
1846.000000;2.578473
1845.000000;2.609932
1844.000000;2.785612
1843.000000;3.172129
1842.000000;3.035307
1841.000000;2.865225
1840.000000;2.753761
1839.000000;2.579545
1838.000000;2.497352
1837.000000;2.539739
1836.000000;2.635445
1835.000000;2.725010
1834.000000;3.071517
1833.000000;3.083423
1832.000000;2.753667
1831.000000;2.591691
1830.000000;2.418662
1829.000000;2.376434
1828.000000;2.474938
1827.000000;2.596447
1826.000000;2.580200
1825.000000;2.489133
1824.000000;2.499617
1823.000000;2.597192
1822.000000;2.600390
1821.000000;2.636459
1820.000000;3.060405
1819.000000;2.996519
1818.000000;2.627828
1817.000000;2.722750
1816.000000;2.937784
1815.000000;2.893364
1814.000000;2.730884
1813.000000;2.716196
1812.000000;2.964341
1811.000000;2.863437
1810.000000;2.543396
1809.000000;2.417481
1808.000000;2.464453
1807.000000;2.641028
1806.000000;2.673875
1805.000000;2.565554
1804.000000;2.530491
1803.000000;2.515188
1802.000000;2.570123
1801.000000;2.664686
1800.000000;2.886638
1799.000000;3.393063
1798.000000;2.705194
1797.000000;2.361502
1796.000000;2.271943
1795.000000;2.349363
1794.000000;2.733136
1793.000000;2.834530
1792.000000;2.482195
1791.000000;2.483377
1790.000000;2.666178
1789.000000;2.649741
1788.000000;2.558102
1787.000000;2.672227
1786.000000;2.537550
1785.000000;2.401676
1784.000000;2.529552
1783.000000;2.593845
1782.000000;2.463452
1781.000000;2.529929
1780.000000;2.928738
1779.000000;2.834946
1778.000000;2.862321
1777.000000;2.907264
1776.000000;2.498952
1775.000000;2.402248
1774.000000;2.455274
1773.000000;2.439768
1772.000000;2.371041
1771.000000;2.441688
1770.000000;2.760477
1769.000000;2.771916
1768.000000;2.483700
1767.000000;2.477378
1766.000000;2.780789
1765.000000;2.848695
1764.000000;2.498933
1763.000000;2.405866
1762.000000;2.410827
1761.000000;2.358815
1760.000000;2.479889
1759.000000;2.779512
1758.000000;2.505247
1757.000000;2.383577
1756.000000;2.571018
1755.000000;2.433835
1754.000000;2.443208
1753.000000;3.079672
1752.000000;2.490725
1751.000000;2.196697
1750.000000;2.213960
1749.000000;2.337986
1748.000000;2.560545
1747.000000;2.686992
1746.000000;2.630073
1745.000000;2.682569
1744.000000;2.890041
1743.000000;2.723014
1742.000000;2.599601
1741.000000;2.678667
1740.000000;2.826701
1739.000000;2.970553
1738.000000;3.203951
1737.000000;2.937285
1736.000000;2.564386
1735.000000;2.407597
1734.000000;2.465549
1733.000000;2.613028
1732.000000;2.410680
1731.000000;2.238612
1730.000000;2.231439
1729.000000;2.319970
1728.000000;2.449673
1727.000000;2.494029
1726.000000;2.441508
1725.000000;2.423044
1724.000000;2.427300
1723.000000;2.340198
1722.000000;2.304563
1721.000000;2.397048
1720.000000;2.378300
1719.000000;2.209803
1718.000000;2.130063
1717.000000;2.167838
1716.000000;2.280838
1715.000000;2.441908
1714.000000;2.666005
1713.000000;2.881526
1712.000000;2.736331
1711.000000;2.435301
1710.000000;2.236150
1709.000000;2.230785
1708.000000;2.489757
1707.000000;2.526115
1706.000000;2.320667
1705.000000;2.341797
1704.000000;2.561269
1703.000000;3.026095
1702.000000;2.804485
1701.000000;2.573560
1700.000000;2.613177
1699.000000;2.713631
1698.000000;2.758250
1697.000000;2.619308
1696.000000;2.497765
1695.000000;2.444840
1694.000000;2.385949
1693.000000;2.349774
1692.000000;2.351980
1691.000000;2.323656
1690.000000;2.273497
1689.000000;2.218184
1688.000000;2.153762
1687.000000;2.072794
1686.000000;1.995344
1685.000000;1.986010
1684.000000;2.182598
1683.000000;2.622286
1682.000000;2.517486
1681.000000;2.315566
1680.000000;2.265191
1679.000000;2.210737
1678.000000;2.253162
1677.000000;2.278480
1676.000000;2.252228
1675.000000;2.120937
1674.000000;2.016823
1673.000000;2.004709
1672.000000;2.193714
1671.000000;2.936478
1670.000000;2.409830
1669.000000;2.166130
1668.000000;2.219761
1667.000000;2.294193
1666.000000;2.493493
1665.000000;2.624449
1664.000000;2.418765
1663.000000;2.272734
1662.000000;2.422846
1661.000000;2.870278
1660.000000;2.512542
1659.000000;2.237107
1658.000000;2.217924
1657.000000;2.177946
1656.000000;2.081504
1655.000000;2.054960
1654.000000;2.102535
1653.000000;2.127940
1652.000000;2.109197
1651.000000;2.108000
1650.000000;2.099790
1649.000000;2.171601
1648.000000;2.419296
1647.000000;2.262091
1646.000000;1.996434
1645.000000;1.974994
1644.000000;2.064001
1643.000000;2.254327
1642.000000;2.786055
1641.000000;2.445662
1640.000000;2.133381
1639.000000;2.142940
1638.000000;2.171091
1637.000000;2.089143
1636.000000;2.024456
1635.000000;2.180792
1634.000000;2.613238
1633.000000;2.325876
1632.000000;2.039145
1631.000000;2.119406
1630.000000;2.315690
1629.000000;2.037821
1628.000000;1.849949
1627.000000;1.870805
1626.000000;2.003193
1625.000000;2.427786
1624.000000;2.601432
1623.000000;2.068190
1622.000000;1.884541
1621.000000;1.867147
1620.000000;2.034837
1619.000000;2.300038
1618.000000;2.225296
1617.000000;2.269272
1616.000000;2.148490
1615.000000;1.972000
1614.000000;2.032473
1613.000000;2.390756
1612.000000;2.681846
1611.000000;2.533522
1610.000000;2.763580
1609.000000;2.459910
1608.000000;2.243613
1607.000000;2.123822
1606.000000;2.474310
1605.000000;2.616475
1604.000000;1.913793
1603.000000;1.801934
1602.000000;1.847759
1601.000000;1.942100
1600.000000;2.003225
1599.000000;2.043654
1598.000000;2.119272
1597.000000;2.116847
1596.000000;2.063021
1595.000000;2.021098
1594.000000;2.060845
1593.000000;2.322799
1592.000000;2.785291
1591.000000;2.378058
1590.000000;2.279864
1589.000000;2.353941
1588.000000;2.292349
1587.000000;2.280686
1586.000000;2.325213
1585.000000;2.310802
1584.000000;2.199031
1583.000000;2.121594
1582.000000;2.155036
1581.000000;2.391234
1580.000000;2.658595
1579.000000;2.717863
1578.000000;2.516040
1577.000000;2.097708
1576.000000;1.959511
1575.000000;2.081587
1574.000000;2.317885
1573.000000;2.285889
1572.000000;2.230662
1571.000000;2.352687
1570.000000;2.485303
1569.000000;2.550128
1568.000000;2.624229
1567.000000;2.812640
1566.000000;2.868414
1565.000000;2.547923
1564.000000;2.273904
1563.000000;2.145600
1562.000000;2.125170
1561.000000;2.168868
1560.000000;2.072055
1559.000000;1.896119
1558.000000;1.844971
1557.000000;1.897796
1556.000000;2.025061
1555.000000;2.143509
1554.000000;2.262756
1553.000000;2.261901
1552.000000;1.972463
1551.000000;1.805126
1550.000000;1.740040
1549.000000;1.728591
1548.000000;1.770087
1547.000000;1.795096
1546.000000;1.797377
1545.000000;1.880115
1544.000000;1.988355
1543.000000;1.959738
1542.000000;1.998564
1541.000000;2.317527
1540.000000;2.540638
1539.000000;2.272816
1538.000000;2.179826
1537.000000;2.109127
1536.000000;2.079603
1535.000000;2.193312
1534.000000;2.534125
1533.000000;3.258780
1532.000000;2.799445
1531.000000;2.313117
1530.000000;2.010565
1529.000000;1.823480
1528.000000;1.725513
1527.000000;1.707317
1526.000000;1.772590
1525.000000;1.906941
1524.000000;2.058446
1523.000000;2.102860
1522.000000;2.045609
1521.000000;2.052694
1520.000000;2.079073
1519.000000;2.069838
1518.000000;2.223152
1517.000000;2.409106
1516.000000;2.175512
1515.000000;2.112184
1514.000000;2.319698
1513.000000;2.406547
1512.000000;2.134958
1511.000000;1.885595
1510.000000;1.777236
1509.000000;1.763412
1508.000000;1.802403
1507.000000;1.842093
1506.000000;1.807420
1505.000000;1.769757
1504.000000;1.903177
1503.000000;2.313319
1502.000000;2.151894
1501.000000;1.843105
1500.000000;1.711412
1499.000000;1.636997
1498.000000;1.652748
1497.000000;1.790296
1496.000000;2.070212
1495.000000;2.280258
1494.000000;2.233816
1493.000000;2.142858
1492.000000;2.043332
1491.000000;1.950531
1490.000000;1.885396
1489.000000;1.898930
1488.000000;2.003608
1487.000000;2.027066
1486.000000;1.951638
1485.000000;1.910505
1484.000000;2.028350
1483.000000;2.369991
1482.000000;2.047772
1481.000000;1.764669
1480.000000;1.696859
1479.000000;1.746509
1478.000000;1.933378
1477.000000;2.170479
1476.000000;2.147071
1475.000000;2.021665
1474.000000;2.179459
1473.000000;2.631337
1472.000000;2.221271
1471.000000;2.028314
1470.000000;1.866959
1469.000000;1.683918
1468.000000;1.642784
1467.000000;1.793888
1466.000000;2.341824
1465.000000;2.271390
1464.000000;1.913323
1463.000000;1.802461
1462.000000;1.660155
1461.000000;1.578828
1460.000000;1.564330
1459.000000;1.624608
1458.000000;1.801507
1457.000000;1.777055
1456.000000;1.580996
1455.000000;1.539398
1454.000000;1.670465
1453.000000;1.945867
1452.000000;2.006564
1451.000000;1.895079
1450.000000;1.900909
1449.000000;1.924192
1448.000000;1.851692
1447.000000;1.888410
1446.000000;1.932638
1445.000000;1.559181
1444.000000;1.329977
1443.000000;1.306695
1442.000000;1.505456
1441.000000;1.980217
1440.000000;1.950181
1439.000000;1.696790
1438.000000;1.613531
1437.000000;1.627266
1436.000000;1.760984
1435.000000;1.767369
1434.000000;1.584626
1433.000000;1.439021
1432.000000;1.411702
1431.000000;1.487588
1430.000000;1.629349
1429.000000;1.753340
1428.000000;1.994817
1427.000000;2.390592
1426.000000;1.781354
1425.000000;1.540831
1424.000000;1.526315
1423.000000;1.666497
1422.000000;2.106227
1421.000000;2.290749
1420.000000;1.840376
1419.000000;1.744292
1418.000000;1.787697
1417.000000;1.894119
1416.000000;1.956716
1415.000000;1.891951
1414.000000;1.817687
1413.000000;1.773400
1412.000000;1.808457
1411.000000;1.957747
1410.000000;2.357210
1409.000000;2.592579
1408.000000;2.324754
1407.000000;2.308899
1406.000000;2.581021
1405.000000;2.811527
1404.000000;2.754357
1403.000000;2.770934
1402.000000;2.267009
1401.000000;2.005387
1400.000000;1.941902
1399.000000;1.996618
1398.000000;2.175850
1397.000000;2.427151
1396.000000;2.466874
1395.000000;2.432026
1394.000000;2.518287
1393.000000;2.671425
1392.000000;2.989071
1391.000000;2.527877
1390.000000;2.192786
1389.000000;2.089082
1388.000000;2.059656
1387.000000;2.023906
1386.000000;2.018987
1385.000000;2.026772
1384.000000;2.130046
1383.000000;2.530998
1382.000000;2.189528
1381.000000;1.877180
1380.000000;1.926607
1379.000000;2.268118
1378.000000;2.373820
1377.000000;2.265862
1376.000000;2.071731
1375.000000;1.816145
1374.000000;1.749364
1373.000000;1.809547
1372.000000;1.877351
1371.000000;1.910741
1370.000000;2.197052
1369.000000;2.381721
1368.000000;1.862040
1367.000000;1.758330
1366.000000;1.829397
1365.000000;1.954089
1364.000000;2.021214
1363.000000;1.988221
1362.000000;1.987564
1361.000000;2.136167
1360.000000;2.547254
1359.000000;3.094941
1358.000000;2.726520
1357.000000;2.430578
1356.000000;3.062549
1355.000000;2.519592
1354.000000;1.969700
1353.000000;1.820018
1352.000000;1.747414
1351.000000;1.718347
1350.000000;1.732747
1349.000000;1.862478
1348.000000;2.162718
1347.000000;2.262840
1346.000000;2.209346
1345.000000;2.462887
1344.000000;3.242534
1343.000000;2.529509
1342.000000;2.151129
1341.000000;2.019532
1340.000000;2.053226
1339.000000;2.253830
1338.000000;2.719204
1337.000000;3.368618
1336.000000;3.056831
1335.000000;3.277725
1334.000000;2.841498
1333.000000;2.501115
1332.000000;2.383371
1331.000000;2.334905
1330.000000;2.320793
1329.000000;2.301752
1328.000000;2.286404
1327.000000;2.274623
1326.000000;2.228766
1325.000000;2.149188
1324.000000;2.091465
1323.000000;2.090588
1322.000000;2.130204
1321.000000;2.163059
1320.000000;2.218330
1319.000000;2.373982
1318.000000;2.589970
1317.000000;2.697387
1316.000000;2.685215
1315.000000;2.522335
1314.000000;2.318186
1313.000000;2.199158
1312.000000;2.199521
1311.000000;2.276605
1310.000000;2.329137
1309.000000;2.403090
1308.000000;2.537807
1307.000000;2.502164
1306.000000;2.459857
1305.000000;2.802374
1304.000000;3.001308
1303.000000;2.651293
1302.000000;2.581726
1301.000000;2.659927
1300.000000;2.973239
1299.000000;2.507754
1298.000000;2.189877
1297.000000;2.124265
1296.000000;2.213166
1295.000000;2.499769
1294.000000;2.597964
1293.000000;2.503692
1292.000000;2.541792
1291.000000;2.420603
1290.000000;2.314840
1289.000000;2.346248
1288.000000;2.560932
1287.000000;2.719733
1286.000000;2.388618
1285.000000;2.244935
1284.000000;2.266996
1283.000000;2.401051
1282.000000;2.593251
1281.000000;2.931431
1280.000000;3.328749
1279.000000;2.852734
1278.000000;2.642981
1277.000000;2.550020
1276.000000;2.473177
1275.000000;2.414561
1274.000000;2.356299
1273.000000;2.351395
1272.000000;2.447331
1271.000000;2.750016
1270.000000;3.442103
1269.000000;2.968638
1268.000000;2.741022
1267.000000;2.698500
1266.000000;2.759078
1265.000000;2.959926
1264.000000;3.264708
1263.000000;3.717242
1262.000000;3.014890
1261.000000;2.739257
1260.000000;2.606856
1259.000000;2.549244
1258.000000;2.540841
1257.000000;2.541761
1256.000000;2.546987
1255.000000;2.557380
1254.000000;2.651601
1253.000000;2.666695
1252.000000;2.528159
1251.000000;2.477011
1250.000000;2.607731
1249.000000;2.972719
1248.000000;2.857885
1247.000000;2.601492
1246.000000;2.524094
1245.000000;2.503754
1244.000000;2.580739
1243.000000;2.639882
1242.000000;2.714063
1241.000000;3.054182
1240.000000;2.985213
1239.000000;2.712751
1238.000000;2.663589
1237.000000;2.668267
1236.000000;2.669225
1235.000000;2.678428
1234.000000;2.808246
1233.000000;3.197961
1232.000000;3.144835
1231.000000;2.954772
1230.000000;2.911331
1229.000000;2.732182
1228.000000;2.640372
1227.000000;2.577569
1226.000000;2.468883
1225.000000;2.409927
1224.000000;2.436228
1223.000000;2.467817
1222.000000;2.394735
1221.000000;2.310475
1220.000000;2.315927
1219.000000;2.450702
1218.000000;2.619988
1217.000000;2.723225
1216.000000;2.917500
1215.000000;2.802966
1214.000000;2.694005
1213.000000;2.702446
1212.000000;2.599641
1211.000000;2.599590
1210.000000;2.788988
1209.000000;2.824550
1208.000000;2.717424
1207.000000;2.846057
1206.000000;3.324956
1205.000000;3.590446
1204.000000;2.872069
1203.000000;2.549804
1202.000000;2.466010
1201.000000;2.581545
1200.000000;3.033784
