Criado como novo conjunto de dados;"0307_DANIEL.spp","76506.1 Secs"
cm-1;Abs
10000.000000;0.542871
9999.000000;0.542149
9998.000000;0.541576
9997.000000;0.541163
9996.000000;0.540856
9995.000000;0.540577
9994.000000;0.540179
9993.000000;0.539494
9992.000000;0.538468
9991.000000;0.537224
9990.000000;0.535938
9989.000000;0.534710
9988.000000;0.533590
9987.000000;0.532645
9986.000000;0.531885
9985.000000;0.531208
9984.000000;0.530512
9983.000000;0.529845
9982.000000;0.529334
9981.000000;0.529002
9980.000000;0.528726
9979.000000;0.528331
9978.000000;0.527661
9977.000000;0.526640
9976.000000;0.525393
9975.000000;0.524229
9974.000000;0.523353
9973.000000;0.522659
9972.000000;0.521932
9971.000000;0.521203
9970.000000;0.520674
9969.000000;0.520306
9968.000000;0.519738
9967.000000;0.518717
9966.000000;0.517419
9965.000000;0.516206
9964.000000;0.515229
9963.000000;0.514393
9962.000000;0.513582
9961.000000;0.512742
9960.000000;0.511827
9959.000000;0.510843
9958.000000;0.509939
9957.000000;0.509293
9956.000000;0.508883
9955.000000;0.508491
9954.000000;0.507966
9953.000000;0.507378
9952.000000;0.506849
9951.000000;0.506305
9950.000000;0.505492
9949.000000;0.504254
9948.000000;0.502722
9947.000000;0.501206
9946.000000;0.499916
9945.000000;0.498858
9944.000000;0.497973
9943.000000;0.497265
9942.000000;0.496690
9941.000000;0.496009
9940.000000;0.494961
9939.000000;0.493638
9938.000000;0.492531
9937.000000;0.492051
9936.000000;0.492065
9935.000000;0.492033
9934.000000;0.491576
9933.000000;0.490758
9932.000000;0.489842
9931.000000;0.488909
9930.000000;0.487813
9929.000000;0.486437
9928.000000;0.484913
9927.000000;0.483565
9926.000000;0.482650
9925.000000;0.482121
9924.000000;0.481646
9923.000000;0.480925
9922.000000;0.479995
9921.000000;0.479175
9920.000000;0.478659
9919.000000;0.478232
9918.000000;0.477429
9917.000000;0.476001
9916.000000;0.474200
9915.000000;0.472578
9914.000000;0.471537
9913.000000;0.471052
9912.000000;0.470800
9911.000000;0.470464
9910.000000;0.469883
9909.000000;0.468979
9908.000000;0.467735
9907.000000;0.466302
9906.000000;0.465006
9905.000000;0.464076
9904.000000;0.463400
9903.000000;0.462672
9902.000000;0.461764
9901.000000;0.460807
9900.000000;0.459906
9899.000000;0.458985
9898.000000;0.457998
9897.000000;0.457086
9896.000000;0.456358
9895.000000;0.455620
9894.000000;0.454536
9893.000000;0.453076
9892.000000;0.451599
9891.000000;0.450457
9890.000000;0.449609
9889.000000;0.448721
9888.000000;0.447562
9887.000000;0.446247
9886.000000;0.445102
9885.000000;0.444318
9884.000000;0.443732
9883.000000;0.442978
9882.000000;0.441875
9881.000000;0.440647
9880.000000;0.439659
9879.000000;0.438975
9878.000000;0.438298
9877.000000;0.437363
9876.000000;0.436235
9875.000000;0.435157
9874.000000;0.434216
9873.000000;0.433286
9872.000000;0.432242
9871.000000;0.431092
9870.000000;0.429913
9869.000000;0.428757
9868.000000;0.427649
9867.000000;0.426598
9866.000000;0.425575
9865.000000;0.424503
9864.000000;0.423334
9863.000000;0.422119
9862.000000;0.420984
9861.000000;0.420028
9860.000000;0.419212
9859.000000;0.418371
9858.000000;0.417373
9857.000000;0.416304
9856.000000;0.415421
9855.000000;0.414882
9854.000000;0.414535
9853.000000;0.414042
9852.000000;0.413174
9851.000000;0.411929
9850.000000;0.410409
9849.000000;0.408694
9848.000000;0.406900
9847.000000;0.405258
9846.000000;0.403989
9845.000000;0.403076
9844.000000;0.402229
9843.000000;0.401157
9842.000000;0.399879
9841.000000;0.398701
9840.000000;0.397853
9839.000000;0.397216
9838.000000;0.396444
9837.000000;0.395307
9836.000000;0.393842
9835.000000;0.392217
9834.000000;0.390603
9833.000000;0.389198
9832.000000;0.388203
9831.000000;0.387646
9830.000000;0.387284
9829.000000;0.386796
9828.000000;0.386033
9827.000000;0.385023
9826.000000;0.383808
9825.000000;0.382418
9824.000000;0.380969
9823.000000;0.379626
9822.000000;0.378411
9821.000000;0.377192
9820.000000;0.375903
9819.000000;0.374655
9818.000000;0.373556
9817.000000;0.372517
9816.000000;0.371363
9815.000000;0.370111
9814.000000;0.368978
9813.000000;0.368091
9812.000000;0.367272
9811.000000;0.366201
9810.000000;0.364760
9809.000000;0.363134
9808.000000;0.361600
9807.000000;0.360293
9806.000000;0.359207
9805.000000;0.358278
9804.000000;0.357349
9803.000000;0.356141
9802.000000;0.354479
9801.000000;0.352610
9800.000000;0.351085
9799.000000;0.350189
9798.000000;0.349577
9797.000000;0.348646
9796.000000;0.347224
9795.000000;0.345716
9794.000000;0.344574
9793.000000;0.343799
9792.000000;0.343017
9791.000000;0.341881
9790.000000;0.340324
9789.000000;0.338561
9788.000000;0.336947
9787.000000;0.335733
9786.000000;0.334827
9785.000000;0.333855
9784.000000;0.332551
9783.000000;0.331046
9782.000000;0.329666
9781.000000;0.328508
9780.000000;0.327387
9779.000000;0.326169
9778.000000;0.324964
9777.000000;0.323906
9776.000000;0.322894
9775.000000;0.321690
9774.000000;0.320212
9773.000000;0.318589
9772.000000;0.316949
9771.000000;0.315304
9770.000000;0.313668
9769.000000;0.312165
9768.000000;0.310920
9767.000000;0.309893
9766.000000;0.308901
9765.000000;0.307796
9764.000000;0.306563
9763.000000;0.305255
9762.000000;0.303889
9761.000000;0.302463
9760.000000;0.301025
9759.000000;0.299694
9758.000000;0.298561
9757.000000;0.297553
9756.000000;0.296411
9755.000000;0.294883
9754.000000;0.293023
9753.000000;0.291227
9752.000000;0.289858
9751.000000;0.288857
9750.000000;0.287810
9749.000000;0.286420
9748.000000;0.284803
9747.000000;0.283245
9746.000000;0.281803
9745.000000;0.280290
9744.000000;0.278595
9743.000000;0.276892
9742.000000;0.275461
9741.000000;0.274385
9740.000000;0.273492
9739.000000;0.272545
9738.000000;0.271425
9737.000000;0.270128
9736.000000;0.268639
9735.000000;0.266916
9734.000000;0.265020
9733.000000;0.263201
9732.000000;0.261707
9731.000000;0.260525
9730.000000;0.259382
9729.000000;0.258059
9728.000000;0.256613
9727.000000;0.255255
9726.000000;0.254080
9725.000000;0.252984
9724.000000;0.251792
9723.000000;0.250399
9722.000000;0.248822
9721.000000;0.247190
9720.000000;0.245652
9719.000000;0.244271
9718.000000;0.242990
9717.000000;0.241699
9716.000000;0.240297
9715.000000;0.238686
9714.000000;0.236844
9713.000000;0.234924
9712.000000;0.233175
9711.000000;0.231672
9710.000000;0.230221
9709.000000;0.228641
9708.000000;0.227011
9707.000000;0.225502
9706.000000;0.224050
9705.000000;0.222413
9704.000000;0.220535
9703.000000;0.218661
9702.000000;0.217030
9701.000000;0.215608
9700.000000;0.214199
9699.000000;0.212699
9698.000000;0.211136
9697.000000;0.209541
9696.000000;0.207886
9695.000000;0.206169
9694.000000;0.204471
9693.000000;0.202880
9692.000000;0.201369
9691.000000;0.199795
9690.000000;0.198097
9689.000000;0.196444
9688.000000;0.195087
9687.000000;0.194015
9686.000000;0.192878
9685.000000;0.191355
9684.000000;0.189505
9683.000000;0.187627
9682.000000;0.185847
9681.000000;0.184016
9680.000000;0.181977
9679.000000;0.179778
9678.000000;0.177577
9677.000000;0.175520
9676.000000;0.173735
9675.000000;0.172310
9674.000000;0.171183
9673.000000;0.170129
9672.000000;0.168919
9671.000000;0.167460
9670.000000;0.165807
9669.000000;0.164096
9668.000000;0.162452
9667.000000;0.160860
9666.000000;0.159145
9665.000000;0.157178
9664.000000;0.155095
9663.000000;0.153171
9662.000000;0.151486
9661.000000;0.149839
9660.000000;0.148031
9659.000000;0.146092
9658.000000;0.144168
9657.000000;0.142300
9656.000000;0.140443
9655.000000;0.138598
9654.000000;0.136848
9653.000000;0.135254
9652.000000;0.133769
9651.000000;0.132246
9650.000000;0.130543
9649.000000;0.128670
9648.000000;0.126806
9647.000000;0.125097
9646.000000;0.123483
9645.000000;0.121817
9644.000000;0.120109
9643.000000;0.118459
9642.000000;0.116787
9641.000000;0.114842
9640.000000;0.112538
9639.000000;0.110131
9638.000000;0.107954
9637.000000;0.106141
9636.000000;0.104650
9635.000000;0.103360
9634.000000;0.102029
9633.000000;0.100345
9632.000000;0.098203
9631.000000;0.095819
9630.000000;0.093448
9629.000000;0.091124
9628.000000;0.088801
9627.000000;0.086621
9626.000000;0.084793
9625.000000;0.083311
9624.000000;0.081953
9623.000000;0.080544
9622.000000;0.079051
9621.000000;0.077465
9620.000000;0.075761
9619.000000;0.073971
9618.000000;0.072132
9617.000000;0.070161
9616.000000;0.067947
9615.000000;0.065576
9614.000000;0.063324
9613.000000;0.061370
9612.000000;0.059593
9611.000000;0.057714
9610.000000;0.055567
9609.000000;0.053266
9608.000000;0.051131
9607.000000;0.049417
9606.000000;0.048044
9605.000000;0.046638
9604.000000;0.044939
9603.000000;0.043050
9602.000000;0.041191
9601.000000;0.039310
9600.000000;0.037178
9599.000000;0.034778
9598.000000;0.032355
9597.000000;0.030079
9596.000000;0.027917
9595.000000;0.025910
9594.000000;0.024272
9593.000000;0.023036
9592.000000;0.021798
9591.000000;0.020068
9590.000000;0.017784
9589.000000;0.015325
9588.000000;0.013065
9587.000000;0.011074
9586.000000;0.009205
9585.000000;0.007294
9584.000000;0.005255
9583.000000;0.003123
9582.000000;0.001030
9581.000000;-0.000913
9580.000000;-0.002768
9579.000000;-0.004742
9578.000000;-0.006997
9577.000000;-0.009498
9576.000000;-0.012020
9575.000000;-0.014289
9574.000000;-0.016162
9573.000000;-0.017744
9572.000000;-0.019292
9571.000000;-0.020987
9570.000000;-0.022822
9569.000000;-0.024781
9568.000000;-0.026987
9567.000000;-0.029550
9566.000000;-0.032304
9565.000000;-0.034866
9564.000000;-0.036983
9563.000000;-0.038707
9562.000000;-0.040217
9561.000000;-0.041658
9560.000000;-0.043225
9559.000000;-0.045192
9558.000000;-0.047633
9557.000000;-0.050185
9556.000000;-0.052307
9555.000000;-0.053836
9554.000000;-0.055147
9553.000000;-0.056720
9552.000000;-0.058666
9551.000000;-0.060748
9550.000000;-0.062746
9549.000000;-0.064644
9548.000000;-0.066510
9547.000000;-0.068357
9546.000000;-0.070150
9545.000000;-0.071866
9544.000000;-0.073490
9543.000000;-0.075053
9542.000000;-0.076692
9541.000000;-0.078591
9540.000000;-0.080776
9539.000000;-0.083016
9538.000000;-0.085063
9537.000000;-0.086941
9536.000000;-0.088903
9535.000000;-0.091071
9534.000000;-0.093243
9533.000000;-0.095148
9532.000000;-0.096806
9531.000000;-0.098498
9530.000000;-0.100402
9529.000000;-0.102365
9528.000000;-0.104090
9527.000000;-0.105484
9526.000000;-0.106759
9525.000000;-0.108219
9524.000000;-0.110025
9523.000000;-0.112139
9522.000000;-0.114405
9521.000000;-0.116609
9520.000000;-0.118528
9519.000000;-0.120043
9518.000000;-0.121268
9517.000000;-0.122495
9516.000000;-0.123968
9515.000000;-0.125671
9514.000000;-0.127362
9513.000000;-0.128796
9512.000000;-0.129894
9511.000000;-0.130764
9510.000000;-0.131652
9509.000000;-0.132862
9508.000000;-0.134606
9507.000000;-0.136823
9506.000000;-0.139152
9505.000000;-0.141181
9504.000000;-0.142742
9503.000000;-0.143956
9502.000000;-0.145039
9501.000000;-0.146120
9500.000000;-0.147253
9499.000000;-0.148513
9498.000000;-0.149997
9497.000000;-0.151705
9496.000000;-0.153445
9495.000000;-0.154908
9494.000000;-0.155892
9493.000000;-0.156484
9492.000000;-0.157001
9491.000000;-0.157726
9490.000000;-0.158695
9489.000000;-0.159782
9488.000000;-0.160926
9487.000000;-0.162190
9486.000000;-0.163595
9485.000000;-0.165000
9484.000000;-0.166221
9483.000000;-0.167199
9482.000000;-0.167982
9481.000000;-0.168614
9480.000000;-0.169113
9479.000000;-0.169548
9478.000000;-0.170039
9477.000000;-0.170673
9476.000000;-0.171491
9475.000000;-0.172507
9474.000000;-0.173665
9473.000000;-0.174759
9472.000000;-0.175544
9471.000000;-0.176001
9470.000000;-0.176423
9469.000000;-0.177133
9468.000000;-0.178128
9467.000000;-0.179060
9466.000000;-0.179573
9465.000000;-0.179598
9464.000000;-0.179368
9463.000000;-0.179210
9462.000000;-0.179329
9461.000000;-0.179704
9460.000000;-0.180119
9459.000000;-0.180348
9458.000000;-0.180349
9457.000000;-0.180303
9456.000000;-0.180430
9455.000000;-0.180796
9454.000000;-0.181295
9453.000000;-0.181766
9452.000000;-0.182087
9451.000000;-0.182206
9450.000000;-0.182165
9449.000000;-0.182093
9448.000000;-0.182098
9447.000000;-0.182113
9446.000000;-0.181917
9445.000000;-0.181359
9444.000000;-0.180546
9443.000000;-0.179786
9442.000000;-0.179376
9441.000000;-0.179429
9440.000000;-0.179805
9439.000000;-0.180163
9438.000000;-0.180178
9437.000000;-0.179810
9436.000000;-0.179300
9435.000000;-0.178828
9434.000000;-0.178247
9433.000000;-0.177339
9432.000000;-0.176267
9431.000000;-0.175535
9430.000000;-0.175407
9429.000000;-0.175584
9428.000000;-0.175582
9427.000000;-0.175263
9426.000000;-0.174818
9425.000000;-0.174349
9424.000000;-0.173717
9423.000000;-0.172795
9422.000000;-0.171651
9421.000000;-0.170438
9420.000000;-0.169250
9419.000000;-0.168148
9418.000000;-0.167228
9417.000000;-0.166551
9416.000000;-0.166058
9415.000000;-0.165584
9414.000000;-0.164964
9413.000000;-0.164152
9412.000000;-0.163294
9411.000000;-0.162624
9410.000000;-0.162176
9409.000000;-0.161665
9408.000000;-0.160774
9407.000000;-0.159533
9406.000000;-0.158245
9405.000000;-0.157033
9404.000000;-0.155686
9403.000000;-0.154039
9402.000000;-0.152277
9401.000000;-0.150702
9400.000000;-0.149369
9399.000000;-0.148142
9398.000000;-0.147004
9397.000000;-0.146049
9396.000000;-0.145219
9395.000000;-0.144304
9394.000000;-0.143227
9393.000000;-0.142164
9392.000000;-0.141276
9391.000000;-0.140476
9390.000000;-0.139513
9389.000000;-0.138195
9388.000000;-0.136504
9387.000000;-0.134609
9386.000000;-0.132837
9385.000000;-0.131481
9384.000000;-0.130533
9383.000000;-0.129651
9382.000000;-0.128490
9381.000000;-0.127027
9380.000000;-0.125512
9379.000000;-0.124164
9378.000000;-0.122994
9377.000000;-0.121863
9376.000000;-0.120613
9375.000000;-0.119147
9374.000000;-0.117459
9373.000000;-0.115643
9372.000000;-0.113849
9371.000000;-0.112236
9370.000000;-0.110943
9369.000000;-0.110019
9368.000000;-0.109313
9367.000000;-0.108505
9366.000000;-0.107330
9365.000000;-0.105819
9364.000000;-0.104228
9363.000000;-0.102724
9362.000000;-0.101209
9361.000000;-0.099519
9360.000000;-0.097693
9359.000000;-0.095953
9358.000000;-0.094417
9357.000000;-0.092985
9356.000000;-0.091544
9355.000000;-0.090162
9354.000000;-0.088938
9353.000000;-0.087762
9352.000000;-0.086380
9351.000000;-0.084736
9350.000000;-0.083061
9349.000000;-0.081574
9348.000000;-0.080235
9347.000000;-0.078904
9346.000000;-0.077600
9345.000000;-0.076418
9344.000000;-0.075265
9343.000000;-0.073881
9342.000000;-0.072174
9341.000000;-0.070366
9340.000000;-0.068724
9339.000000;-0.067254
9338.000000;-0.065745
9337.000000;-0.064060
9336.000000;-0.062299
9335.000000;-0.060704
9334.000000;-0.059430
9333.000000;-0.058394
9332.000000;-0.057330
9331.000000;-0.056032
9330.000000;-0.054567
9329.000000;-0.053190
9328.000000;-0.052039
9327.000000;-0.050986
9326.000000;-0.049789
9325.000000;-0.048320
9324.000000;-0.046610
9323.000000;-0.044773
9322.000000;-0.042958
9321.000000;-0.041329
9320.000000;-0.039953
9319.000000;-0.038725
9318.000000;-0.037482
9317.000000;-0.036214
9316.000000;-0.035054
9315.000000;-0.034056
9314.000000;-0.033072
9313.000000;-0.031902
9312.000000;-0.030517
9311.000000;-0.029060
9310.000000;-0.027637
9309.000000;-0.026203
9308.000000;-0.024658
9307.000000;-0.022962
9306.000000;-0.021142
9305.000000;-0.019244
9304.000000;-0.017374
9303.000000;-0.015737
9302.000000;-0.014496
9301.000000;-0.013564
9300.000000;-0.012619
9299.000000;-0.011374
9298.000000;-0.009820
9297.000000;-0.008196
9296.000000;-0.006759
9295.000000;-0.005610
9294.000000;-0.004641
9293.000000;-0.003607
9292.000000;-0.002309
9291.000000;-0.000779
9290.000000;0.000735
9289.000000;0.002020
9288.000000;0.003082
9287.000000;0.004037
9286.000000;0.004953
9285.000000;0.005892
9284.000000;0.007041
9283.000000;0.008584
9282.000000;0.010402
9281.000000;0.012087
9280.000000;0.013336
9279.000000;0.014243
9278.000000;0.015132
9277.000000;0.016208
9276.000000;0.017474
9275.000000;0.018883
9274.000000;0.020390
9273.000000;0.021848
9272.000000;0.023014
9271.000000;0.023813
9270.000000;0.024521
9269.000000;0.025579
9268.000000;0.027175
9267.000000;0.029063
9266.000000;0.030810
9265.000000;0.032174
9264.000000;0.033234
9263.000000;0.034217
9262.000000;0.035311
9261.000000;0.036568
9260.000000;0.037867
9259.000000;0.038945
9258.000000;0.039609
9257.000000;0.040006
9256.000000;0.040584
9255.000000;0.041708
9254.000000;0.043343
9253.000000;0.045159
9252.000000;0.046862
9251.000000;0.048355
9250.000000;0.049668
9249.000000;0.050865
9248.000000;0.052001
9247.000000;0.053082
9246.000000;0.054098
9245.000000;0.055134
9244.000000;0.056338
9243.000000;0.057700
9242.000000;0.058978
9241.000000;0.059996
9240.000000;0.060915
9239.000000;0.062013
9238.000000;0.063251
9237.000000;0.064310
9236.000000;0.065049
9235.000000;0.065670
9234.000000;0.066387
9233.000000;0.067174
9232.000000;0.067991
9231.000000;0.068995
9230.000000;0.070329
9229.000000;0.071845
9228.000000;0.073261
9227.000000;0.074499
9226.000000;0.075681
9225.000000;0.076833
9224.000000;0.077840
9223.000000;0.078699
9222.000000;0.079593
9221.000000;0.080651
9220.000000;0.081772
9219.000000;0.082775
9218.000000;0.083636
9217.000000;0.084465
9216.000000;0.085343
9215.000000;0.086289
9214.000000;0.087344
9213.000000;0.088575
9212.000000;0.089929
9211.000000;0.091194
9210.000000;0.092146
9209.000000;0.092769
9208.000000;0.093258
9207.000000;0.093830
9206.000000;0.094552
9205.000000;0.095382
9204.000000;0.096309
9203.000000;0.097383
9202.000000;0.098592
9201.000000;0.099791
9200.000000;0.100808
9199.000000;0.101620
9198.000000;0.102381
9197.000000;0.103252
9196.000000;0.104238
9195.000000;0.105230
9194.000000;0.106193
9193.000000;0.107229
9192.000000;0.108423
9191.000000;0.109656
9190.000000;0.110707
9189.000000;0.111544
9188.000000;0.112401
9187.000000;0.113491
9186.000000;0.114705
9185.000000;0.115704
9184.000000;0.116310
9183.000000;0.116699
9182.000000;0.117190
9181.000000;0.117906
9180.000000;0.118705
9179.000000;0.119391
9178.000000;0.119950
9177.000000;0.120544
9176.000000;0.121303
9175.000000;0.122173
9174.000000;0.123013
9173.000000;0.123794
9172.000000;0.124645
9171.000000;0.125678
9170.000000;0.126838
9169.000000;0.127949
9168.000000;0.128852
9167.000000;0.129499
9166.000000;0.130011
9165.000000;0.130632
9164.000000;0.131536
9163.000000;0.132602
9162.000000;0.133514
9161.000000;0.134140
9160.000000;0.134697
9159.000000;0.135446
9158.000000;0.136360
9157.000000;0.137230
9156.000000;0.137980
9155.000000;0.138693
9154.000000;0.139390
9153.000000;0.139999
9152.000000;0.140543
9151.000000;0.141176
9150.000000;0.141994
9149.000000;0.142922
9148.000000;0.143802
9147.000000;0.144496
9146.000000;0.144950
9145.000000;0.145279
9144.000000;0.145747
9143.000000;0.146515
9142.000000;0.147429
9141.000000;0.148232
9140.000000;0.148936
9139.000000;0.149770
9138.000000;0.150757
9137.000000;0.151620
9136.000000;0.152182
9135.000000;0.152627
9134.000000;0.153208
9133.000000;0.153903
9132.000000;0.154523
9131.000000;0.155014
9130.000000;0.155496
9129.000000;0.156102
9128.000000;0.156903
9127.000000;0.157904
9126.000000;0.158959
9125.000000;0.159811
9124.000000;0.160373
9123.000000;0.160889
9122.000000;0.161660
9121.000000;0.162641
9120.000000;0.163503
9119.000000;0.164050
9118.000000;0.164416
9117.000000;0.164823
9116.000000;0.165320
9115.000000;0.165822
9114.000000;0.166289
9113.000000;0.166761
9112.000000;0.167269
9111.000000;0.167797
9110.000000;0.168336
9109.000000;0.168935
9108.000000;0.169673
9107.000000;0.170560
9106.000000;0.171511
9105.000000;0.172415
9104.000000;0.173228
9103.000000;0.173963
9102.000000;0.174629
9101.000000;0.175239
9100.000000;0.175847
9099.000000;0.176498
9098.000000;0.177128
9097.000000;0.177631
9096.000000;0.178049
9095.000000;0.178561
9094.000000;0.179216
9093.000000;0.179806
9092.000000;0.180124
9091.000000;0.180258
9090.000000;0.180507
9089.000000;0.181021
9088.000000;0.181662
9087.000000;0.182201
9086.000000;0.182555
9085.000000;0.182813
9084.000000;0.183132
9083.000000;0.183665
9082.000000;0.184488
9081.000000;0.185509
9080.000000;0.186439
9079.000000;0.186975
9078.000000;0.187092
9077.000000;0.187118
9076.000000;0.187440
9075.000000;0.188107
9074.000000;0.188816
9073.000000;0.189315
9072.000000;0.189699
9071.000000;0.190201
9070.000000;0.190840
9069.000000;0.191459
9068.000000;0.192056
9067.000000;0.192803
9066.000000;0.193706
9065.000000;0.194467
9064.000000;0.194829
9063.000000;0.194889
9062.000000;0.194955
9061.000000;0.195220
9060.000000;0.195717
9059.000000;0.196419
9058.000000;0.197206
9057.000000;0.197806
9056.000000;0.198008
9055.000000;0.197945
9054.000000;0.198000
9053.000000;0.198413
9052.000000;0.199095
9051.000000;0.199788
9050.000000;0.200312
9049.000000;0.200633
9048.000000;0.200854
9047.000000;0.201141
9046.000000;0.201575
9045.000000;0.202052
9044.000000;0.202422
9043.000000;0.202735
9042.000000;0.203199
9041.000000;0.203873
9040.000000;0.204536
9039.000000;0.204928
9038.000000;0.205030
9037.000000;0.205021
9036.000000;0.205069
9035.000000;0.205261
9034.000000;0.205667
9033.000000;0.206289
9032.000000;0.206981
9031.000000;0.207557
9030.000000;0.208016
9029.000000;0.208516
9028.000000;0.209089
9027.000000;0.209513
9026.000000;0.209592
9025.000000;0.209478
9024.000000;0.209555
9023.000000;0.210011
9022.000000;0.210658
9021.000000;0.211196
9020.000000;0.211546
9019.000000;0.211845
9018.000000;0.212246
9017.000000;0.212799
9016.000000;0.213446
9015.000000;0.214021
9014.000000;0.214315
9013.000000;0.214278
9012.000000;0.214128
9011.000000;0.214158
9010.000000;0.214423
9009.000000;0.214743
9008.000000;0.214996
9007.000000;0.215276
9006.000000;0.215717
9005.000000;0.216269
9004.000000;0.216740
9003.000000;0.216998
9002.000000;0.217085
9001.000000;0.217157
9000.000000;0.217353
8999.000000;0.217664
8998.000000;0.217932
8997.000000;0.218038
8996.000000;0.218101
8995.000000;0.218368
8994.000000;0.218896
8993.000000;0.219439
8992.000000;0.219715
8991.000000;0.219703
8990.000000;0.219617
8989.000000;0.219676
8988.000000;0.219988
8987.000000;0.220548
8986.000000;0.221231
8985.000000;0.221820
8984.000000;0.222150
8983.000000;0.222261
8982.000000;0.222325
8981.000000;0.222472
8980.000000;0.222712
8979.000000;0.222990
8978.000000;0.223244
8977.000000;0.223434
8976.000000;0.223594
8975.000000;0.223832
8974.000000;0.224202
8973.000000;0.224614
8972.000000;0.224923
8971.000000;0.225109
8970.000000;0.225267
8969.000000;0.225460
8968.000000;0.225666
8967.000000;0.225868
8966.000000;0.226068
8965.000000;0.226215
8964.000000;0.226229
8963.000000;0.226159
8962.000000;0.226189
8961.000000;0.226416
8960.000000;0.226726
8959.000000;0.226973
8958.000000;0.227195
8957.000000;0.227528
8956.000000;0.227943
8955.000000;0.228231
8954.000000;0.228288
8953.000000;0.228277
8952.000000;0.228443
8951.000000;0.228846
8950.000000;0.229355
8949.000000;0.229833
8948.000000;0.230219
8947.000000;0.230475
8946.000000;0.230565
8945.000000;0.230529
8944.000000;0.230515
8943.000000;0.230687
8942.000000;0.231104
8941.000000;0.231670
8940.000000;0.232159
8939.000000;0.232335
8938.000000;0.232160
8937.000000;0.231878
8936.000000;0.231832
8935.000000;0.232133
8934.000000;0.232586
8933.000000;0.232916
8932.000000;0.233008
8931.000000;0.232910
8930.000000;0.232751
8929.000000;0.232723
8928.000000;0.233004
8927.000000;0.233539
8926.000000;0.233984
8925.000000;0.234005
8924.000000;0.233631
8923.000000;0.233190
8922.000000;0.232923
8921.000000;0.232826
8920.000000;0.232843
8919.000000;0.233029
8918.000000;0.233419
8917.000000;0.233868
8916.000000;0.234156
8915.000000;0.234209
8914.000000;0.234165
8913.000000;0.234217
8912.000000;0.234441
8911.000000;0.234752
8910.000000;0.235000
8909.000000;0.235123
8908.000000;0.235217
8907.000000;0.235411
8906.000000;0.235676
8905.000000;0.235812
8904.000000;0.235662
8903.000000;0.235300
8902.000000;0.234995
8901.000000;0.235005
8900.000000;0.235402
8899.000000;0.236040
8898.000000;0.236622
8897.000000;0.236863
8896.000000;0.236672
8895.000000;0.236231
8894.000000;0.235866
8893.000000;0.235801
8892.000000;0.236010
8891.000000;0.236283
8890.000000;0.236450
8889.000000;0.236538
8888.000000;0.236698
8887.000000;0.237005
8886.000000;0.237340
8885.000000;0.237519
8884.000000;0.237470
8883.000000;0.237276
8882.000000;0.237069
8881.000000;0.236910
8880.000000;0.236777
8879.000000;0.236627
8878.000000;0.236489
8877.000000;0.236470
8876.000000;0.236640
8875.000000;0.236903
8874.000000;0.237073
8873.000000;0.237080
8872.000000;0.237050
8871.000000;0.237140
8870.000000;0.237363
8869.000000;0.237630
8868.000000;0.237880
8867.000000;0.238073
8866.000000;0.238120
8865.000000;0.237941
8864.000000;0.237585
8863.000000;0.237203
8862.000000;0.236908
8861.000000;0.236733
8860.000000;0.236694
8859.000000;0.236803
8858.000000;0.237009
8857.000000;0.237190
8856.000000;0.237227
8855.000000;0.237072
8854.000000;0.236791
8853.000000;0.236579
8852.000000;0.236655
8851.000000;0.237023
8850.000000;0.237406
8849.000000;0.237492
8848.000000;0.237250
8847.000000;0.236906
8846.000000;0.236660
8845.000000;0.236552
8844.000000;0.236566
8843.000000;0.236705
8842.000000;0.236932
8841.000000;0.237165
8840.000000;0.237348
8839.000000;0.237468
8838.000000;0.237495
8837.000000;0.237414
8836.000000;0.237307
8835.000000;0.237291
8834.000000;0.237366
8833.000000;0.237426
8832.000000;0.237411
8831.000000;0.237343
8830.000000;0.237201
8829.000000;0.236916
8828.000000;0.236531
8827.000000;0.236238
8826.000000;0.236176
8825.000000;0.236292
8824.000000;0.236430
8823.000000;0.236481
8822.000000;0.236412
8821.000000;0.236276
8820.000000;0.236225
8819.000000;0.236408
8818.000000;0.236783
8817.000000;0.237148
8816.000000;0.237404
8815.000000;0.237665
8814.000000;0.238006
8813.000000;0.238216
8812.000000;0.237982
8811.000000;0.237291
8810.000000;0.236522
8809.000000;0.236100
8808.000000;0.236116
8807.000000;0.236319
8806.000000;0.236456
8805.000000;0.236546
8804.000000;0.236775
8803.000000;0.237119
8802.000000;0.237209
8801.000000;0.236690
8800.000000;0.235663
8799.000000;0.234641
8798.000000;0.234069
8797.000000;0.234006
8796.000000;0.234238
8795.000000;0.234513
8794.000000;0.234628
8793.000000;0.234468
8792.000000;0.234114
8791.000000;0.233820
8790.000000;0.233772
8789.000000;0.233918
8788.000000;0.234076
8787.000000;0.234164
8786.000000;0.234240
8785.000000;0.234366
8784.000000;0.234516
8783.000000;0.234584
8782.000000;0.234470
8781.000000;0.234169
8780.000000;0.233798
8779.000000;0.233472
8778.000000;0.233178
8777.000000;0.232847
8776.000000;0.232567
8775.000000;0.232558
8774.000000;0.232887
8773.000000;0.233313
8772.000000;0.233498
8771.000000;0.233292
8770.000000;0.232775
8769.000000;0.232143
8768.000000;0.231649
8767.000000;0.231519
8766.000000;0.231763
8765.000000;0.232093
8764.000000;0.232190
8763.000000;0.232050
8762.000000;0.231946
8761.000000;0.232061
8760.000000;0.232244
8759.000000;0.232182
8758.000000;0.231740
8757.000000;0.231100
8756.000000;0.230577
8755.000000;0.230333
8754.000000;0.230276
8753.000000;0.230199
8752.000000;0.230001
8751.000000;0.229731
8750.000000;0.229456
8749.000000;0.229183
8748.000000;0.228914
8747.000000;0.228718
8746.000000;0.228677
8745.000000;0.228785
8744.000000;0.228927
8743.000000;0.228939
8742.000000;0.228738
8741.000000;0.228432
8740.000000;0.228258
8739.000000;0.228330
8738.000000;0.228466
8737.000000;0.228388
8736.000000;0.228046
8735.000000;0.227618
8734.000000;0.227221
8733.000000;0.226814
8732.000000;0.226423
8731.000000;0.226218
8730.000000;0.226265
8729.000000;0.226371
8728.000000;0.226340
8727.000000;0.226237
8726.000000;0.226203
8725.000000;0.226155
8724.000000;0.225909
8723.000000;0.225524
8722.000000;0.225286
8721.000000;0.225303
8720.000000;0.225340
8719.000000;0.225124
8718.000000;0.224695
8717.000000;0.224331
8716.000000;0.224218
8715.000000;0.224258
8714.000000;0.224195
8713.000000;0.223891
8712.000000;0.223489
8711.000000;0.223283
8710.000000;0.223380
8709.000000;0.223535
8708.000000;0.223394
8707.000000;0.222892
8706.000000;0.222334
8705.000000;0.222046
8704.000000;0.222026
8703.000000;0.221979
8702.000000;0.221660
8701.000000;0.221149
8700.000000;0.220786
8699.000000;0.220836
8698.000000;0.221210
8697.000000;0.221538
8696.000000;0.221496
8695.000000;0.221062
8694.000000;0.220461
8693.000000;0.219929
8692.000000;0.219579
8691.000000;0.219404
8690.000000;0.219314
8689.000000;0.219190
8688.000000;0.218965
8687.000000;0.218668
8686.000000;0.218363
8685.000000;0.218086
8684.000000;0.217873
8683.000000;0.217776
8682.000000;0.217782
8681.000000;0.217744
8680.000000;0.217532
8679.000000;0.217216
8678.000000;0.217003
8677.000000;0.216966
8676.000000;0.216937
8675.000000;0.216726
8674.000000;0.216332
8673.000000;0.215899
8672.000000;0.215528
8671.000000;0.215223
8670.000000;0.214977
8669.000000;0.214808
8668.000000;0.214708
8667.000000;0.214610
8666.000000;0.214446
8665.000000;0.214192
8664.000000;0.213867
8663.000000;0.213501
8662.000000;0.213136
8661.000000;0.212846
8660.000000;0.212706
8659.000000;0.212724
8658.000000;0.212795
8657.000000;0.212743
8656.000000;0.212435
8655.000000;0.211891
8654.000000;0.211264
8653.000000;0.210712
8652.000000;0.210297
8651.000000;0.209995
8650.000000;0.209775
8649.000000;0.209616
8648.000000;0.209474
8647.000000;0.209293
8646.000000;0.209088
8645.000000;0.208959
8644.000000;0.208966
8643.000000;0.209015
8642.000000;0.208941
8641.000000;0.208708
8640.000000;0.208416
8639.000000;0.208107
8638.000000;0.207667
8637.000000;0.207018
8636.000000;0.206317
8635.000000;0.205853
8634.000000;0.205736
8633.000000;0.205787
8632.000000;0.205764
8631.000000;0.205608
8630.000000;0.205409
8629.000000;0.205207
8628.000000;0.204908
8627.000000;0.204421
8626.000000;0.203806
8625.000000;0.203248
8624.000000;0.202884
8623.000000;0.202721
8622.000000;0.202712
8621.000000;0.202828
8620.000000;0.203017
8619.000000;0.203116
8618.000000;0.202942
8617.000000;0.202483
8616.000000;0.201910
8615.000000;0.201381
8614.000000;0.200897
8613.000000;0.200401
8612.000000;0.199915
8611.000000;0.199513
8610.000000;0.199224
8609.000000;0.199029
8608.000000;0.198925
8607.000000;0.198893
8606.000000;0.198858
8605.000000;0.198734
8604.000000;0.198497
8603.000000;0.198179
8602.000000;0.197827
8601.000000;0.197524
8600.000000;0.197368
8599.000000;0.197364
8598.000000;0.197382
8597.000000;0.197312
8596.000000;0.197172
8595.000000;0.196989
8594.000000;0.196675
8593.000000;0.196161
8592.000000;0.195585
8591.000000;0.195170
8590.000000;0.194958
8589.000000;0.194810
8588.000000;0.194649
8587.000000;0.194520
8586.000000;0.194407
8585.000000;0.194199
8584.000000;0.193867
8583.000000;0.193511
8582.000000;0.193173
8581.000000;0.192775
8580.000000;0.192306
8579.000000;0.191917
8578.000000;0.191726
8577.000000;0.191628
8576.000000;0.191405
8575.000000;0.190945
8574.000000;0.190323
8573.000000;0.189748
8572.000000;0.189440
8571.000000;0.189424
8570.000000;0.189422
8569.000000;0.189107
8568.000000;0.188532
8567.000000;0.188118
8566.000000;0.188105
8565.000000;0.188222
8564.000000;0.188062
8563.000000;0.187620
8562.000000;0.187220
8561.000000;0.187021
8560.000000;0.186864
8559.000000;0.186601
8558.000000;0.186313
8557.000000;0.186130
8556.000000;0.186020
8555.000000;0.185865
8554.000000;0.185628
8553.000000;0.185343
8552.000000;0.185012
8551.000000;0.184600
8550.000000;0.184104
8549.000000;0.183582
8548.000000;0.183124
8547.000000;0.182820
8546.000000;0.182691
8545.000000;0.182639
8544.000000;0.182497
8543.000000;0.182172
8542.000000;0.181715
8541.000000;0.181240
8540.000000;0.180813
8539.000000;0.180448
8538.000000;0.180157
8537.000000;0.179949
8536.000000;0.179779
8535.000000;0.179559
8534.000000;0.179242
8533.000000;0.178886
8532.000000;0.178584
8531.000000;0.178333
8530.000000;0.178014
8529.000000;0.177552
8528.000000;0.177037
8527.000000;0.176643
8526.000000;0.176410
8525.000000;0.176193
8524.000000;0.175849
8523.000000;0.175418
8522.000000;0.175050
8521.000000;0.174802
8520.000000;0.174579
8519.000000;0.174274
8518.000000;0.173922
8517.000000;0.173671
8516.000000;0.173603
8515.000000;0.173606
8514.000000;0.173467
8513.000000;0.173103
8512.000000;0.172659
8511.000000;0.172357
8510.000000;0.172252
8509.000000;0.172198
8508.000000;0.172039
8507.000000;0.171776
8506.000000;0.171504
8505.000000;0.171257
8504.000000;0.170955
8503.000000;0.170506
8502.000000;0.169928
8501.000000;0.169355
8500.000000;0.168919
8499.000000;0.168639
8498.000000;0.168413
8497.000000;0.168136
8496.000000;0.167796
8495.000000;0.167465
8494.000000;0.167231
8493.000000;0.167150
8492.000000;0.167214
8491.000000;0.167298
8490.000000;0.167191
8489.000000;0.166764
8488.000000;0.166110
8487.000000;0.165458
8486.000000;0.164958
8485.000000;0.164599
8484.000000;0.164298
8483.000000;0.163988
8482.000000;0.163620
8481.000000;0.163208
8480.000000;0.162866
8479.000000;0.162730
8478.000000;0.162786
8477.000000;0.162844
8476.000000;0.162712
8475.000000;0.162352
8474.000000;0.161847
8473.000000;0.161282
8472.000000;0.160723
8471.000000;0.160252
8470.000000;0.159959
8469.000000;0.159885
8468.000000;0.159962
8467.000000;0.160006
8466.000000;0.159827
8465.000000;0.159399
8464.000000;0.158913
8463.000000;0.158567
8462.000000;0.158342
8461.000000;0.158061
8460.000000;0.157656
8459.000000;0.157259
8458.000000;0.156991
8457.000000;0.156786
8456.000000;0.156489
8455.000000;0.156064
8454.000000;0.155638
8453.000000;0.155373
8452.000000;0.155321
8451.000000;0.155372
8450.000000;0.155322
8449.000000;0.155053
8448.000000;0.154639
8447.000000;0.154220
8446.000000;0.153794
8445.000000;0.153261
8444.000000;0.152657
8443.000000;0.152180
8442.000000;0.151920
8441.000000;0.151737
8440.000000;0.151490
8439.000000;0.151252
8438.000000;0.151162
8437.000000;0.151164
8436.000000;0.151056
8435.000000;0.150754
8434.000000;0.150370
8433.000000;0.150043
8432.000000;0.149812
8431.000000;0.149642
8430.000000;0.149474
8429.000000;0.149239
8428.000000;0.148904
8427.000000;0.148519
8426.000000;0.148173
8425.000000;0.147911
8424.000000;0.147707
8423.000000;0.147495
8422.000000;0.147196
8421.000000;0.146787
8420.000000;0.146369
8419.000000;0.146101
8418.000000;0.145984
8417.000000;0.145813
8416.000000;0.145430
8415.000000;0.144968
8414.000000;0.144688
8413.000000;0.144615
8412.000000;0.144495
8411.000000;0.144128
8410.000000;0.143601
8409.000000;0.143153
8408.000000;0.142899
8407.000000;0.142763
8406.000000;0.142600
8405.000000;0.142324
8404.000000;0.141961
8403.000000;0.141614
8402.000000;0.141359
8401.000000;0.141169
8400.000000;0.140960
8399.000000;0.140706
8398.000000;0.140431
8397.000000;0.140122
8396.000000;0.139726
8395.000000;0.139259
8394.000000;0.138833
8393.000000;0.138526
8392.000000;0.138298
8391.000000;0.138082
8390.000000;0.137886
8389.000000;0.137756
8388.000000;0.137655
8387.000000;0.137477
8386.000000;0.137161
8385.000000;0.136750
8384.000000;0.136333
8383.000000;0.135979
8382.000000;0.135723
8381.000000;0.135577
8380.000000;0.135521
8379.000000;0.135495
8378.000000;0.135430
8377.000000;0.135292
8376.000000;0.135098
8375.000000;0.134851
8374.000000;0.134490
8373.000000;0.133935
8372.000000;0.133233
8371.000000;0.132620
8370.000000;0.132349
8369.000000;0.132434
8368.000000;0.132623
8367.000000;0.132634
8366.000000;0.132395
8365.000000;0.132026
8364.000000;0.131657
8363.000000;0.131342
8362.000000;0.131103
8361.000000;0.130953
8360.000000;0.130842
8359.000000;0.130649
8358.000000;0.130283
8357.000000;0.129791
8356.000000;0.129317
8355.000000;0.128986
8354.000000;0.128817
8353.000000;0.128724
8352.000000;0.128577
8351.000000;0.128292
8350.000000;0.127908
8349.000000;0.127568
8348.000000;0.127387
8347.000000;0.127341
8346.000000;0.127322
8345.000000;0.127248
8344.000000;0.127078
8343.000000;0.126772
8342.000000;0.126333
8341.000000;0.125885
8340.000000;0.125593
8339.000000;0.125446
8338.000000;0.125234
8337.000000;0.124813
8336.000000;0.124321
8335.000000;0.124018
8334.000000;0.123956
8333.000000;0.123923
8332.000000;0.123731
8331.000000;0.123444
8330.000000;0.123273
8329.000000;0.123307
8328.000000;0.123407
8327.000000;0.123359
8326.000000;0.123071
8325.000000;0.122633
8324.000000;0.122208
8323.000000;0.121882
8322.000000;0.121633
8321.000000;0.121402
8320.000000;0.121171
8319.000000;0.120940
8318.000000;0.120697
8317.000000;0.120450
8316.000000;0.120219
8315.000000;0.119977
8314.000000;0.119640
8313.000000;0.119206
8312.000000;0.118852
8311.000000;0.118764
8310.000000;0.118886
8309.000000;0.118943
8308.000000;0.118745
8307.000000;0.118362
8306.000000;0.117966
8305.000000;0.117638
8304.000000;0.117382
8303.000000;0.117237
8302.000000;0.117240
8301.000000;0.117323
8300.000000;0.117357
8299.000000;0.117299
8298.000000;0.117201
8297.000000;0.117079
8296.000000;0.116862
8295.000000;0.116514
8294.000000;0.116128
8293.000000;0.115826
8292.000000;0.115599
8291.000000;0.115324
8290.000000;0.114939
8289.000000;0.114549
8288.000000;0.114322
8287.000000;0.114309
8286.000000;0.114401
8285.000000;0.114453
8284.000000;0.114390
8283.000000;0.114208
8282.000000;0.113907
8281.000000;0.113503
8280.000000;0.113074
8279.000000;0.112734
8278.000000;0.112541
8277.000000;0.112442
8276.000000;0.112343
8275.000000;0.112214
8274.000000;0.112120
8273.000000;0.112119
8272.000000;0.112166
8271.000000;0.112130
8270.000000;0.111914
8269.000000;0.111553
8268.000000;0.111168
8267.000000;0.110839
8266.000000;0.110566
8265.000000;0.110355
8264.000000;0.110266
8263.000000;0.110323
8262.000000;0.110415
8261.000000;0.110364
8260.000000;0.110076
8259.000000;0.109611
8258.000000;0.109116
8257.000000;0.108746
8256.000000;0.108618
8255.000000;0.108738
8254.000000;0.108947
8253.000000;0.109004
8252.000000;0.108780
8251.000000;0.108377
8250.000000;0.108020
8249.000000;0.107840
8248.000000;0.107781
8247.000000;0.107703
8246.000000;0.107549
8245.000000;0.107393
8244.000000;0.107325
8243.000000;0.107323
8242.000000;0.107260
8241.000000;0.107045
8240.000000;0.106709
8239.000000;0.106351
8238.000000;0.106050
8237.000000;0.105831
8236.000000;0.105682
8235.000000;0.105554
8234.000000;0.105391
8233.000000;0.105199
8232.000000;0.105059
8231.000000;0.105015
8230.000000;0.104986
8229.000000;0.104848
8228.000000;0.104579
8227.000000;0.104279
8226.000000;0.104059
8225.000000;0.103961
8224.000000;0.103952
8223.000000;0.103953
8222.000000;0.103877
8221.000000;0.103709
8220.000000;0.103535
8219.000000;0.103434
8218.000000;0.103379
8217.000000;0.103295
8216.000000;0.103179
8215.000000;0.103101
8214.000000;0.103092
8213.000000;0.103119
8212.000000;0.103142
8211.000000;0.103122
8210.000000;0.102981
8209.000000;0.102666
8208.000000;0.102264
8207.000000;0.101950
8206.000000;0.101783
8205.000000;0.101640
8204.000000;0.101384
8203.000000;0.101027
8202.000000;0.100685
8201.000000;0.100449
8200.000000;0.100350
8199.000000;0.100384
8198.000000;0.100502
8197.000000;0.100616
8196.000000;0.100656
8195.000000;0.100599
8194.000000;0.100420
8193.000000;0.100079
8192.000000;0.099625
8191.000000;0.099251
8190.000000;0.099172
8189.000000;0.099405
8188.000000;0.099726
8187.000000;0.099833
8186.000000;0.099584
8185.000000;0.099085
8184.000000;0.098598
8183.000000;0.098329
8182.000000;0.098291
8181.000000;0.098335
8180.000000;0.098330
8179.000000;0.098271
8178.000000;0.098233
8177.000000;0.098266
8176.000000;0.098349
8175.000000;0.098405
8174.000000;0.098336
8173.000000;0.098083
8172.000000;0.097700
8171.000000;0.097350
8170.000000;0.097165
8169.000000;0.097115
8168.000000;0.097031
8167.000000;0.096788
8166.000000;0.096461
8165.000000;0.096257
8164.000000;0.096295
8163.000000;0.096475
8162.000000;0.096611
8161.000000;0.096643
8160.000000;0.096655
8159.000000;0.096684
8158.000000;0.096601
8157.000000;0.096279
8156.000000;0.095803
8155.000000;0.095414
8154.000000;0.095266
8153.000000;0.095302
8152.000000;0.095372
8151.000000;0.095389
8150.000000;0.095335
8149.000000;0.095213
8148.000000;0.095015
8147.000000;0.094725
8146.000000;0.094354
8145.000000;0.093994
8144.000000;0.093801
8143.000000;0.093857
8142.000000;0.094055
8141.000000;0.094202
8140.000000;0.094238
8139.000000;0.094239
8138.000000;0.094215
8137.000000;0.094040
8136.000000;0.093656
8135.000000;0.093245
8134.000000;0.093087
8133.000000;0.093277
8132.000000;0.093633
8131.000000;0.093878
8130.000000;0.093847
8129.000000;0.093573
8128.000000;0.093222
8127.000000;0.092974
8126.000000;0.092893
8125.000000;0.092898
8124.000000;0.092866
8123.000000;0.092753
8122.000000;0.092610
8121.000000;0.092506
8120.000000;0.092447
8119.000000;0.092389
8118.000000;0.092298
8117.000000;0.092199
8116.000000;0.092131
8115.000000;0.092071
8114.000000;0.091935
8113.000000;0.091701
8112.000000;0.091482
8111.000000;0.091417
8110.000000;0.091502
8109.000000;0.091606
8108.000000;0.091629
8107.000000;0.091583
8106.000000;0.091508
8105.000000;0.091405
8104.000000;0.091262
8103.000000;0.091096
8102.000000;0.090916
8101.000000;0.090721
8100.000000;0.090545
8099.000000;0.090461
8098.000000;0.090489
8097.000000;0.090553
8096.000000;0.090560
8095.000000;0.090491
8094.000000;0.090382
8093.000000;0.090266
8092.000000;0.090157
8091.000000;0.090061
8090.000000;0.089967
8089.000000;0.089874
8088.000000;0.089817
8087.000000;0.089831
8086.000000;0.089873
8085.000000;0.089846
8084.000000;0.089724
8083.000000;0.089586
8082.000000;0.089506
8081.000000;0.089467
8080.000000;0.089422
8079.000000;0.089387
8078.000000;0.089403
8077.000000;0.089466
8076.000000;0.089547
8075.000000;0.089617
8074.000000;0.089625
8073.000000;0.089507
8072.000000;0.089294
8071.000000;0.089141
8070.000000;0.089168
8069.000000;0.089307
8068.000000;0.089394
8067.000000;0.089362
8066.000000;0.089254
8065.000000;0.089080
8064.000000;0.088803
8063.000000;0.088472
8062.000000;0.088239
8061.000000;0.088204
8060.000000;0.088302
8059.000000;0.088422
8058.000000;0.088536
8057.000000;0.088662
8056.000000;0.088760
8055.000000;0.088763
8054.000000;0.088681
8053.000000;0.088592
8052.000000;0.088526
8051.000000;0.088429
8050.000000;0.088256
8049.000000;0.088048
8048.000000;0.087879
8047.000000;0.087759
8046.000000;0.087647
8045.000000;0.087531
8044.000000;0.087451
8043.000000;0.087452
8042.000000;0.087524
8041.000000;0.087623
8040.000000;0.087706
8039.000000;0.087756
8038.000000;0.087780
8037.000000;0.087799
8036.000000;0.087826
8035.000000;0.087845
8034.000000;0.087830
8033.000000;0.087768
8032.000000;0.087659
8031.000000;0.087502
8030.000000;0.087289
8029.000000;0.087044
8028.000000;0.086818
8027.000000;0.086656
8026.000000;0.086582
8025.000000;0.086621
8024.000000;0.086781
8023.000000;0.086994
8022.000000;0.087117
8021.000000;0.087053
8020.000000;0.086845
8019.000000;0.086621
8018.000000;0.086462
8017.000000;0.086361
8016.000000;0.086290
8015.000000;0.086245
8014.000000;0.086235
8013.000000;0.086255
8012.000000;0.086296
8011.000000;0.086346
8010.000000;0.086402
8009.000000;0.086475
8008.000000;0.086574
8007.000000;0.086674
8006.000000;0.086721
8005.000000;0.086702
8004.000000;0.086669
8003.000000;0.086669
8002.000000;0.086674
8001.000000;0.086636
8000.000000;0.086569
7999.000000;0.086509
7998.000000;0.086444
7997.000000;0.086321
7996.000000;0.086119
7995.000000;0.085860
7994.000000;0.085585
7993.000000;0.085380
7992.000000;0.085365
7991.000000;0.085574
7990.000000;0.085851
7989.000000;0.085964
7988.000000;0.085829
7987.000000;0.085557
7986.000000;0.085303
7985.000000;0.085145
7984.000000;0.085108
7983.000000;0.085187
7982.000000;0.085316
7981.000000;0.085400
7980.000000;0.085427
7979.000000;0.085465
7978.000000;0.085514
7977.000000;0.085457
7976.000000;0.085214
7975.000000;0.084878
7974.000000;0.084634
7973.000000;0.084585
7972.000000;0.084709
7971.000000;0.084934
7970.000000;0.085180
7969.000000;0.085368
7968.000000;0.085451
7967.000000;0.085430
7966.000000;0.085325
7965.000000;0.085150
7964.000000;0.084939
7963.000000;0.084766
7962.000000;0.084676
7961.000000;0.084646
7960.000000;0.084620
7959.000000;0.084580
7958.000000;0.084525
7957.000000;0.084420
7956.000000;0.084222
7955.000000;0.083958
7954.000000;0.083757
7953.000000;0.083750
7952.000000;0.083942
7951.000000;0.084174
7950.000000;0.084242
7949.000000;0.084108
7948.000000;0.083947
7947.000000;0.083953
7946.000000;0.084099
7945.000000;0.084175
7944.000000;0.084047
7943.000000;0.083795
7942.000000;0.083585
7941.000000;0.083502
7940.000000;0.083538
7939.000000;0.083645
7938.000000;0.083749
7937.000000;0.083767
7936.000000;0.083711
7935.000000;0.083704
7934.000000;0.083840
7933.000000;0.084036
7932.000000;0.084118
7931.000000;0.084018
7930.000000;0.083833
7929.000000;0.083690
7928.000000;0.083613
7927.000000;0.083545
7926.000000;0.083424
7925.000000;0.083251
7924.000000;0.083098
7923.000000;0.083066
7922.000000;0.083199
7921.000000;0.083444
7920.000000;0.083689
7919.000000;0.083835
7918.000000;0.083832
7917.000000;0.083684
7916.000000;0.083468
7915.000000;0.083299
7914.000000;0.083246
7913.000000;0.083274
7912.000000;0.083284
7911.000000;0.083197
7910.000000;0.083008
7909.000000;0.082792
7908.000000;0.082687
7907.000000;0.082801
7906.000000;0.083082
7905.000000;0.083308
7904.000000;0.083272
7903.000000;0.082982
7902.000000;0.082655
7901.000000;0.082505
7900.000000;0.082575
7899.000000;0.082755
7898.000000;0.082910
7897.000000;0.082966
7896.000000;0.082937
7895.000000;0.082887
7894.000000;0.082871
7893.000000;0.082888
7892.000000;0.082895
7891.000000;0.082855
7890.000000;0.082775
7889.000000;0.082703
7888.000000;0.082688
7887.000000;0.082751
7886.000000;0.082859
7885.000000;0.082938
7884.000000;0.082915
7883.000000;0.082770
7882.000000;0.082549
7881.000000;0.082338
7880.000000;0.082192
7879.000000;0.082096
7878.000000;0.082000
7877.000000;0.081898
7876.000000;0.081856
7875.000000;0.081935
7874.000000;0.082105
7873.000000;0.082270
7872.000000;0.082368
7871.000000;0.082402
7870.000000;0.082401
7869.000000;0.082378
7868.000000;0.082331
7867.000000;0.082254
7866.000000;0.082143
7865.000000;0.082033
7864.000000;0.082005
7863.000000;0.082108
7862.000000;0.082280
7861.000000;0.082401
7860.000000;0.082418
7859.000000;0.082374
7858.000000;0.082314
7857.000000;0.082236
7856.000000;0.082142
7855.000000;0.082051
7854.000000;0.081952
7853.000000;0.081792
7852.000000;0.081572
7851.000000;0.081388
7850.000000;0.081340
7849.000000;0.081427
7848.000000;0.081577
7847.000000;0.081723
7846.000000;0.081812
7845.000000;0.081793
7844.000000;0.081664
7843.000000;0.081507
7842.000000;0.081422
7841.000000;0.081421
7840.000000;0.081426
7839.000000;0.081365
7838.000000;0.081248
7837.000000;0.081153
7836.000000;0.081156
7835.000000;0.081258
7834.000000;0.081357
7833.000000;0.081346
7832.000000;0.081239
7831.000000;0.081165
7830.000000;0.081201
7829.000000;0.081262
7828.000000;0.081201
7827.000000;0.081008
7826.000000;0.080820
7825.000000;0.080757
7824.000000;0.080804
7823.000000;0.080856
7822.000000;0.080854
7821.000000;0.080830
7820.000000;0.080846
7819.000000;0.080902
7818.000000;0.080915
7817.000000;0.080801
7816.000000;0.080577
7815.000000;0.080355
7814.000000;0.080237
7813.000000;0.080230
7812.000000;0.080274
7811.000000;0.080311
7810.000000;0.080307
7809.000000;0.080244
7808.000000;0.080132
7807.000000;0.080034
7806.000000;0.080034
7805.000000;0.080165
7804.000000;0.080362
7803.000000;0.080500
7802.000000;0.080497
7801.000000;0.080384
7800.000000;0.080272
7799.000000;0.080234
7798.000000;0.080232
7797.000000;0.080196
7796.000000;0.080131
7795.000000;0.080099
7794.000000;0.080101
7793.000000;0.080054
7792.000000;0.079925
7791.000000;0.079802
7790.000000;0.079803
7789.000000;0.079938
7788.000000;0.080104
7787.000000;0.080198
7786.000000;0.080188
7785.000000;0.080117
7784.000000;0.080048
7783.000000;0.079993
7782.000000;0.079896
7781.000000;0.079706
7780.000000;0.079481
7779.000000;0.079360
7778.000000;0.079403
7777.000000;0.079524
7776.000000;0.079623
7775.000000;0.079706
7774.000000;0.079819
7773.000000;0.079927
7772.000000;0.079941
7771.000000;0.079841
7770.000000;0.079699
7769.000000;0.079583
7768.000000;0.079503
7767.000000;0.079441
7766.000000;0.079389
7765.000000;0.079342
7764.000000;0.079309
7763.000000;0.079326
7762.000000;0.079420
7761.000000;0.079569
7760.000000;0.079702
7759.000000;0.079763
7758.000000;0.079742
7757.000000;0.079658
7756.000000;0.079551
7755.000000;0.079462
7754.000000;0.079405
7753.000000;0.079348
7752.000000;0.079268
7751.000000;0.079209
7750.000000;0.079251
7749.000000;0.079396
7748.000000;0.079536
7747.000000;0.079546
7746.000000;0.079402
7745.000000;0.079184
7744.000000;0.078980
7743.000000;0.078823
7742.000000;0.078719
7741.000000;0.078701
7740.000000;0.078797
7739.000000;0.078953
7738.000000;0.079023
7737.000000;0.078907
7736.000000;0.078675
7735.000000;0.078495
7734.000000;0.078448
7733.000000;0.078471
7732.000000;0.078487
7731.000000;0.078517
7730.000000;0.078614
7729.000000;0.078746
7728.000000;0.078812
7727.000000;0.078759
7726.000000;0.078639
7725.000000;0.078546
7724.000000;0.078535
7723.000000;0.078590
7722.000000;0.078647
7721.000000;0.078645
7720.000000;0.078565
7719.000000;0.078430
7718.000000;0.078281
7717.000000;0.078167
7716.000000;0.078149
7715.000000;0.078249
7714.000000;0.078407
7713.000000;0.078518
7712.000000;0.078536
7711.000000;0.078500
7710.000000;0.078442
7709.000000;0.078343
7708.000000;0.078208
7707.000000;0.078124
7706.000000;0.078181
7705.000000;0.078363
7704.000000;0.078555
7703.000000;0.078641
7702.000000;0.078565
7701.000000;0.078344
7700.000000;0.078077
7699.000000;0.077897
7698.000000;0.077871
7697.000000;0.077947
7696.000000;0.078012
7695.000000;0.078009
7694.000000;0.077961
7693.000000;0.077926
7692.000000;0.077945
7691.000000;0.078005
7690.000000;0.078031
7689.000000;0.077949
7688.000000;0.077792
7687.000000;0.077674
7686.000000;0.077658
7685.000000;0.077693
7684.000000;0.077722
7683.000000;0.077774
7682.000000;0.077869
7681.000000;0.077905
7680.000000;0.077765
7679.000000;0.077494
7678.000000;0.077278
7677.000000;0.077243
7676.000000;0.077350
7675.000000;0.077492
7674.000000;0.077585
7673.000000;0.077581
7672.000000;0.077475
7671.000000;0.077342
7670.000000;0.077292
7669.000000;0.077357
7668.000000;0.077464
7667.000000;0.077534
7666.000000;0.077558
7665.000000;0.077556
7664.000000;0.077520
7663.000000;0.077438
7662.000000;0.077321
7661.000000;0.077197
7660.000000;0.077094
7659.000000;0.077044
7658.000000;0.077063
7657.000000;0.077124
7656.000000;0.077160
7655.000000;0.077127
7654.000000;0.077039
7653.000000;0.076925
7652.000000;0.076805
7651.000000;0.076699
7650.000000;0.076641
7649.000000;0.076651
7648.000000;0.076710
7647.000000;0.076790
7646.000000;0.076857
7645.000000;0.076874
7644.000000;0.076819
7643.000000;0.076727
7642.000000;0.076676
7641.000000;0.076695
7640.000000;0.076711
7639.000000;0.076635
7638.000000;0.076475
7637.000000;0.076339
7636.000000;0.076306
7635.000000;0.076340
7634.000000;0.076355
7633.000000;0.076333
7632.000000;0.076334
7631.000000;0.076384
7630.000000;0.076414
7629.000000;0.076366
7628.000000;0.076305
7627.000000;0.076348
7626.000000;0.076491
7625.000000;0.076586
7624.000000;0.076532
7623.000000;0.076407
7622.000000;0.076371
7621.000000;0.076468
7620.000000;0.076600
7619.000000;0.076652
7618.000000;0.076584
7617.000000;0.076431
7616.000000;0.076264
7615.000000;0.076159
7614.000000;0.076133
7613.000000;0.076123
7612.000000;0.076062
7611.000000;0.075959
7610.000000;0.075874
7609.000000;0.075825
7608.000000;0.075794
7607.000000;0.075791
7606.000000;0.075849
7605.000000;0.075940
7604.000000;0.075978
7603.000000;0.075927
7602.000000;0.075866
7601.000000;0.075896
7600.000000;0.076018
7599.000000;0.076135
7598.000000;0.076159
7597.000000;0.076095
7596.000000;0.076016
7595.000000;0.075967
7594.000000;0.075905
7593.000000;0.075746
7592.000000;0.075486
7591.000000;0.075252
7590.000000;0.075190
7589.000000;0.075320
7588.000000;0.075524
7587.000000;0.075677
7586.000000;0.075731
7585.000000;0.075701
7584.000000;0.075623
7583.000000;0.075544
7582.000000;0.075507
7581.000000;0.075512
7580.000000;0.075516
7579.000000;0.075480
7578.000000;0.075416
7577.000000;0.075360
7576.000000;0.075338
7575.000000;0.075356
7574.000000;0.075399
7573.000000;0.075441
7572.000000;0.075456
7571.000000;0.075440
7570.000000;0.075404
7569.000000;0.075352
7568.000000;0.075288
7567.000000;0.075215
7566.000000;0.075141
7565.000000;0.075066
7564.000000;0.075004
7563.000000;0.074984
7562.000000;0.075005
7561.000000;0.075016
7560.000000;0.074968
7559.000000;0.074882
7558.000000;0.074816
7557.000000;0.074784
7556.000000;0.074757
7555.000000;0.074730
7554.000000;0.074733
7553.000000;0.074765
7552.000000;0.074774
7551.000000;0.074728
7550.000000;0.074672
7549.000000;0.074661
7548.000000;0.074670
7547.000000;0.074612
7546.000000;0.074456
7545.000000;0.074300
7544.000000;0.074275
7543.000000;0.074388
7542.000000;0.074487
7541.000000;0.074412
7540.000000;0.074175
7539.000000;0.073945
7538.000000;0.073868
7537.000000;0.073937
7536.000000;0.074061
7535.000000;0.074191
7534.000000;0.074329
7533.000000;0.074464
7532.000000;0.074564
7531.000000;0.074607
7530.000000;0.074598
7529.000000;0.074541
7528.000000;0.074446
7527.000000;0.074329
7526.000000;0.074205
7525.000000;0.074074
7524.000000;0.073967
7523.000000;0.073946
7522.000000;0.074020
7521.000000;0.074114
7520.000000;0.074148
7519.000000;0.074137
7518.000000;0.074128
7517.000000;0.074103
7516.000000;0.074008
7515.000000;0.073868
7514.000000;0.073772
7513.000000;0.073753
7512.000000;0.073753
7511.000000;0.073720
7510.000000;0.073678
7509.000000;0.073673
7508.000000;0.073716
7507.000000;0.073787
7506.000000;0.073855
7505.000000;0.073874
7504.000000;0.073813
7503.000000;0.073705
7502.000000;0.073618
7501.000000;0.073558
7500.000000;0.073471
7499.000000;0.073335
7498.000000;0.073202
7497.000000;0.073128
7496.000000;0.073099
7495.000000;0.073064
7494.000000;0.073004
7493.000000;0.072933
7492.000000;0.072869
7491.000000;0.072810
7490.000000;0.072753
7489.000000;0.072705
7488.000000;0.072685
7487.000000;0.072715
7486.000000;0.072785
7485.000000;0.072842
7484.000000;0.072830
7483.000000;0.072747
7482.000000;0.072635
7481.000000;0.072542
7480.000000;0.072496
7479.000000;0.072507
7478.000000;0.072546
7477.000000;0.072558
7476.000000;0.072523
7475.000000;0.072492
7474.000000;0.072518
7473.000000;0.072590
7472.000000;0.072663
7471.000000;0.072734
7470.000000;0.072815
7469.000000;0.072865
7468.000000;0.072827
7467.000000;0.072720
7466.000000;0.072623
7465.000000;0.072574
7464.000000;0.072546
7463.000000;0.072507
7462.000000;0.072448
7461.000000;0.072368
7460.000000;0.072276
7459.000000;0.072213
7458.000000;0.072205
7457.000000;0.072200
7456.000000;0.072135
7455.000000;0.072040
7454.000000;0.071986
7453.000000;0.071971
7452.000000;0.071934
7451.000000;0.071882
7450.000000;0.071883
7449.000000;0.071941
7448.000000;0.071982
7447.000000;0.071972
7446.000000;0.071951
7445.000000;0.071951
7444.000000;0.071949
7443.000000;0.071939
7442.000000;0.071935
7441.000000;0.071911
7440.000000;0.071816
7439.000000;0.071671
7438.000000;0.071556
7437.000000;0.071488
7436.000000;0.071407
7435.000000;0.071310
7434.000000;0.071282
7433.000000;0.071353
7432.000000;0.071441
7431.000000;0.071488
7430.000000;0.071531
7429.000000;0.071586
7428.000000;0.071589
7427.000000;0.071500
7426.000000;0.071365
7425.000000;0.071247
7424.000000;0.071158
7423.000000;0.071103
7422.000000;0.071106
7421.000000;0.071163
7420.000000;0.071217
7419.000000;0.071223
7418.000000;0.071187
7417.000000;0.071120
7416.000000;0.071034
7415.000000;0.070958
7414.000000;0.070920
7413.000000;0.070888
7412.000000;0.070811
7411.000000;0.070726
7410.000000;0.070737
7409.000000;0.070835
7408.000000;0.070882
7407.000000;0.070800
7406.000000;0.070667
7405.000000;0.070595
7404.000000;0.070605
7403.000000;0.070654
7402.000000;0.070731
7401.000000;0.070824
7400.000000;0.070854
7399.000000;0.070784
7398.000000;0.070701
7397.000000;0.070649
7396.000000;0.070559
7395.000000;0.070449
7394.000000;0.070420
7393.000000;0.070398
7392.000000;0.070128
7391.000000;0.069560
7390.000000;0.069046
7389.000000;0.068938
7388.000000;0.069193
7387.000000;0.069570
7386.000000;0.069949
7385.000000;0.070274
7384.000000;0.070426
7383.000000;0.070346
7382.000000;0.070154
7381.000000;0.070055
7380.000000;0.070131
7379.000000;0.070310
7378.000000;0.070461
7377.000000;0.070455
7376.000000;0.070288
7375.000000;0.070115
7374.000000;0.070086
7373.000000;0.070163
7372.000000;0.070163
7371.000000;0.069980
7370.000000;0.069719
7369.000000;0.069516
7368.000000;0.069361
7367.000000;0.069321
7366.000000;0.069575
7365.000000;0.069975
7364.000000;0.070031
7363.000000;0.069531
7362.000000;0.068821
7361.000000;0.068446
7360.000000;0.068648
7359.000000;0.069216
7358.000000;0.069682
7357.000000;0.069689
7356.000000;0.069288
7355.000000;0.068904
7354.000000;0.068974
7353.000000;0.069477
7352.000000;0.069934
7351.000000;0.069921
7350.000000;0.069515
7349.000000;0.069142
7348.000000;0.069045
7347.000000;0.069045
7346.000000;0.068817
7345.000000;0.068348
7344.000000;0.068026
7343.000000;0.068316
7342.000000;0.069255
7341.000000;0.070309
7340.000000;0.070815
7339.000000;0.070603
7338.000000;0.070101
7337.000000;0.069700
7336.000000;0.069390
7335.000000;0.069046
7334.000000;0.068760
7333.000000;0.068753
7332.000000;0.069032
7331.000000;0.069235
7330.000000;0.068969
7329.000000;0.068355
7328.000000;0.068000
7327.000000;0.068195
7326.000000;0.068532
7325.000000;0.068510
7324.000000;0.068075
7323.000000;0.067561
7322.000000;0.067352
7321.000000;0.067580
7320.000000;0.067995
7319.000000;0.068227
7318.000000;0.068287
7317.000000;0.068479
7316.000000;0.068843
7315.000000;0.068991
7314.000000;0.068600
7313.000000;0.068001
7312.000000;0.067960
7311.000000;0.068703
7310.000000;0.069510
7309.000000;0.069519
7308.000000;0.068684
7307.000000;0.067663
7306.000000;0.067055
7305.000000;0.067075
7304.000000;0.067589
7303.000000;0.068051
7302.000000;0.067861
7301.000000;0.066966
7300.000000;0.066039
7299.000000;0.065873
7298.000000;0.066530
7297.000000;0.067271
7296.000000;0.067336
7295.000000;0.066790
7294.000000;0.066349
7293.000000;0.066500
7292.000000;0.067127
7291.000000;0.067819
7290.000000;0.068291
7289.000000;0.068573
7288.000000;0.068834
7287.000000;0.069029
7286.000000;0.068888
7285.000000;0.068382
7284.000000;0.067891
7283.000000;0.067720
7282.000000;0.067810
7281.000000;0.067917
7280.000000;0.067940
7279.000000;0.067977
7278.000000;0.068075
7277.000000;0.068173
7276.000000;0.068268
7275.000000;0.068393
7274.000000;0.068491
7273.000000;0.068506
7272.000000;0.068504
7271.000000;0.068553
7270.000000;0.068605
7269.000000;0.068605
7268.000000;0.068607
7267.000000;0.068665
7266.000000;0.068737
7265.000000;0.068817
7264.000000;0.069044
7263.000000;0.069477
7262.000000;0.069881
7261.000000;0.069961
7260.000000;0.069716
7259.000000;0.069403
7258.000000;0.069230
7257.000000;0.069240
7256.000000;0.069387
7255.000000;0.069617
7254.000000;0.069925
7253.000000;0.070285
7252.000000;0.070517
7251.000000;0.070468
7250.000000;0.070164
7249.000000;0.069799
7248.000000;0.069716
7247.000000;0.070101
7246.000000;0.070659
7245.000000;0.070897
7244.000000;0.070788
7243.000000;0.070833
7242.000000;0.071301
7241.000000;0.071807
7240.000000;0.071834
7239.000000;0.071289
7238.000000;0.070546
7237.000000;0.070191
7236.000000;0.070501
7235.000000;0.071134
7234.000000;0.071570
7233.000000;0.071634
7232.000000;0.071480
7231.000000;0.071357
7230.000000;0.071316
7229.000000;0.071177
7228.000000;0.070910
7227.000000;0.070704
7226.000000;0.070633
7225.000000;0.070576
7224.000000;0.070480
7223.000000;0.070386
7222.000000;0.070224
7221.000000;0.069941
7220.000000;0.069727
7219.000000;0.069753
7218.000000;0.069871
7217.000000;0.069836
7216.000000;0.069639
7215.000000;0.069413
7214.000000;0.069218
7213.000000;0.069051
7212.000000;0.068949
7211.000000;0.068967
7210.000000;0.069077
7209.000000;0.069217
7208.000000;0.069448
7207.000000;0.069839
7206.000000;0.070261
7205.000000;0.070516
7204.000000;0.070582
7203.000000;0.070527
7202.000000;0.070300
7201.000000;0.069857
7200.000000;0.069359
7199.000000;0.069004
7198.000000;0.068787
7197.000000;0.068602
7196.000000;0.068462
7195.000000;0.068439
7194.000000;0.068468
7193.000000;0.068441
7192.000000;0.068391
7191.000000;0.068404
7190.000000;0.068399
7189.000000;0.068261
7188.000000;0.068058
7187.000000;0.067973
7186.000000;0.068058
7185.000000;0.068103
7184.000000;0.067817
7183.000000;0.067177
7182.000000;0.066524
7181.000000;0.066281
7180.000000;0.066595
7179.000000;0.067211
7178.000000;0.067652
7177.000000;0.067686
7176.000000;0.067529
7175.000000;0.067473
7174.000000;0.067512
7173.000000;0.067495
7172.000000;0.067466
7171.000000;0.067633
7170.000000;0.068017
7169.000000;0.068393
7168.000000;0.068423
7167.000000;0.067970
7166.000000;0.067364
7165.000000;0.067025
7164.000000;0.066896
7163.000000;0.066520
7162.000000;0.065778
7161.000000;0.065184
7160.000000;0.065267
7159.000000;0.065920
7158.000000;0.066538
7157.000000;0.066710
7156.000000;0.066573
7155.000000;0.066412
7154.000000;0.066303
7153.000000;0.066237
7152.000000;0.066198
7151.000000;0.066174
7150.000000;0.066219
7149.000000;0.066363
7148.000000;0.066430
7147.000000;0.066190
7146.000000;0.065718
7145.000000;0.065423
7144.000000;0.065662
7143.000000;0.066279
7142.000000;0.066709
7141.000000;0.066561
7140.000000;0.066012
7139.000000;0.065557
7138.000000;0.065445
7137.000000;0.065521
7136.000000;0.065529
7135.000000;0.065385
7134.000000;0.065195
7133.000000;0.065125
7132.000000;0.065195
7131.000000;0.065257
7130.000000;0.065186
7129.000000;0.065022
7128.000000;0.064944
7127.000000;0.065052
7126.000000;0.065233
7125.000000;0.065277
7124.000000;0.065124
7123.000000;0.064975
7122.000000;0.065049
7121.000000;0.065235
7120.000000;0.065147
7119.000000;0.064605
7118.000000;0.063934
7117.000000;0.063641
7116.000000;0.063870
7115.000000;0.064296
7114.000000;0.064519
7113.000000;0.064446
7112.000000;0.064292
7111.000000;0.064265
7110.000000;0.064361
7109.000000;0.064489
7108.000000;0.064594
7107.000000;0.064600
7106.000000;0.064484
7105.000000;0.064331
7104.000000;0.064178
7103.000000;0.064021
7102.000000;0.063891
7101.000000;0.063826
7100.000000;0.063841
7099.000000;0.063896
7098.000000;0.063859
7097.000000;0.063599
7096.000000;0.063174
7095.000000;0.062865
7094.000000;0.062919
7093.000000;0.063256
7092.000000;0.063533
7091.000000;0.063509
7090.000000;0.063257
7089.000000;0.063013
7088.000000;0.062892
7087.000000;0.062848
7086.000000;0.062839
7085.000000;0.062872
7084.000000;0.062875
7083.000000;0.062737
7082.000000;0.062483
7081.000000;0.062268
7080.000000;0.062233
7079.000000;0.062377
7078.000000;0.062548
7077.000000;0.062612
7076.000000;0.062577
7075.000000;0.062484
7074.000000;0.062293
7073.000000;0.061958
7072.000000;0.061589
7071.000000;0.061407
7070.000000;0.061511
7069.000000;0.061771
7068.000000;0.061976
7067.000000;0.062028
7066.000000;0.061987
7065.000000;0.061956
7064.000000;0.061933
7063.000000;0.061833
7062.000000;0.061640
7061.000000;0.061421
7060.000000;0.061249
7059.000000;0.061167
7058.000000;0.061136
7057.000000;0.061070
7056.000000;0.060934
7055.000000;0.060758
7054.000000;0.060604
7053.000000;0.060545
7052.000000;0.060608
7051.000000;0.060706
7050.000000;0.060703
7049.000000;0.060560
7048.000000;0.060392
7047.000000;0.060330
7046.000000;0.060382
7045.000000;0.060452
7044.000000;0.060463
7043.000000;0.060408
7042.000000;0.060333
7041.000000;0.060270
7040.000000;0.060212
7039.000000;0.060130
7038.000000;0.059998
7037.000000;0.059817
7036.000000;0.059637
7035.000000;0.059508
7034.000000;0.059422
7033.000000;0.059357
7032.000000;0.059313
7031.000000;0.059302
7030.000000;0.059304
7029.000000;0.059282
7028.000000;0.059225
7027.000000;0.059157
7026.000000;0.059091
7025.000000;0.059020
7024.000000;0.058938
7023.000000;0.058843
7022.000000;0.058732
7021.000000;0.058624
7020.000000;0.058558
7019.000000;0.058546
7018.000000;0.058538
7017.000000;0.058491
7016.000000;0.058426
7015.000000;0.058381
7014.000000;0.058345
7013.000000;0.058273
7012.000000;0.058146
7011.000000;0.057991
7010.000000;0.057834
7009.000000;0.057685
7008.000000;0.057574
7007.000000;0.057544
7006.000000;0.057585
7005.000000;0.057622
7004.000000;0.057600
7003.000000;0.057530
7002.000000;0.057442
7001.000000;0.057336
7000.000000;0.057200
6999.000000;0.057049
6998.000000;0.056931
6997.000000;0.056882
6996.000000;0.056895
6995.000000;0.056929
6994.000000;0.056921
6993.000000;0.056824
6992.000000;0.056666
6991.000000;0.056525
6990.000000;0.056457
6989.000000;0.056469
6988.000000;0.056518
6987.000000;0.056551
6986.000000;0.056540
6985.000000;0.056488
6984.000000;0.056410
6983.000000;0.056323
6982.000000;0.056234
6981.000000;0.056139
6980.000000;0.056021
6979.000000;0.055875
6978.000000;0.055718
6977.000000;0.055594
6976.000000;0.055546
6975.000000;0.055577
6974.000000;0.055621
6973.000000;0.055612
6972.000000;0.055548
6971.000000;0.055470
6970.000000;0.055389
6969.000000;0.055292
6968.000000;0.055173
6967.000000;0.055038
6966.000000;0.054889
6965.000000;0.054722
6964.000000;0.054544
6963.000000;0.054391
6962.000000;0.054292
6961.000000;0.054250
6960.000000;0.054258
6959.000000;0.054308
6958.000000;0.054370
6957.000000;0.054400
6956.000000;0.054369
6955.000000;0.054275
6954.000000;0.054144
6953.000000;0.054021
6952.000000;0.053952
6951.000000;0.053928
6950.000000;0.053875
6949.000000;0.053744
6948.000000;0.053586
6947.000000;0.053482
6946.000000;0.053443
6945.000000;0.053418
6944.000000;0.053377
6943.000000;0.053324
6942.000000;0.053248
6941.000000;0.053128
6940.000000;0.052989
6939.000000;0.052896
6938.000000;0.052873
6937.000000;0.052863
6936.000000;0.052791
6935.000000;0.052636
6934.000000;0.052441
6933.000000;0.052275
6932.000000;0.052198
6931.000000;0.052218
6930.000000;0.052258
6929.000000;0.052230
6928.000000;0.052126
6927.000000;0.052009
6926.000000;0.051917
6925.000000;0.051846
6924.000000;0.051791
6923.000000;0.051755
6922.000000;0.051731
6921.000000;0.051707
6920.000000;0.051684
6919.000000;0.051692
6918.000000;0.051741
6917.000000;0.051784
6916.000000;0.051756
6915.000000;0.051644
6914.000000;0.051495
6913.000000;0.051368
6912.000000;0.051293
6911.000000;0.051259
6910.000000;0.051229
6909.000000;0.051163
6908.000000;0.051050
6907.000000;0.050904
6906.000000;0.050750
6905.000000;0.050626
6904.000000;0.050562
6903.000000;0.050533
6902.000000;0.050482
6901.000000;0.050386
6900.000000;0.050279
6899.000000;0.050211
6898.000000;0.050195
6897.000000;0.050201
6896.000000;0.050203
6895.000000;0.050199
6894.000000;0.050188
6893.000000;0.050146
6892.000000;0.050050
6891.000000;0.049904
6890.000000;0.049741
6889.000000;0.049592
6888.000000;0.049480
6887.000000;0.049417
6886.000000;0.049391
6885.000000;0.049371
6884.000000;0.049332
6883.000000;0.049274
6882.000000;0.049216
6881.000000;0.049170
6880.000000;0.049125
6879.000000;0.049069
6878.000000;0.048991
6877.000000;0.048885
6876.000000;0.048765
6875.000000;0.048656
6874.000000;0.048565
6873.000000;0.048478
6872.000000;0.048388
6871.000000;0.048323
6870.000000;0.048310
6869.000000;0.048342
6868.000000;0.048381
6867.000000;0.048396
6866.000000;0.048367
6865.000000;0.048288
6864.000000;0.048169
6863.000000;0.048034
6862.000000;0.047914
6861.000000;0.047829
6860.000000;0.047787
6859.000000;0.047776
6858.000000;0.047758
6857.000000;0.047700
6856.000000;0.047609
6855.000000;0.047513
6854.000000;0.047416
6853.000000;0.047311
6852.000000;0.047214
6851.000000;0.047148
6850.000000;0.047095
6849.000000;0.047013
6848.000000;0.046915
6847.000000;0.046860
6846.000000;0.046878
6845.000000;0.046924
6844.000000;0.046924
6843.000000;0.046838
6842.000000;0.046677
6841.000000;0.046486
6840.000000;0.046316
6839.000000;0.046214
6838.000000;0.046191
6837.000000;0.046221
6836.000000;0.046262
6835.000000;0.046285
6834.000000;0.046270
6833.000000;0.046222
6832.000000;0.046175
6831.000000;0.046156
6830.000000;0.046144
6829.000000;0.046092
6828.000000;0.045991
6827.000000;0.045883
6826.000000;0.045811
6825.000000;0.045778
6824.000000;0.045749
6823.000000;0.045690
6822.000000;0.045586
6821.000000;0.045449
6820.000000;0.045314
6819.000000;0.045220
6818.000000;0.045170
6817.000000;0.045125
6816.000000;0.045045
6815.000000;0.044931
6814.000000;0.044809
6813.000000;0.044703
6812.000000;0.044621
6811.000000;0.044556
6810.000000;0.044502
6809.000000;0.044458
6808.000000;0.044424
6807.000000;0.044385
6806.000000;0.044320
6805.000000;0.044238
6804.000000;0.044173
6803.000000;0.044155
6802.000000;0.044177
6801.000000;0.044214
6800.000000;0.044249
6799.000000;0.044272
6798.000000;0.044267
6797.000000;0.044218
6796.000000;0.044131
6795.000000;0.044019
6794.000000;0.043887
6793.000000;0.043747
6792.000000;0.043629
6791.000000;0.043559
6790.000000;0.043531
6789.000000;0.043515
6788.000000;0.043485
6787.000000;0.043437
6786.000000;0.043382
6785.000000;0.043331
6784.000000;0.043279
6783.000000;0.043202
6782.000000;0.043082
6781.000000;0.042943
6780.000000;0.042834
6779.000000;0.042771
6778.000000;0.042715
6777.000000;0.042625
6776.000000;0.042498
6775.000000;0.042371
6774.000000;0.042275
6773.000000;0.042223
6772.000000;0.042209
6771.000000;0.042210
6770.000000;0.042201
6769.000000;0.042181
6768.000000;0.042166
6767.000000;0.042162
6766.000000;0.042148
6765.000000;0.042105
6764.000000;0.042036
6763.000000;0.041958
6762.000000;0.041869
6761.000000;0.041773
6760.000000;0.041700
6759.000000;0.041680
6758.000000;0.041705
6757.000000;0.041733
6756.000000;0.041723
6755.000000;0.041655
6754.000000;0.041534
6753.000000;0.041381
6752.000000;0.041234
6751.000000;0.041123
6750.000000;0.041053
6749.000000;0.041008
6748.000000;0.040973
6747.000000;0.040935
6746.000000;0.040879
6745.000000;0.040807
6744.000000;0.040742
6743.000000;0.040707
6742.000000;0.040695
6741.000000;0.040687
6740.000000;0.040684
6739.000000;0.040683
6738.000000;0.040661
6737.000000;0.040594
6736.000000;0.040495
6735.000000;0.040400
6734.000000;0.040332
6733.000000;0.040290
6732.000000;0.040258
6731.000000;0.040225
6730.000000;0.040179
6729.000000;0.040125
6728.000000;0.040078
6727.000000;0.040038
6726.000000;0.039983
6725.000000;0.039892
6724.000000;0.039780
6723.000000;0.039675
6722.000000;0.039588
6721.000000;0.039525
6720.000000;0.039508
6719.000000;0.039550
6718.000000;0.039613
6717.000000;0.039648
6716.000000;0.039606
6715.000000;0.039514
6714.000000;0.039417
6713.000000;0.039343
6712.000000;0.039313
6711.000000;0.039321
6710.000000;0.039303
6709.000000;0.039259
6708.000000;0.039183
6707.000000;0.039055
6706.000000;0.038926
6705.000000;0.038800
6704.000000;0.038704
6703.000000;0.038630
6702.000000;0.038574
6701.000000;0.038547
6700.000000;0.038555
6699.000000;0.038570
6698.000000;0.038544
6697.000000;0.038479
6696.000000;0.038436
6695.000000;0.038459
6694.000000;0.038502
6693.000000;0.038487
6692.000000;0.038392
6691.000000;0.038271
6690.000000;0.038188
6689.000000;0.038158
6688.000000;0.038160
6687.000000;0.038160
6686.000000;0.038129
6685.000000;0.038058
6684.000000;0.037961
6683.000000;0.037855
6682.000000;0.037748
6681.000000;0.037654
6680.000000;0.037600
6679.000000;0.037605
6678.000000;0.037648
6677.000000;0.037678
6676.000000;0.037650
6675.000000;0.037559
6674.000000;0.037433
6673.000000;0.037322
6672.000000;0.037258
6671.000000;0.037237
6670.000000;0.037227
6669.000000;0.037211
6668.000000;0.037188
6667.000000;0.037146
6666.000000;0.037059
6665.000000;0.036935
6664.000000;0.036827
6663.000000;0.036779
6662.000000;0.036784
6661.000000;0.036813
6660.000000;0.036857
6659.000000;0.036902
6658.000000;0.036904
6657.000000;0.036826
6656.000000;0.036691
6655.000000;0.036561
6654.000000;0.036473
6653.000000;0.036417
6652.000000;0.036368
6651.000000;0.036310
6650.000000;0.036246
6649.000000;0.036196
6648.000000;0.036185
6647.000000;0.036205
6646.000000;0.036202
6645.000000;0.036126
6644.000000;0.035990
6643.000000;0.035849
6642.000000;0.035753
6641.000000;0.035718
6640.000000;0.035734
6639.000000;0.035774
6638.000000;0.035801
6637.000000;0.035803
6636.000000;0.035795
6635.000000;0.035769
6634.000000;0.035691
6633.000000;0.035555
6632.000000;0.035426
6631.000000;0.035372
6630.000000;0.035387
6629.000000;0.035417
6628.000000;0.035447
6627.000000;0.035488
6626.000000;0.035522
6625.000000;0.035503
6624.000000;0.035432
6623.000000;0.035359
6622.000000;0.035311
6621.000000;0.035256
6620.000000;0.035160
6619.000000;0.035042
6618.000000;0.034943
6617.000000;0.034883
6616.000000;0.034857
6615.000000;0.034851
6614.000000;0.034846
6613.000000;0.034814
6612.000000;0.034738
6611.000000;0.034627
6610.000000;0.034507
6609.000000;0.034409
6608.000000;0.034354
6607.000000;0.034339
6606.000000;0.034328
6605.000000;0.034288
6604.000000;0.034219
6603.000000;0.034152
6602.000000;0.034104
6601.000000;0.034064
6600.000000;0.034021
6599.000000;0.033982
6598.000000;0.033961
6597.000000;0.033964
6596.000000;0.033989
6595.000000;0.034028
6594.000000;0.034053
6593.000000;0.034041
6592.000000;0.033984
6591.000000;0.033894
6590.000000;0.033790
6589.000000;0.033691
6588.000000;0.033617
6587.000000;0.033578
6586.000000;0.033564
6585.000000;0.033555
6584.000000;0.033549
6583.000000;0.033550
6582.000000;0.033552
6581.000000;0.033532
6580.000000;0.033469
6579.000000;0.033363
6578.000000;0.033233
6577.000000;0.033117
6576.000000;0.033046
6575.000000;0.033017
6574.000000;0.032992
6573.000000;0.032954
6572.000000;0.032920
6571.000000;0.032910
6570.000000;0.032911
6569.000000;0.032897
6568.000000;0.032868
6567.000000;0.032849
6566.000000;0.032848
6565.000000;0.032853
6564.000000;0.032858
6563.000000;0.032863
6562.000000;0.032857
6561.000000;0.032820
6560.000000;0.032741
6559.000000;0.032631
6558.000000;0.032511
6557.000000;0.032409
6556.000000;0.032352
6555.000000;0.032349
6554.000000;0.032372
6553.000000;0.032385
6552.000000;0.032372
6551.000000;0.032336
6550.000000;0.032278
6549.000000;0.032202
6548.000000;0.032125
6547.000000;0.032071
6546.000000;0.032051
6545.000000;0.032066
6544.000000;0.032103
6543.000000;0.032134
6542.000000;0.032123
6541.000000;0.032066
6540.000000;0.031988
6539.000000;0.031912
6538.000000;0.031835
6537.000000;0.031754
6536.000000;0.031692
6535.000000;0.031674
6534.000000;0.031684
6533.000000;0.031678
6532.000000;0.031635
6531.000000;0.031568
6530.000000;0.031502
6529.000000;0.031463
6528.000000;0.031464
6527.000000;0.031486
6526.000000;0.031475
6525.000000;0.031407
6524.000000;0.031311
6523.000000;0.031231
6522.000000;0.031173
6521.000000;0.031114
6520.000000;0.031053
6519.000000;0.031005
6518.000000;0.030976
6517.000000;0.030960
6516.000000;0.030956
6515.000000;0.030955
6514.000000;0.030932
6513.000000;0.030884
6512.000000;0.030845
6511.000000;0.030850
6510.000000;0.030881
6509.000000;0.030897
6508.000000;0.030897
6507.000000;0.030900
6506.000000;0.030896
6505.000000;0.030845
6504.000000;0.030747
6503.000000;0.030662
6502.000000;0.030643
6501.000000;0.030678
6500.000000;0.030714
6499.000000;0.030714
6498.000000;0.030675
6497.000000;0.030613
6496.000000;0.030559
6495.000000;0.030535
6494.000000;0.030539
6493.000000;0.030545
6492.000000;0.030527
6491.000000;0.030480
6490.000000;0.030409
6489.000000;0.030323
6488.000000;0.030231
6487.000000;0.030143
6486.000000;0.030065
6485.000000;0.030007
6484.000000;0.029979
6483.000000;0.029970
6482.000000;0.029956
6481.000000;0.029928
6480.000000;0.029915
6479.000000;0.029943
6478.000000;0.029996
6477.000000;0.030023
6476.000000;0.029987
6475.000000;0.029888
6474.000000;0.029752
6473.000000;0.029625
6472.000000;0.029547
6471.000000;0.029527
6470.000000;0.029539
6469.000000;0.029557
6468.000000;0.029582
6467.000000;0.029609
6466.000000;0.029608
6465.000000;0.029555
6464.000000;0.029468
6463.000000;0.029394
6462.000000;0.029362
6461.000000;0.029380
6460.000000;0.029440
6459.000000;0.029515
6458.000000;0.029546
6457.000000;0.029496
6456.000000;0.029390
6455.000000;0.029291
6454.000000;0.029236
6453.000000;0.029216
6452.000000;0.029212
6451.000000;0.029206
6450.000000;0.029181
6449.000000;0.029135
6448.000000;0.029092
6447.000000;0.029075
6446.000000;0.029064
6445.000000;0.029020
6444.000000;0.028939
6443.000000;0.028861
6442.000000;0.028817
6441.000000;0.028805
6440.000000;0.028808
6439.000000;0.028813
6438.000000;0.028808
6437.000000;0.028793
6436.000000;0.028788
6435.000000;0.028801
6434.000000;0.028807
6433.000000;0.028770
6432.000000;0.028698
6431.000000;0.028635
6430.000000;0.028610
6429.000000;0.028622
6428.000000;0.028657
6427.000000;0.028700
6426.000000;0.028728
6425.000000;0.028718
6424.000000;0.028681
6423.000000;0.028649
6422.000000;0.028637
6421.000000;0.028631
6420.000000;0.028619
6419.000000;0.028608
6418.000000;0.028613
6417.000000;0.028633
6416.000000;0.028659
6415.000000;0.028669
6414.000000;0.028640
6413.000000;0.028562
6412.000000;0.028454
6411.000000;0.028350
6410.000000;0.028264
6409.000000;0.028196
6408.000000;0.028147
6407.000000;0.028120
6406.000000;0.028108
6405.000000;0.028101
6404.000000;0.028099
6403.000000;0.028110
6402.000000;0.028132
6401.000000;0.028160
6400.000000;0.028191
6399.000000;0.028210
6398.000000;0.028189
6397.000000;0.028115
6396.000000;0.028016
6395.000000;0.027937
6394.000000;0.027901
6393.000000;0.027911
6392.000000;0.027966
6391.000000;0.028045
6390.000000;0.028104
6389.000000;0.028103
6388.000000;0.028058
6387.000000;0.028016
6386.000000;0.028001
6385.000000;0.027995
6384.000000;0.027979
6383.000000;0.027951
6382.000000;0.027916
6381.000000;0.027879
6380.000000;0.027856
6379.000000;0.027858
6378.000000;0.027875
6377.000000;0.027878
6376.000000;0.027854
6375.000000;0.027801
6374.000000;0.027720
6373.000000;0.027621
6372.000000;0.027540
6371.000000;0.027508
6370.000000;0.027519
6369.000000;0.027543
6368.000000;0.027557
6367.000000;0.027555
6366.000000;0.027523
6365.000000;0.027450
6364.000000;0.027361
6363.000000;0.027303
6362.000000;0.027295
6361.000000;0.027307
6360.000000;0.027305
6359.000000;0.027279
6358.000000;0.027247
6357.000000;0.027222
6356.000000;0.027204
6355.000000;0.027175
6354.000000;0.027124
6353.000000;0.027065
6352.000000;0.027031
6351.000000;0.027039
6350.000000;0.027064
6349.000000;0.027066
6348.000000;0.027035
6347.000000;0.026993
6346.000000;0.026961
6345.000000;0.026951
6344.000000;0.026962
6343.000000;0.026986
6342.000000;0.027004
6341.000000;0.027006
6340.000000;0.027003
6339.000000;0.027005
6338.000000;0.027006
6337.000000;0.026989
6336.000000;0.026954
6335.000000;0.026907
6334.000000;0.026853
6333.000000;0.026800
6332.000000;0.026769
6331.000000;0.026769
6330.000000;0.026781
6329.000000;0.026780
6328.000000;0.026772
6327.000000;0.026769
6326.000000;0.026766
6325.000000;0.026751
6324.000000;0.026733
6323.000000;0.026724
6322.000000;0.026711
6321.000000;0.026672
6320.000000;0.026608
6319.000000;0.026540
6318.000000;0.026481
6317.000000;0.026428
6316.000000;0.026385
6315.000000;0.026361
6314.000000;0.026358
6313.000000;0.026376
6312.000000;0.026419
6311.000000;0.026474
6310.000000;0.026499
6309.000000;0.026461
6308.000000;0.026367
6307.000000;0.026261
6306.000000;0.026182
6305.000000;0.026142
6304.000000;0.026144
6303.000000;0.026174
6302.000000;0.026210
6301.000000;0.026242
6300.000000;0.026274
6299.000000;0.026296
6298.000000;0.026275
6297.000000;0.026202
6296.000000;0.026123
6295.000000;0.026093
6294.000000;0.026114
6293.000000;0.026148
6292.000000;0.026178
6291.000000;0.026210
6290.000000;0.026242
6289.000000;0.026253
6288.000000;0.026238
6287.000000;0.026205
6286.000000;0.026147
6285.000000;0.026047
6284.000000;0.025925
6283.000000;0.025832
6282.000000;0.025801
6281.000000;0.025823
6280.000000;0.025874
6279.000000;0.025934
6278.000000;0.025978
6277.000000;0.025986
6276.000000;0.025952
6275.000000;0.025902
6274.000000;0.025869
6273.000000;0.025876
6272.000000;0.025913
6271.000000;0.025940
6270.000000;0.025922
6269.000000;0.025869
6268.000000;0.025820
6267.000000;0.025788
6266.000000;0.025736
6265.000000;0.025650
6264.000000;0.025573
6263.000000;0.025557
6262.000000;0.025590
6261.000000;0.025617
6260.000000;0.025617
6259.000000;0.025604
6258.000000;0.025589
6257.000000;0.025574
6256.000000;0.025571
6255.000000;0.025587
6254.000000;0.025597
6253.000000;0.025575
6252.000000;0.025537
6251.000000;0.025519
6250.000000;0.025524
6249.000000;0.025532
6248.000000;0.025543
6247.000000;0.025570
6246.000000;0.025597
6245.000000;0.025587
6244.000000;0.025539
6243.000000;0.025485
6242.000000;0.025451
6241.000000;0.025433
6240.000000;0.025434
6239.000000;0.025454
6238.000000;0.025468
6237.000000;0.025440
6236.000000;0.025369
6235.000000;0.025292
6234.000000;0.025227
6233.000000;0.025165
6232.000000;0.025105
6231.000000;0.025072
6230.000000;0.025081
6229.000000;0.025125
6228.000000;0.025201
6227.000000;0.025302
6226.000000;0.025391
6225.000000;0.025414
6224.000000;0.025354
6223.000000;0.025249
6222.000000;0.025152
6221.000000;0.025086
6220.000000;0.025053
6219.000000;0.025040
6218.000000;0.025028
6217.000000;0.025006
6216.000000;0.024990
6215.000000;0.024996
6214.000000;0.025004
6213.000000;0.024988
6212.000000;0.024959
6211.000000;0.024955
6210.000000;0.024979
6209.000000;0.024990
6208.000000;0.024957
6207.000000;0.024892
6206.000000;0.024816
6205.000000;0.024735
6204.000000;0.024668
6203.000000;0.024643
6202.000000;0.024656
6201.000000;0.024666
6200.000000;0.024630
6199.000000;0.024558
6198.000000;0.024487
6197.000000;0.024448
6196.000000;0.024451
6195.000000;0.024491
6194.000000;0.024546
6193.000000;0.024590
6192.000000;0.024601
6191.000000;0.024578
6190.000000;0.024521
6189.000000;0.024442
6188.000000;0.024366
6187.000000;0.024320
6186.000000;0.024306
6185.000000;0.024308
6184.000000;0.024317
6183.000000;0.024335
6182.000000;0.024355
6181.000000;0.024373
6180.000000;0.024400
6179.000000;0.024446
6178.000000;0.024488
6177.000000;0.024489
6176.000000;0.024436
6175.000000;0.024350
6174.000000;0.024253
6173.000000;0.024157
6172.000000;0.024077
6171.000000;0.024037
6170.000000;0.024050
6169.000000;0.024101
6168.000000;0.024164
6167.000000;0.024204
6166.000000;0.024189
6165.000000;0.024115
6164.000000;0.024020
6163.000000;0.023953
6162.000000;0.023920
6161.000000;0.023898
6160.000000;0.023881
6159.000000;0.023883
6158.000000;0.023905
6157.000000;0.023918
6156.000000;0.023903
6155.000000;0.023872
6154.000000;0.023848
6153.000000;0.023843
6152.000000;0.023855
6151.000000;0.023873
6150.000000;0.023874
6149.000000;0.023843
6148.000000;0.023800
6147.000000;0.023777
6146.000000;0.023768
6145.000000;0.023739
6144.000000;0.023681
6143.000000;0.023627
6142.000000;0.023612
6141.000000;0.023633
6140.000000;0.023662
6139.000000;0.023674
6138.000000;0.023657
6137.000000;0.023605
6136.000000;0.023535
6135.000000;0.023471
6134.000000;0.023432
6133.000000;0.023422
6132.000000;0.023437
6131.000000;0.023465
6130.000000;0.023472
6129.000000;0.023431
6128.000000;0.023352
6127.000000;0.023278
6126.000000;0.023235
6125.000000;0.023203
6124.000000;0.023143
6123.000000;0.023042
6122.000000;0.022919
6121.000000;0.022817
6120.000000;0.022778
6119.000000;0.022819
6118.000000;0.022919
6117.000000;0.023031
6116.000000;0.023114
6115.000000;0.023148
6114.000000;0.023131
6113.000000;0.023072
6112.000000;0.022986
6111.000000;0.022894
6110.000000;0.022819
6109.000000;0.022785
6108.000000;0.022800
6107.000000;0.022836
6106.000000;0.022847
6105.000000;0.022803
6104.000000;0.022715
6103.000000;0.022619
6102.000000;0.022546
6101.000000;0.022522
6100.000000;0.022561
6099.000000;0.022648
6098.000000;0.022736
6097.000000;0.022785
6096.000000;0.022789
6095.000000;0.022753
6094.000000;0.022682
6093.000000;0.022596
6092.000000;0.022531
6091.000000;0.022495
6090.000000;0.022462
6089.000000;0.022414
6088.000000;0.022388
6087.000000;0.022409
6086.000000;0.022432
6085.000000;0.022384
6084.000000;0.022258
6083.000000;0.022124
6082.000000;0.022059
6081.000000;0.022077
6080.000000;0.022141
6079.000000;0.022190
6078.000000;0.022178
6077.000000;0.022099
6076.000000;0.022000
6075.000000;0.021926
6074.000000;0.021877
6073.000000;0.021830
6072.000000;0.021790
6071.000000;0.021774
6070.000000;0.021763
6069.000000;0.021719
6068.000000;0.021637
6067.000000;0.021559
6066.000000;0.021522
6065.000000;0.021522
6064.000000;0.021544
6063.000000;0.021583
6062.000000;0.021633
6061.000000;0.021678
6060.000000;0.021704
6059.000000;0.021707
6058.000000;0.021682
6057.000000;0.021628
6056.000000;0.021562
6055.000000;0.021501
6054.000000;0.021450
6053.000000;0.021407
6052.000000;0.021369
6051.000000;0.021327
6050.000000;0.021264
6049.000000;0.021178
6048.000000;0.021106
6047.000000;0.021073
6046.000000;0.021061
6045.000000;0.021033
6044.000000;0.020988
6043.000000;0.020953
6042.000000;0.020937
6041.000000;0.020919
6040.000000;0.020888
6039.000000;0.020844
6038.000000;0.020788
6037.000000;0.020720
6036.000000;0.020659
6035.000000;0.020626
6034.000000;0.020618
6033.000000;0.020611
6032.000000;0.020596
6031.000000;0.020576
6030.000000;0.020554
6029.000000;0.020529
6028.000000;0.020518
6027.000000;0.020528
6026.000000;0.020535
6025.000000;0.020505
6024.000000;0.020436
6023.000000;0.020356
6022.000000;0.020284
6021.000000;0.020232
6020.000000;0.020214
6019.000000;0.020232
6018.000000;0.020251
6017.000000;0.020241
6016.000000;0.020217
6015.000000;0.020211
6014.000000;0.020213
6013.000000;0.020179
6012.000000;0.020100
6011.000000;0.020012
6010.000000;0.019947
6009.000000;0.019905
6008.000000;0.019880
6007.000000;0.019871
6006.000000;0.019866
6005.000000;0.019843
6004.000000;0.019810
6003.000000;0.019787
6002.000000;0.019767
6001.000000;0.019718
6000.000000;0.019637
5999.000000;0.019556
5998.000000;0.019499
5997.000000;0.019453
5996.000000;0.019400
5995.000000;0.019330
5994.000000;0.019242
5993.000000;0.019144
5992.000000;0.019070
5991.000000;0.019053
5990.000000;0.019079
5989.000000;0.019098
5988.000000;0.019083
5987.000000;0.019058
5986.000000;0.019052
5985.000000;0.019059
5984.000000;0.019054
5983.000000;0.019028
5982.000000;0.018985
5981.000000;0.018928
5980.000000;0.018860
5979.000000;0.018783
5978.000000;0.018696
5977.000000;0.018613
5976.000000;0.018565
5975.000000;0.018579
5974.000000;0.018636
5973.000000;0.018684
5972.000000;0.018688
5971.000000;0.018651
5970.000000;0.018579
5969.000000;0.018467
5968.000000;0.018328
5967.000000;0.018193
5966.000000;0.018091
5965.000000;0.018029
5964.000000;0.018002
5963.000000;0.017999
5962.000000;0.017993
5961.000000;0.017951
5960.000000;0.017871
5959.000000;0.017780
5958.000000;0.017713
5957.000000;0.017683
5956.000000;0.017690
5955.000000;0.017720
5954.000000;0.017746
5953.000000;0.017750
5952.000000;0.017733
5951.000000;0.017705
5950.000000;0.017663
5949.000000;0.017597
5948.000000;0.017515
5947.000000;0.017438
5946.000000;0.017373
5945.000000;0.017319
5944.000000;0.017283
5943.000000;0.017267
5942.000000;0.017247
5941.000000;0.017201
5940.000000;0.017135
5939.000000;0.017075
5938.000000;0.017018
5937.000000;0.016939
5936.000000;0.016833
5935.000000;0.016732
5934.000000;0.016667
5933.000000;0.016642
5932.000000;0.016643
5931.000000;0.016653
5930.000000;0.016651
5929.000000;0.016626
5928.000000;0.016584
5927.000000;0.016540
5926.000000;0.016498
5925.000000;0.016454
5924.000000;0.016400
5923.000000;0.016327
5922.000000;0.016226
5921.000000;0.016110
5920.000000;0.016023
5919.000000;0.015986
5918.000000;0.015971
5917.000000;0.015935
5916.000000;0.015877
5915.000000;0.015822
5914.000000;0.015776
5913.000000;0.015724
5912.000000;0.015675
5911.000000;0.015653
5910.000000;0.015660
5909.000000;0.015664
5908.000000;0.015636
5907.000000;0.015577
5906.000000;0.015493
5905.000000;0.015399
5904.000000;0.015313
5903.000000;0.015244
5902.000000;0.015173
5901.000000;0.015082
5900.000000;0.014983
5899.000000;0.014900
5898.000000;0.014830
5897.000000;0.014749
5896.000000;0.014653
5895.000000;0.014564
5894.000000;0.014492
5893.000000;0.014436
5892.000000;0.014399
5891.000000;0.014386
5890.000000;0.014380
5889.000000;0.014356
5888.000000;0.014318
5887.000000;0.014289
5886.000000;0.014270
5885.000000;0.014236
5884.000000;0.014172
5883.000000;0.014082
5882.000000;0.013974
5881.000000;0.013870
5880.000000;0.013806
5879.000000;0.013794
5878.000000;0.013795
5877.000000;0.013756
5876.000000;0.013678
5875.000000;0.013607
5874.000000;0.013556
5873.000000;0.013498
5872.000000;0.013416
5871.000000;0.013331
5870.000000;0.013268
5869.000000;0.013224
5868.000000;0.013187
5867.000000;0.013152
5866.000000;0.013108
5865.000000;0.013041
5864.000000;0.012954
5863.000000;0.012874
5862.000000;0.012821
5861.000000;0.012799
5860.000000;0.012802
5859.000000;0.012818
5858.000000;0.012821
5857.000000;0.012787
5856.000000;0.012718
5855.000000;0.012634
5854.000000;0.012543
5853.000000;0.012445
5852.000000;0.012355
5851.000000;0.012294
5850.000000;0.012263
5849.000000;0.012250
5848.000000;0.012245
5847.000000;0.012236
5846.000000;0.012197
5845.000000;0.012105
5844.000000;0.011979
5843.000000;0.011855
5842.000000;0.011744
5841.000000;0.011626
5840.000000;0.011492
5839.000000;0.011358
5838.000000;0.011250
5837.000000;0.011183
5836.000000;0.011151
5835.000000;0.011124
5834.000000;0.011057
5833.000000;0.010943
5832.000000;0.010824
5831.000000;0.010737
5830.000000;0.010661
5829.000000;0.010555
5828.000000;0.010422
5827.000000;0.010296
5826.000000;0.010196
5825.000000;0.010121
5824.000000;0.010081
5823.000000;0.010086
5822.000000;0.010111
5821.000000;0.010113
5820.000000;0.010075
5819.000000;0.010010
5818.000000;0.009920
5817.000000;0.009807
5816.000000;0.009705
5815.000000;0.009654
5814.000000;0.009645
5813.000000;0.009620
5812.000000;0.009546
5811.000000;0.009444
5810.000000;0.009347
5809.000000;0.009271
5808.000000;0.009213
5807.000000;0.009166
5806.000000;0.009108
5805.000000;0.009024
5804.000000;0.008925
5803.000000;0.008832
5802.000000;0.008739
5801.000000;0.008635
5800.000000;0.008532
5799.000000;0.008458
5798.000000;0.008408
5797.000000;0.008352
5796.000000;0.008279
5795.000000;0.008198
5794.000000;0.008110
5793.000000;0.008005
5792.000000;0.007893
5791.000000;0.007794
5790.000000;0.007708
5789.000000;0.007618
5788.000000;0.007531
5787.000000;0.007461
5786.000000;0.007401
5785.000000;0.007325
5784.000000;0.007233
5783.000000;0.007144
5782.000000;0.007062
5781.000000;0.006976
5780.000000;0.006888
5779.000000;0.006815
5778.000000;0.006749
5777.000000;0.006664
5776.000000;0.006552
5775.000000;0.006432
5774.000000;0.006318
5773.000000;0.006204
5772.000000;0.006095
5771.000000;0.006006
5770.000000;0.005935
5769.000000;0.005869
5768.000000;0.005794
5767.000000;0.005708
5766.000000;0.005596
5765.000000;0.005444
5764.000000;0.005272
5763.000000;0.005115
5762.000000;0.004995
5761.000000;0.004912
5760.000000;0.004856
5759.000000;0.004804
5758.000000;0.004723
5757.000000;0.004606
5756.000000;0.004494
5755.000000;0.004424
5754.000000;0.004371
5753.000000;0.004286
5752.000000;0.004165
5751.000000;0.004047
5750.000000;0.003952
5749.000000;0.003868
5748.000000;0.003787
5747.000000;0.003719
5746.000000;0.003664
5745.000000;0.003609
5744.000000;0.003545
5743.000000;0.003470
5742.000000;0.003372
5741.000000;0.003242
5740.000000;0.003101
5739.000000;0.002977
5738.000000;0.002871
5737.000000;0.002772
5736.000000;0.002678
5735.000000;0.002594
5734.000000;0.002501
5733.000000;0.002386
5732.000000;0.002273
5731.000000;0.002185
5730.000000;0.002099
5729.000000;0.001974
5728.000000;0.001809
5727.000000;0.001649
5726.000000;0.001516
5725.000000;0.001399
5724.000000;0.001293
5723.000000;0.001197
5722.000000;0.001096
5721.000000;0.000976
5720.000000;0.000865
5719.000000;0.000796
5718.000000;0.000758
5717.000000;0.000706
5716.000000;0.000624
5715.000000;0.000529
5714.000000;0.000425
5713.000000;0.000299
5712.000000;0.000159
5711.000000;0.000033
5710.000000;-0.000069
5709.000000;-0.000162
5708.000000;-0.000248
5707.000000;-0.000326
5706.000000;-0.000418
5705.000000;-0.000546
5704.000000;-0.000696
5703.000000;-0.000834
5702.000000;-0.000952
5701.000000;-0.001065
5700.000000;-0.001177
5699.000000;-0.001275
5698.000000;-0.001374
5697.000000;-0.001502
5696.000000;-0.001652
5695.000000;-0.001791
5694.000000;-0.001913
5693.000000;-0.002040
5692.000000;-0.002180
5691.000000;-0.002313
5690.000000;-0.002426
5689.000000;-0.002525
5688.000000;-0.002611
5687.000000;-0.002687
5686.000000;-0.002775
5685.000000;-0.002891
5684.000000;-0.003023
5683.000000;-0.003146
5682.000000;-0.003267
5681.000000;-0.003404
5680.000000;-0.003547
5679.000000;-0.003672
5678.000000;-0.003788
5677.000000;-0.003926
5676.000000;-0.004082
5675.000000;-0.004225
5674.000000;-0.004343
5673.000000;-0.004446
5672.000000;-0.004538
5671.000000;-0.004623
5670.000000;-0.004728
5669.000000;-0.004874
5668.000000;-0.005033
5667.000000;-0.005156
5666.000000;-0.005246
5665.000000;-0.005341
5664.000000;-0.005455
5663.000000;-0.005578
5662.000000;-0.005716
5661.000000;-0.005887
5660.000000;-0.006070
5659.000000;-0.006223
5658.000000;-0.006336
5657.000000;-0.006438
5656.000000;-0.006538
5655.000000;-0.006624
5654.000000;-0.006705
5653.000000;-0.006806
5652.000000;-0.006917
5651.000000;-0.007009
5650.000000;-0.007083
5649.000000;-0.007164
5648.000000;-0.007258
5647.000000;-0.007354
5646.000000;-0.007474
5645.000000;-0.007645
5644.000000;-0.007841
5643.000000;-0.007996
5642.000000;-0.008088
5641.000000;-0.008148
5640.000000;-0.008209
5639.000000;-0.008286
5638.000000;-0.008401
5637.000000;-0.008573
5636.000000;-0.008771
5635.000000;-0.008939
5634.000000;-0.009075
5633.000000;-0.009227
5632.000000;-0.009411
5631.000000;-0.009589
5630.000000;-0.009732
5629.000000;-0.009852
5628.000000;-0.009960
5627.000000;-0.010046
5626.000000;-0.010116
5625.000000;-0.010189
5624.000000;-0.010264
5623.000000;-0.010327
5622.000000;-0.010394
5621.000000;-0.010506
5620.000000;-0.010670
5619.000000;-0.010855
5618.000000;-0.011043
5617.000000;-0.011240
5616.000000;-0.011437
5615.000000;-0.011604
5614.000000;-0.011733
5613.000000;-0.011840
5612.000000;-0.011930
5611.000000;-0.011993
5610.000000;-0.012049
5609.000000;-0.012138
5608.000000;-0.012270
5607.000000;-0.012416
5606.000000;-0.012562
5605.000000;-0.012709
5604.000000;-0.012837
5603.000000;-0.012917
5602.000000;-0.012975
5601.000000;-0.013078
5600.000000;-0.013245
5599.000000;-0.013434
5598.000000;-0.013598
5597.000000;-0.013726
5596.000000;-0.013822
5595.000000;-0.013892
5594.000000;-0.013962
5593.000000;-0.014058
5592.000000;-0.014163
5591.000000;-0.014254
5590.000000;-0.014354
5589.000000;-0.014493
5588.000000;-0.014653
5587.000000;-0.014788
5586.000000;-0.014904
5585.000000;-0.015043
5584.000000;-0.015195
5583.000000;-0.015314
5582.000000;-0.015403
5581.000000;-0.015509
5580.000000;-0.015639
5579.000000;-0.015762
5578.000000;-0.015887
5577.000000;-0.016058
5576.000000;-0.016263
5575.000000;-0.016432
5574.000000;-0.016550
5573.000000;-0.016669
5572.000000;-0.016818
5571.000000;-0.016974
5570.000000;-0.017124
5569.000000;-0.017286
5568.000000;-0.017454
5567.000000;-0.017589
5566.000000;-0.017693
5565.000000;-0.017809
5564.000000;-0.017947
5563.000000;-0.018077
5562.000000;-0.018205
5561.000000;-0.018369
5560.000000;-0.018558
5559.000000;-0.018714
5558.000000;-0.018835
5557.000000;-0.018979
5556.000000;-0.019162
5555.000000;-0.019347
5554.000000;-0.019522
5553.000000;-0.019709
5552.000000;-0.019883
5551.000000;-0.019995
5550.000000;-0.020062
5549.000000;-0.020153
5548.000000;-0.020272
5547.000000;-0.020373
5546.000000;-0.020467
5545.000000;-0.020628
5544.000000;-0.020854
5543.000000;-0.021051
5542.000000;-0.021167
5541.000000;-0.021234
5540.000000;-0.021284
5539.000000;-0.021337
5538.000000;-0.021441
5537.000000;-0.021635
5536.000000;-0.021880
5535.000000;-0.022095
5534.000000;-0.022269
5533.000000;-0.022447
5532.000000;-0.022622
5531.000000;-0.022744
5530.000000;-0.022819
5529.000000;-0.022909
5528.000000;-0.023048
5527.000000;-0.023209
5526.000000;-0.023366
5525.000000;-0.023536
5524.000000;-0.023710
5523.000000;-0.023859
5522.000000;-0.023995
5521.000000;-0.024136
5520.000000;-0.024270
5519.000000;-0.024387
5518.000000;-0.024527
5517.000000;-0.024733
5516.000000;-0.024959
5515.000000;-0.025137
5514.000000;-0.025297
5513.000000;-0.025491
5512.000000;-0.025673
5511.000000;-0.025777
5510.000000;-0.025863
5509.000000;-0.026027
5508.000000;-0.026232
5507.000000;-0.026362
5506.000000;-0.026424
5505.000000;-0.026546
5504.000000;-0.026751
5503.000000;-0.026949
5502.000000;-0.027116
5501.000000;-0.027294
5500.000000;-0.027507
5499.000000;-0.027730
5498.000000;-0.027884
5497.000000;-0.027918
5496.000000;-0.027870
5495.000000;-0.027876
5494.000000;-0.028034
5493.000000;-0.028264
5492.000000;-0.028422
5491.000000;-0.028486
5490.000000;-0.028590
5489.000000;-0.028835
5488.000000;-0.029158
5487.000000;-0.029447
5486.000000;-0.029685
5485.000000;-0.029912
5484.000000;-0.030075
5483.000000;-0.030094
5482.000000;-0.030112
5481.000000;-0.030268
5480.000000;-0.030401
5479.000000;-0.030329
5478.000000;-0.030185
5477.000000;-0.030264
5476.000000;-0.030562
5475.000000;-0.030862
5474.000000;-0.031125
5473.000000;-0.031428
5472.000000;-0.031715
5471.000000;-0.031929
5470.000000;-0.032167
5469.000000;-0.032452
5468.000000;-0.032633
5467.000000;-0.032683
5466.000000;-0.032766
5465.000000;-0.032955
5464.000000;-0.033090
5463.000000;-0.033099
5462.000000;-0.033236
5461.000000;-0.033614
5460.000000;-0.033926
5459.000000;-0.033993
5458.000000;-0.034075
5457.000000;-0.034367
5456.000000;-0.034671
5455.000000;-0.034798
5454.000000;-0.034812
5453.000000;-0.034832
5452.000000;-0.034875
5451.000000;-0.034966
5450.000000;-0.035138
5449.000000;-0.035226
5448.000000;-0.035158
5447.000000;-0.035246
5446.000000;-0.035681
5445.000000;-0.036144
5444.000000;-0.036292
5443.000000;-0.036279
5442.000000;-0.036516
5441.000000;-0.037036
5440.000000;-0.037434
5439.000000;-0.037460
5438.000000;-0.037321
5437.000000;-0.037320
5436.000000;-0.037519
5435.000000;-0.037876
5434.000000;-0.038283
5433.000000;-0.038520
5432.000000;-0.038572
5431.000000;-0.038778
5430.000000;-0.039271
5429.000000;-0.039720
5428.000000;-0.039903
5427.000000;-0.039991
5426.000000;-0.040185
5425.000000;-0.040468
5424.000000;-0.040708
5423.000000;-0.040825
5422.000000;-0.040809
5421.000000;-0.040779
5420.000000;-0.040868
5419.000000;-0.040992
5418.000000;-0.040993
5417.000000;-0.040922
5416.000000;-0.041030
5415.000000;-0.041412
5414.000000;-0.041828
5413.000000;-0.042075
5412.000000;-0.042236
5411.000000;-0.042512
5410.000000;-0.042958
5409.000000;-0.043399
5408.000000;-0.043640
5407.000000;-0.043699
5406.000000;-0.043788
5405.000000;-0.043987
5404.000000;-0.044162
5403.000000;-0.044280
5402.000000;-0.044330
5401.000000;-0.044312
5400.000000;-0.044382
5399.000000;-0.044561
5398.000000;-0.044743
5397.000000;-0.044911
5396.000000;-0.045133
5395.000000;-0.045413
5394.000000;-0.045620
5393.000000;-0.045759
5392.000000;-0.045946
5391.000000;-0.046123
5390.000000;-0.046200
5389.000000;-0.046293
5388.000000;-0.046567
5387.000000;-0.046967
5386.000000;-0.047296
5385.000000;-0.047398
5384.000000;-0.047361
5383.000000;-0.047406
5382.000000;-0.047500
5381.000000;-0.047522
5380.000000;-0.047608
5379.000000;-0.047921
5378.000000;-0.048337
5377.000000;-0.048628
5376.000000;-0.048802
5375.000000;-0.048981
5374.000000;-0.049122
5373.000000;-0.049224
5372.000000;-0.049417
5371.000000;-0.049696
5370.000000;-0.049932
5369.000000;-0.050098
5368.000000;-0.050258
5367.000000;-0.050400
5366.000000;-0.050491
5365.000000;-0.050569
5364.000000;-0.050747
5363.000000;-0.051009
5362.000000;-0.051128
5361.000000;-0.051096
5360.000000;-0.051182
5359.000000;-0.051428
5358.000000;-0.051555
5357.000000;-0.051462
5356.000000;-0.051462
5355.000000;-0.051754
5354.000000;-0.052063
5353.000000;-0.052062
5352.000000;-0.051901
5351.000000;-0.051973
5350.000000;-0.052297
5349.000000;-0.052539
5348.000000;-0.052545
5347.000000;-0.052438
5346.000000;-0.052386
5345.000000;-0.052515
5344.000000;-0.052887
5343.000000;-0.053310
5342.000000;-0.053405
5341.000000;-0.053309
5340.000000;-0.053535
5339.000000;-0.054096
5338.000000;-0.054568
5337.000000;-0.054750
5336.000000;-0.054794
5335.000000;-0.054879
5334.000000;-0.055090
5333.000000;-0.055378
5332.000000;-0.055658
5331.000000;-0.055898
5330.000000;-0.056040
5329.000000;-0.056139
5328.000000;-0.056378
5327.000000;-0.056720
5326.000000;-0.056918
5325.000000;-0.056944
5324.000000;-0.057008
5323.000000;-0.057226
5322.000000;-0.057479
5321.000000;-0.057653
5320.000000;-0.057814
5319.000000;-0.058042
5318.000000;-0.058258
5317.000000;-0.058367
5316.000000;-0.058392
5315.000000;-0.058384
5314.000000;-0.058417
5313.000000;-0.058532
5312.000000;-0.058666
5311.000000;-0.058772
5310.000000;-0.058904
5309.000000;-0.059131
5308.000000;-0.059391
5307.000000;-0.059582
5306.000000;-0.059698
5305.000000;-0.059796
5304.000000;-0.059933
5303.000000;-0.060123
5302.000000;-0.060323
5301.000000;-0.060475
5300.000000;-0.060557
5299.000000;-0.060561
5298.000000;-0.060493
5297.000000;-0.060470
5296.000000;-0.060599
5295.000000;-0.060778
5294.000000;-0.060886
5293.000000;-0.060954
5292.000000;-0.061108
5291.000000;-0.061377
5290.000000;-0.061646
5289.000000;-0.061808
5288.000000;-0.061844
5287.000000;-0.061884
5286.000000;-0.062063
5285.000000;-0.062315
5284.000000;-0.062482
5283.000000;-0.062545
5282.000000;-0.062627
5281.000000;-0.062811
5280.000000;-0.063043
5279.000000;-0.063213
5278.000000;-0.063266
5277.000000;-0.063283
5276.000000;-0.063375
5275.000000;-0.063516
5274.000000;-0.063596
5273.000000;-0.063589
5272.000000;-0.063524
5271.000000;-0.063498
5270.000000;-0.063577
5269.000000;-0.063669
5268.000000;-0.063674
5267.000000;-0.063631
5266.000000;-0.063668
5265.000000;-0.063807
5264.000000;-0.063967
5263.000000;-0.064067
5262.000000;-0.064142
5261.000000;-0.064309
5260.000000;-0.064565
5259.000000;-0.064748
5258.000000;-0.064779
5257.000000;-0.064766
5256.000000;-0.064804
5255.000000;-0.064911
5254.000000;-0.065075
5253.000000;-0.065211
5252.000000;-0.065150
5251.000000;-0.065016
5250.000000;-0.065117
5249.000000;-0.065376
5248.000000;-0.065526
5247.000000;-0.065546
5246.000000;-0.065627
5245.000000;-0.065872
5244.000000;-0.066217
5243.000000;-0.066548
5242.000000;-0.066829
5241.000000;-0.067086
5240.000000;-0.067274
5239.000000;-0.067326
5238.000000;-0.067315
5237.000000;-0.067352
5236.000000;-0.067390
5235.000000;-0.067404
5234.000000;-0.067459
5233.000000;-0.067533
5232.000000;-0.067567
5231.000000;-0.067617
5230.000000;-0.067721
5229.000000;-0.067765
5228.000000;-0.067704
5227.000000;-0.067687
5226.000000;-0.067804
5225.000000;-0.067970
5224.000000;-0.068092
5223.000000;-0.068216
5222.000000;-0.068439
5221.000000;-0.068726
5220.000000;-0.068963
5219.000000;-0.069126
5218.000000;-0.069296
5217.000000;-0.069436
5216.000000;-0.069445
5215.000000;-0.069374
5214.000000;-0.069309
5213.000000;-0.069262
5212.000000;-0.069223
5211.000000;-0.069175
5210.000000;-0.069092
5209.000000;-0.068984
5208.000000;-0.068906
5207.000000;-0.068915
5206.000000;-0.069074
5205.000000;-0.069397
5204.000000;-0.069807
5203.000000;-0.070208
5202.000000;-0.070535
5201.000000;-0.070747
5200.000000;-0.070824
5199.000000;-0.070813
5198.000000;-0.070797
5197.000000;-0.070808
5196.000000;-0.070876
5195.000000;-0.071033
5194.000000;-0.071201
5193.000000;-0.071303
5192.000000;-0.071378
5191.000000;-0.071489
5190.000000;-0.071621
5189.000000;-0.071716
5188.000000;-0.071748
5187.000000;-0.071747
5186.000000;-0.071738
5185.000000;-0.071748
5184.000000;-0.071836
5183.000000;-0.072043
5182.000000;-0.072306
5181.000000;-0.072536
5180.000000;-0.072720
5179.000000;-0.072858
5178.000000;-0.072923
5177.000000;-0.072932
5176.000000;-0.072969
5175.000000;-0.073075
5174.000000;-0.073184
5173.000000;-0.073228
5172.000000;-0.073247
5171.000000;-0.073321
5170.000000;-0.073443
5169.000000;-0.073564
5168.000000;-0.073681
5167.000000;-0.073810
5166.000000;-0.073914
5165.000000;-0.073952
5164.000000;-0.073963
5163.000000;-0.074004
5162.000000;-0.074055
5161.000000;-0.074073
5160.000000;-0.074092
5159.000000;-0.074155
5158.000000;-0.074227
5157.000000;-0.074269
5156.000000;-0.074309
5155.000000;-0.074384
5154.000000;-0.074485
5153.000000;-0.074603
5152.000000;-0.074757
5151.000000;-0.074944
5150.000000;-0.075102
5149.000000;-0.075172
5148.000000;-0.075182
5147.000000;-0.075209
5146.000000;-0.075275
5145.000000;-0.075343
5144.000000;-0.075397
5143.000000;-0.075456
5142.000000;-0.075517
5141.000000;-0.075563
5140.000000;-0.075624
5139.000000;-0.075755
5138.000000;-0.075951
5137.000000;-0.076151
5136.000000;-0.076324
5135.000000;-0.076475
5134.000000;-0.076593
5133.000000;-0.076652
5132.000000;-0.076672
5131.000000;-0.076703
5130.000000;-0.076746
5129.000000;-0.076783
5128.000000;-0.076841
5127.000000;-0.076936
5126.000000;-0.077030
5125.000000;-0.077067
5124.000000;-0.077060
5123.000000;-0.077068
5122.000000;-0.077116
5121.000000;-0.077189
5120.000000;-0.077288
5119.000000;-0.077422
5118.000000;-0.077564
5117.000000;-0.077679
5116.000000;-0.077775
5115.000000;-0.077880
5114.000000;-0.077996
5113.000000;-0.078112
5112.000000;-0.078242
5111.000000;-0.078388
5110.000000;-0.078507
5109.000000;-0.078567
5108.000000;-0.078598
5107.000000;-0.078657
5106.000000;-0.078762
5105.000000;-0.078885
5104.000000;-0.079003
5103.000000;-0.079115
5102.000000;-0.079201
5101.000000;-0.079248
5100.000000;-0.079285
5099.000000;-0.079356
5098.000000;-0.079457
5097.000000;-0.079552
5096.000000;-0.079621
5095.000000;-0.079661
5094.000000;-0.079661
5093.000000;-0.079627
5092.000000;-0.079618
5091.000000;-0.079690
5090.000000;-0.079816
5089.000000;-0.079915
5088.000000;-0.079946
5087.000000;-0.079934
5086.000000;-0.079911
5085.000000;-0.079894
5084.000000;-0.079917
5083.000000;-0.080017
5082.000000;-0.080183
5081.000000;-0.080356
5080.000000;-0.080497
5079.000000;-0.080609
5078.000000;-0.080699
5077.000000;-0.080772
5076.000000;-0.080855
5075.000000;-0.080968
5074.000000;-0.081088
5073.000000;-0.081174
5072.000000;-0.081233
5071.000000;-0.081304
5070.000000;-0.081392
5069.000000;-0.081471
5068.000000;-0.081536
5067.000000;-0.081614
5066.000000;-0.081709
5065.000000;-0.081795
5064.000000;-0.081859
5063.000000;-0.081910
5062.000000;-0.081941
5061.000000;-0.081945
5060.000000;-0.081945
5059.000000;-0.081976
5058.000000;-0.082032
5057.000000;-0.082072
5056.000000;-0.082082
5055.000000;-0.082082
5054.000000;-0.082094
5053.000000;-0.082128
5052.000000;-0.082194
5051.000000;-0.082296
5050.000000;-0.082405
5049.000000;-0.082483
5048.000000;-0.082539
5047.000000;-0.082614
5046.000000;-0.082729
5045.000000;-0.082869
5044.000000;-0.083018
5043.000000;-0.083163
5042.000000;-0.083267
5041.000000;-0.083306
5040.000000;-0.083306
5039.000000;-0.083331
5038.000000;-0.083408
5037.000000;-0.083513
5036.000000;-0.083615
5035.000000;-0.083706
5034.000000;-0.083779
5033.000000;-0.083829
5032.000000;-0.083875
5031.000000;-0.083944
5030.000000;-0.084043
5029.000000;-0.084147
5028.000000;-0.084239
5027.000000;-0.084319
5026.000000;-0.084382
5025.000000;-0.084425
5024.000000;-0.084457
5023.000000;-0.084495
5022.000000;-0.084548
5021.000000;-0.084617
5020.000000;-0.084711
5019.000000;-0.084825
5018.000000;-0.084931
5017.000000;-0.085005
5016.000000;-0.085061
5015.000000;-0.085131
5014.000000;-0.085220
5013.000000;-0.085317
5012.000000;-0.085419
5011.000000;-0.085525
5010.000000;-0.085610
5009.000000;-0.085648
5008.000000;-0.085656
5007.000000;-0.085669
5006.000000;-0.085717
5005.000000;-0.085775
5004.000000;-0.085837
5003.000000;-0.085924
5002.000000;-0.085991
5001.000000;-0.086043
5000.000000;-0.086099
4999.000000;-0.086184
4998.000000;-0.086283
4997.000000;-0.086366
4996.000000;-0.086425
4995.000000;-0.086468
4994.000000;-0.086490
4993.000000;-0.086490
4992.000000;-0.086501
4991.000000;-0.086562
4990.000000;-0.086669
4989.000000;-0.086788
4988.000000;-0.086899
4987.000000;-0.087005
4986.000000;-0.087100
4985.000000;-0.087178
4984.000000;-0.087248
4983.000000;-0.087331
4982.000000;-0.087426
4981.000000;-0.087520
4980.000000;-0.087617
4979.000000;-0.087728
4978.000000;-0.087844
4977.000000;-0.087945
4976.000000;-0.088029
4975.000000;-0.088113
4974.000000;-0.088198
4973.000000;-0.088278
4972.000000;-0.088351
4971.000000;-0.088415
4970.000000;-0.088460
4969.000000;-0.088498
4968.000000;-0.088569
4967.000000;-0.088698
4966.000000;-0.088844
4965.000000;-0.088942
4964.000000;-0.088973
4963.000000;-0.088975
4962.000000;-0.088989
4961.000000;-0.089037
4960.000000;-0.089132
4959.000000;-0.089267
4958.000000;-0.089404
4957.000000;-0.089499
4956.000000;-0.089558
4955.000000;-0.089614
4954.000000;-0.089687
4953.000000;-0.089774
4952.000000;-0.089876
4951.000000;-0.089999
4950.000000;-0.090124
4949.000000;-0.090219
4948.000000;-0.090271
4947.000000;-0.090295
4946.000000;-0.090305
4945.000000;-0.090314
4944.000000;-0.090349
4943.000000;-0.090432
4942.000000;-0.090558
4941.000000;-0.090706
4940.000000;-0.090874
4939.000000;-0.091063
4938.000000;-0.091244
4937.000000;-0.091380
4936.000000;-0.091463
4935.000000;-0.091521
4934.000000;-0.091575
4933.000000;-0.091631
4932.000000;-0.091700
4931.000000;-0.091793
4930.000000;-0.091900
4929.000000;-0.092006
4928.000000;-0.092111
4927.000000;-0.092219
4926.000000;-0.092317
4925.000000;-0.092396
4924.000000;-0.092480
4923.000000;-0.092603
4922.000000;-0.092765
4921.000000;-0.092927
4920.000000;-0.093063
4919.000000;-0.093167
4918.000000;-0.093234
4917.000000;-0.093268
4916.000000;-0.093304
4915.000000;-0.093387
4914.000000;-0.093521
4913.000000;-0.093663
4912.000000;-0.093779
4911.000000;-0.093862
4910.000000;-0.093916
4909.000000;-0.093951
4908.000000;-0.093992
4907.000000;-0.094070
4906.000000;-0.094194
4905.000000;-0.094348
4904.000000;-0.094512
4903.000000;-0.094670
4902.000000;-0.094809
4901.000000;-0.094932
4900.000000;-0.095067
4899.000000;-0.095229
4898.000000;-0.095391
4897.000000;-0.095511
4896.000000;-0.095586
4895.000000;-0.095647
4894.000000;-0.095713
4893.000000;-0.095788
4892.000000;-0.095885
4891.000000;-0.096023
4890.000000;-0.096196
4889.000000;-0.096370
4888.000000;-0.096519
4887.000000;-0.096642
4886.000000;-0.096742
4885.000000;-0.096821
4884.000000;-0.096899
4883.000000;-0.096996
4882.000000;-0.097120
4881.000000;-0.097261
4880.000000;-0.097408
4879.000000;-0.097550
4878.000000;-0.097659
4877.000000;-0.097721
4876.000000;-0.097760
4875.000000;-0.097805
4874.000000;-0.097857
4873.000000;-0.097891
4872.000000;-0.097910
4871.000000;-0.097942
4870.000000;-0.098011
4869.000000;-0.098116
4868.000000;-0.098254
4867.000000;-0.098417
4866.000000;-0.098579
4865.000000;-0.098711
4864.000000;-0.098817
4863.000000;-0.098928
4862.000000;-0.099055
4861.000000;-0.099181
4860.000000;-0.099289
4859.000000;-0.099379
4858.000000;-0.099454
4857.000000;-0.099522
4856.000000;-0.099599
4855.000000;-0.099704
4854.000000;-0.099830
4853.000000;-0.099957
4852.000000;-0.100076
4851.000000;-0.100186
4850.000000;-0.100279
4849.000000;-0.100343
4848.000000;-0.100391
4847.000000;-0.100454
4846.000000;-0.100553
4845.000000;-0.100683
4844.000000;-0.100825
4843.000000;-0.100954
4842.000000;-0.101046
4841.000000;-0.101099
4840.000000;-0.101145
4839.000000;-0.101224
4838.000000;-0.101343
4837.000000;-0.101478
4836.000000;-0.101613
4835.000000;-0.101740
4834.000000;-0.101842
4833.000000;-0.101905
4832.000000;-0.101952
4831.000000;-0.102027
4830.000000;-0.102148
4829.000000;-0.102293
4828.000000;-0.102431
4827.000000;-0.102548
4826.000000;-0.102648
4825.000000;-0.102754
4824.000000;-0.102889
4823.000000;-0.103052
4822.000000;-0.103206
4821.000000;-0.103311
4820.000000;-0.103371
4819.000000;-0.103413
4818.000000;-0.103445
4817.000000;-0.103461
4816.000000;-0.103476
4815.000000;-0.103530
4814.000000;-0.103643
4813.000000;-0.103786
4812.000000;-0.103922
4811.000000;-0.104028
4810.000000;-0.104102
4809.000000;-0.104164
4808.000000;-0.104248
4807.000000;-0.104379
4806.000000;-0.104537
4805.000000;-0.104675
4804.000000;-0.104763
4803.000000;-0.104808
4802.000000;-0.104829
4801.000000;-0.104849
4800.000000;-0.104901
4799.000000;-0.105020
4798.000000;-0.105200
4797.000000;-0.105390
4796.000000;-0.105533
4795.000000;-0.105608
4794.000000;-0.105643
4793.000000;-0.105695
4792.000000;-0.105811
4791.000000;-0.105983
4790.000000;-0.106140
4789.000000;-0.106224
4788.000000;-0.106246
4787.000000;-0.106279
4786.000000;-0.106385
4785.000000;-0.106569
4784.000000;-0.106789
4783.000000;-0.106985
4782.000000;-0.107101
4781.000000;-0.107121
4780.000000;-0.107081
4779.000000;-0.107046
4778.000000;-0.107053
4777.000000;-0.107108
4776.000000;-0.107203
4775.000000;-0.107319
4774.000000;-0.107415
4773.000000;-0.107455
4772.000000;-0.107453
4771.000000;-0.107468
4770.000000;-0.107542
4769.000000;-0.107670
4768.000000;-0.107821
4767.000000;-0.107958
4766.000000;-0.108049
4765.000000;-0.108078
4764.000000;-0.108066
4763.000000;-0.108062
4762.000000;-0.108106
4761.000000;-0.108207
4760.000000;-0.108352
4759.000000;-0.108507
4758.000000;-0.108635
4757.000000;-0.108715
4756.000000;-0.108764
4755.000000;-0.108814
4754.000000;-0.108877
4753.000000;-0.108944
4752.000000;-0.109023
4751.000000;-0.109124
4750.000000;-0.109227
4749.000000;-0.109292
4748.000000;-0.109310
4747.000000;-0.109331
4746.000000;-0.109416
4745.000000;-0.109582
4744.000000;-0.109792
4743.000000;-0.109988
4742.000000;-0.110116
4741.000000;-0.110159
4740.000000;-0.110150
4739.000000;-0.110148
4738.000000;-0.110201
4737.000000;-0.110310
4736.000000;-0.110448
4735.000000;-0.110576
4734.000000;-0.110668
4733.000000;-0.110724
4732.000000;-0.110767
4731.000000;-0.110830
4730.000000;-0.110915
4729.000000;-0.111002
4728.000000;-0.111074
4727.000000;-0.111128
4726.000000;-0.111174
4725.000000;-0.111228
4724.000000;-0.111312
4723.000000;-0.111436
4722.000000;-0.111581
4721.000000;-0.111707
4720.000000;-0.111788
4719.000000;-0.111828
4718.000000;-0.111853
4717.000000;-0.111891
4716.000000;-0.111955
4715.000000;-0.112039
4714.000000;-0.112124
4713.000000;-0.112196
4712.000000;-0.112252
4711.000000;-0.112282
4710.000000;-0.112279
4709.000000;-0.112261
4708.000000;-0.112277
4707.000000;-0.112356
4706.000000;-0.112475
4705.000000;-0.112589
4704.000000;-0.112663
4703.000000;-0.112682
4702.000000;-0.112647
4701.000000;-0.112600
4700.000000;-0.112621
4699.000000;-0.112752
4698.000000;-0.112941
4697.000000;-0.113090
4696.000000;-0.113151
4695.000000;-0.113154
4694.000000;-0.113152
4693.000000;-0.113173
4692.000000;-0.113226
4691.000000;-0.113315
4690.000000;-0.113429
4689.000000;-0.113547
4688.000000;-0.113651
4687.000000;-0.113726
4686.000000;-0.113763
4685.000000;-0.113773
4684.000000;-0.113797
4683.000000;-0.113857
4682.000000;-0.113909
4681.000000;-0.113897
4680.000000;-0.113822
4679.000000;-0.113751
4678.000000;-0.113737
4677.000000;-0.113777
4676.000000;-0.113843
4675.000000;-0.113922
4674.000000;-0.114003
4673.000000;-0.114072
4672.000000;-0.114122
4671.000000;-0.114163
4670.000000;-0.114204
4669.000000;-0.114249
4668.000000;-0.114310
4667.000000;-0.114386
4666.000000;-0.114447
4665.000000;-0.114459
4664.000000;-0.114426
4663.000000;-0.114390
4662.000000;-0.114373
4661.000000;-0.114361
4660.000000;-0.114344
4659.000000;-0.114336
4658.000000;-0.114347
4657.000000;-0.114364
4656.000000;-0.114372
4655.000000;-0.114375
4654.000000;-0.114383
4653.000000;-0.114400
4652.000000;-0.114429
4651.000000;-0.114474
4650.000000;-0.114510
4649.000000;-0.114500
4648.000000;-0.114431
4647.000000;-0.114346
4646.000000;-0.114305
4645.000000;-0.114332
4644.000000;-0.114403
4643.000000;-0.114471
4642.000000;-0.114480
4641.000000;-0.114397
4640.000000;-0.114241
4639.000000;-0.114082
4638.000000;-0.113986
4637.000000;-0.113967
4636.000000;-0.113996
4635.000000;-0.114040
4634.000000;-0.114087
4633.000000;-0.114137
4632.000000;-0.114189
4631.000000;-0.114229
4630.000000;-0.114240
4629.000000;-0.114219
4628.000000;-0.114188
4627.000000;-0.114167
4626.000000;-0.114143
4625.000000;-0.114086
4624.000000;-0.113992
4623.000000;-0.113893
4622.000000;-0.113824
4621.000000;-0.113790
4620.000000;-0.113767
4619.000000;-0.113729
4618.000000;-0.113658
4617.000000;-0.113551
4616.000000;-0.113428
4615.000000;-0.113319
4614.000000;-0.113253
4613.000000;-0.113239
4612.000000;-0.113263
4611.000000;-0.113275
4610.000000;-0.113208
4609.000000;-0.113039
4608.000000;-0.112820
4607.000000;-0.112642
4606.000000;-0.112548
4605.000000;-0.112500
4604.000000;-0.112437
4603.000000;-0.112336
4602.000000;-0.112218
4601.000000;-0.112106
4600.000000;-0.112008
4599.000000;-0.111906
4598.000000;-0.111776
4597.000000;-0.111615
4596.000000;-0.111453
4595.000000;-0.111326
4594.000000;-0.111238
4593.000000;-0.111154
4592.000000;-0.111044
4591.000000;-0.110908
4590.000000;-0.110765
4589.000000;-0.110644
4588.000000;-0.110557
4587.000000;-0.110486
4586.000000;-0.110389
4585.000000;-0.110241
4584.000000;-0.110064
4583.000000;-0.109898
4582.000000;-0.109737
4581.000000;-0.109526
4580.000000;-0.109230
4579.000000;-0.108873
4578.000000;-0.108509
4577.000000;-0.108180
4576.000000;-0.107905
4575.000000;-0.107685
4574.000000;-0.107487
4573.000000;-0.107251
4572.000000;-0.106934
4571.000000;-0.106546
4570.000000;-0.106130
4569.000000;-0.105722
4568.000000;-0.105330
4567.000000;-0.104947
4566.000000;-0.104573
4565.000000;-0.104211
4564.000000;-0.103870
4563.000000;-0.103545
4562.000000;-0.103210
4561.000000;-0.102843
4560.000000;-0.102454
4559.000000;-0.102067
4558.000000;-0.101679
4557.000000;-0.101252
4556.000000;-0.100769
4555.000000;-0.100277
4554.000000;-0.099836
4553.000000;-0.099459
4552.000000;-0.099089
4551.000000;-0.098656
4550.000000;-0.098118
4549.000000;-0.097479
4548.000000;-0.096783
4547.000000;-0.096090
4546.000000;-0.095444
4545.000000;-0.094848
4544.000000;-0.094271
4543.000000;-0.093690
4542.000000;-0.093112
4541.000000;-0.092556
4540.000000;-0.092030
4539.000000;-0.091533
4538.000000;-0.091067
4537.000000;-0.090631
4536.000000;-0.090206
4535.000000;-0.089753
4534.000000;-0.089253
4533.000000;-0.088732
4532.000000;-0.088247
4531.000000;-0.087834
4530.000000;-0.087484
4529.000000;-0.087157
4528.000000;-0.086813
4527.000000;-0.086432
4526.000000;-0.086028
4525.000000;-0.085652
4524.000000;-0.085354
4523.000000;-0.085141
4522.000000;-0.084966
4521.000000;-0.084778
4520.000000;-0.084568
4519.000000;-0.084358
4518.000000;-0.084159
4517.000000;-0.083957
4516.000000;-0.083736
4515.000000;-0.083499
4514.000000;-0.083265
4513.000000;-0.083041
4512.000000;-0.082800
4511.000000;-0.082490
4510.000000;-0.082096
4509.000000;-0.081674
4508.000000;-0.081324
4507.000000;-0.081100
4506.000000;-0.080972
4505.000000;-0.080874
4504.000000;-0.080771
4503.000000;-0.080654
4502.000000;-0.080510
4501.000000;-0.080320
4500.000000;-0.080091
4499.000000;-0.079844
4498.000000;-0.079583
4497.000000;-0.079301
4496.000000;-0.079005
4495.000000;-0.078708
4494.000000;-0.078412
4493.000000;-0.078116
4492.000000;-0.077844
4491.000000;-0.077630
4490.000000;-0.077454
4489.000000;-0.077242
4488.000000;-0.076934
4487.000000;-0.076547
4486.000000;-0.076154
4485.000000;-0.075810
4484.000000;-0.075513
4483.000000;-0.075231
4482.000000;-0.074947
4481.000000;-0.074672
4480.000000;-0.074411
4479.000000;-0.074135
4478.000000;-0.073808
4477.000000;-0.073428
4476.000000;-0.073028
4475.000000;-0.072628
4474.000000;-0.072215
4473.000000;-0.071783
4472.000000;-0.071358
4471.000000;-0.070978
4470.000000;-0.070647
4469.000000;-0.070340
4468.000000;-0.070030
4467.000000;-0.069688
4466.000000;-0.069282
4465.000000;-0.068802
4464.000000;-0.068278
4463.000000;-0.067753
4462.000000;-0.067234
4461.000000;-0.066706
4460.000000;-0.066181
4459.000000;-0.065693
4458.000000;-0.065252
4457.000000;-0.064823
4456.000000;-0.064356
4455.000000;-0.063845
4454.000000;-0.063329
4453.000000;-0.062863
4452.000000;-0.062485
4451.000000;-0.062175
4450.000000;-0.061861
4449.000000;-0.061458
4448.000000;-0.060922
4447.000000;-0.060275
4446.000000;-0.059591
4445.000000;-0.058966
4444.000000;-0.058464
4443.000000;-0.058063
4442.000000;-0.057654
4441.000000;-0.057138
4440.000000;-0.056512
4439.000000;-0.055867
4438.000000;-0.055291
4437.000000;-0.054805
4436.000000;-0.054371
4435.000000;-0.053925
4434.000000;-0.053411
4433.000000;-0.052815
4432.000000;-0.052175
4431.000000;-0.051542
4430.000000;-0.050947
4429.000000;-0.050402
4428.000000;-0.049916
4427.000000;-0.049475
4426.000000;-0.049018
4425.000000;-0.048475
4424.000000;-0.047834
4423.000000;-0.047152
4422.000000;-0.046486
4421.000000;-0.045852
4420.000000;-0.045236
4419.000000;-0.044614
4418.000000;-0.043967
4417.000000;-0.043292
4416.000000;-0.042610
4415.000000;-0.041939
4414.000000;-0.041271
4413.000000;-0.040590
4412.000000;-0.039912
4411.000000;-0.039267
4410.000000;-0.038647
4409.000000;-0.038014
4408.000000;-0.037356
4407.000000;-0.036698
4406.000000;-0.036042
4405.000000;-0.035356
4404.000000;-0.034620
4403.000000;-0.033868
4402.000000;-0.033135
4401.000000;-0.032412
4400.000000;-0.031675
4399.000000;-0.030934
4398.000000;-0.030217
4397.000000;-0.029519
4396.000000;-0.028788
4395.000000;-0.027985
4394.000000;-0.027120
4393.000000;-0.026238
4392.000000;-0.025375
4391.000000;-0.024533
4390.000000;-0.023691
4389.000000;-0.022835
4388.000000;-0.021972
4387.000000;-0.021111
4386.000000;-0.020230
4385.000000;-0.019287
4384.000000;-0.018275
4383.000000;-0.017249
4382.000000;-0.016277
4381.000000;-0.015367
4380.000000;-0.014464
4379.000000;-0.013507
4378.000000;-0.012499
4377.000000;-0.011483
4376.000000;-0.010481
4375.000000;-0.009479
4374.000000;-0.008475
4373.000000;-0.007512
4372.000000;-0.006619
4371.000000;-0.005739
4370.000000;-0.004768
4369.000000;-0.003667
4368.000000;-0.002506
4367.000000;-0.001368
4366.000000;-0.000270
4365.000000;0.000822
4364.000000;0.001919
4363.000000;0.003012
4362.000000;0.004102
4361.000000;0.005202
4360.000000;0.006303
4359.000000;0.007386
4358.000000;0.008464
4357.000000;0.009580
4356.000000;0.010771
4355.000000;0.012034
4354.000000;0.013342
4353.000000;0.014662
4352.000000;0.015969
4351.000000;0.017255
4350.000000;0.018537
4349.000000;0.019829
4348.000000;0.021132
4347.000000;0.022450
4346.000000;0.023793
4345.000000;0.025150
4344.000000;0.026470
4343.000000;0.027715
4342.000000;0.028906
4341.000000;0.030101
4340.000000;0.031347
4339.000000;0.032674
4338.000000;0.034109
4337.000000;0.035645
4336.000000;0.037203
4335.000000;0.038699
4334.000000;0.040125
4333.000000;0.041546
4332.000000;0.043017
4331.000000;0.044539
4330.000000;0.046089
4329.000000;0.047642
4328.000000;0.049153
4327.000000;0.050564
4326.000000;0.051854
4325.000000;0.053072
4324.000000;0.054319
4323.000000;0.055704
4322.000000;0.057286
4321.000000;0.059017
4320.000000;0.060741
4319.000000;0.062307
4318.000000;0.063700
4317.000000;0.065036
4316.000000;0.066443
4315.000000;0.067974
4314.000000;0.069617
4313.000000;0.071317
4312.000000;0.072972
4311.000000;0.074493
4310.000000;0.075912
4309.000000;0.077389
4308.000000;0.079073
4307.000000;0.080960
4306.000000;0.082911
4305.000000;0.084766
4304.000000;0.086435
4303.000000;0.087930
4302.000000;0.089363
4301.000000;0.090888
4300.000000;0.092596
4299.000000;0.094449
4298.000000;0.096339
4297.000000;0.098197
4296.000000;0.100008
4295.000000;0.101765
4294.000000;0.103455
4293.000000;0.105116
4292.000000;0.106839
4291.000000;0.108679
4290.000000;0.110590
4289.000000;0.112474
4288.000000;0.114308
4287.000000;0.116157
4286.000000;0.118073
4285.000000;0.120016
4284.000000;0.121915
4283.000000;0.123765
4282.000000;0.125615
4281.000000;0.127478
4280.000000;0.129317
4279.000000;0.131135
4278.000000;0.133012
4277.000000;0.135022
4276.000000;0.137131
4275.000000;0.139236
4274.000000;0.141266
4273.000000;0.143213
4272.000000;0.145084
4271.000000;0.146900
4270.000000;0.148724
4269.000000;0.150655
4268.000000;0.152750
4267.000000;0.154969
4266.000000;0.157194
4265.000000;0.159311
4264.000000;0.161290
4263.000000;0.163210
4262.000000;0.165206
4261.000000;0.167359
4260.000000;0.169650
4259.000000;0.171989
4258.000000;0.174289
4257.000000;0.176506
4256.000000;0.178645
4255.000000;0.180761
4254.000000;0.182915
4253.000000;0.185110
4252.000000;0.187301
4251.000000;0.189480
4250.000000;0.191690
4249.000000;0.193952
4248.000000;0.196206
4247.000000;0.198396
4246.000000;0.200570
4245.000000;0.202837
4244.000000;0.205238
4243.000000;0.207702
4242.000000;0.210115
4241.000000;0.212392
4240.000000;0.214514
4239.000000;0.216565
4238.000000;0.218701
4237.000000;0.221041
4236.000000;0.223537
4235.000000;0.226024
4234.000000;0.228389
4233.000000;0.230675
4232.000000;0.233017
4231.000000;0.235510
4230.000000;0.238137
4229.000000;0.240805
4228.000000;0.243426
4227.000000;0.246000
4226.000000;0.248585
4225.000000;0.251217
4224.000000;0.253875
4223.000000;0.256532
4222.000000;0.259202
4221.000000;0.261897
4220.000000;0.264603
4219.000000;0.267317
4218.000000;0.270059
4217.000000;0.272808
4216.000000;0.275477
4215.000000;0.278040
4214.000000;0.280633
4213.000000;0.283441
4212.000000;0.286490
4211.000000;0.289619
4210.000000;0.292641
4209.000000;0.295498
4208.000000;0.298264
4207.000000;0.301074
4206.000000;0.304028
4205.000000;0.307134
4204.000000;0.310306
4203.000000;0.313464
4202.000000;0.316595
4201.000000;0.319705
4200.000000;0.322772
4199.000000;0.325799
4198.000000;0.328885
4197.000000;0.332150
4196.000000;0.335584
4195.000000;0.339025
4194.000000;0.342293
4193.000000;0.345322
4192.000000;0.348196
4191.000000;0.351110
4190.000000;0.354259
4189.000000;0.357673
4188.000000;0.361198
4187.000000;0.364659
4186.000000;0.368034
4185.000000;0.371411
4184.000000;0.374840
4183.000000;0.378309
4182.000000;0.381829
4181.000000;0.385421
4180.000000;0.389030
4179.000000;0.392553
4178.000000;0.395958
4177.000000;0.399333
4176.000000;0.402801
4175.000000;0.406432
4174.000000;0.410205
4173.000000;0.414012
4172.000000;0.417711
4171.000000;0.421252
4170.000000;0.424729
4169.000000;0.428284
4168.000000;0.431979
4167.000000;0.435807
4166.000000;0.439734
4165.000000;0.443675
4164.000000;0.447506
4163.000000;0.451190
4162.000000;0.454842
4161.000000;0.458563
4160.000000;0.462272
4159.000000;0.465830
4158.000000;0.469283
4157.000000;0.472842
4156.000000;0.476642
4155.000000;0.480600
4154.000000;0.484550
4153.000000;0.488426
4152.000000;0.492329
4151.000000;0.496430
4150.000000;0.500774
4149.000000;0.505149
4148.000000;0.509243
4147.000000;0.512994
4146.000000;0.516665
4145.000000;0.520483
4144.000000;0.524367
4143.000000;0.528162
4142.000000;0.531976
4141.000000;0.536043
4140.000000;0.540328
4139.000000;0.544518
4138.000000;0.548424
4137.000000;0.552183
4136.000000;0.556031
4135.000000;0.560040
4134.000000;0.564125
4133.000000;0.568148
4132.000000;0.572002
4131.000000;0.575677
4130.000000;0.579290
4129.000000;0.582941
4128.000000;0.586627
4127.000000;0.590401
4126.000000;0.594512
4125.000000;0.599167
4124.000000;0.604185
4123.000000;0.609090
4122.000000;0.613556
4121.000000;0.617597
4120.000000;0.621362
4119.000000;0.624963
4118.000000;0.628535
4117.000000;0.632226
4116.000000;0.636043
4115.000000;0.639851
4114.000000;0.643556
4113.000000;0.647189
4112.000000;0.650825
4111.000000;0.654587
4110.000000;0.658663
4109.000000;0.663121
4108.000000;0.667707
4107.000000;0.672018
4106.000000;0.675921
4105.000000;0.679623
4104.000000;0.683374
4103.000000;0.687266
4102.000000;0.691292
4101.000000;0.695314
4100.000000;0.699038
4099.000000;0.702308
4098.000000;0.705435
4097.000000;0.708947
4096.000000;0.712941
4095.000000;0.716968
4094.000000;0.720641
4093.000000;0.724098
4092.000000;0.727798
4091.000000;0.732098
4090.000000;0.737074
4089.000000;0.742423
4088.000000;0.747408
4087.000000;0.751230
4086.000000;0.753715
4085.000000;0.755468
4084.000000;0.757249
4083.000000;0.759459
4082.000000;0.762265
4081.000000;0.765766
4080.000000;0.769723
4079.000000;0.773461
4078.000000;0.776507
4077.000000;0.779201
4076.000000;0.782306
4075.000000;0.786060
4074.000000;0.789980
4073.000000;0.793597
4072.000000;0.797011
4071.000000;0.800556
4070.000000;0.804200
4069.000000;0.807580
4068.000000;0.810566
4067.000000;0.813553
4066.000000;0.817067
4065.000000;0.821149
4064.000000;0.825226
4063.000000;0.828622
4062.000000;0.831159
4061.000000;0.833194
4060.000000;0.835172
4059.000000;0.837314
4058.000000;0.839697
4057.000000;0.842385
4056.000000;0.845344
4055.000000;0.848339
4054.000000;0.851068
4053.000000;0.853410
4052.000000;0.855429
4051.000000;0.857182
4050.000000;0.858678
4049.000000;0.860080
4048.000000;0.861774
4047.000000;0.864065
4046.000000;0.866812
4045.000000;0.869526
4044.000000;0.871901
4043.000000;0.874072
4042.000000;0.876208
4041.000000;0.878012
4040.000000;0.878928
4039.000000;0.878910
4038.000000;0.878731
4037.000000;0.879284
4036.000000;0.880749
4035.000000;0.882581
4034.000000;0.884176
4033.000000;0.885402
4032.000000;0.886555
4031.000000;0.887980
4030.000000;0.889677
4029.000000;0.891141
4028.000000;0.891625
4027.000000;0.890748
4026.000000;0.888931
4025.000000;0.887139
4024.000000;0.886170
4023.000000;0.886198
4022.000000;0.886856
4021.000000;0.887575
4020.000000;0.887839
4019.000000;0.887347
4018.000000;0.886116
4017.000000;0.884518
4016.000000;0.883147
4015.000000;0.882525
4014.000000;0.882780
4013.000000;0.883543
4012.000000;0.884185
4011.000000;0.884165
4010.000000;0.883189
4009.000000;0.881166
4008.000000;0.878190
4007.000000;0.874643
4006.000000;0.871212
4005.000000;0.868652
4004.000000;0.867337
4003.000000;0.866875
4002.000000;0.866265
4001.000000;0.864565
4000.000000;0.861582
3999.000000;0.857997
3998.000000;0.854764
3997.000000;0.852343
3996.000000;0.850483
3995.000000;0.848670
3994.000000;0.846633
3993.000000;0.844398
3992.000000;0.842040
3991.000000;0.839582
3990.000000;0.837078
3989.000000;0.834533
3988.000000;0.831701
3987.000000;0.828190
3986.000000;0.824011
3985.000000;0.819901
3984.000000;0.816800
3983.000000;0.814921
3982.000000;0.813489
3981.000000;0.811460
3980.000000;0.808412
3979.000000;0.804672
3978.000000;0.800787
3977.000000;0.797079
3976.000000;0.793590
3975.000000;0.790203
3974.000000;0.786757
3973.000000;0.783160
3972.000000;0.779474
3971.000000;0.775895
3970.000000;0.772657
3969.000000;0.769971
3968.000000;0.767924
3967.000000;0.766243
3966.000000;0.764218
3965.000000;0.761131
3964.000000;0.756876
3963.000000;0.752093
3962.000000;0.747633
3961.000000;0.743962
3960.000000;0.740981
3959.000000;0.738200
3958.000000;0.735036
3957.000000;0.731138
3956.000000;0.726601
3955.000000;0.721849
3954.000000;0.717262
3953.000000;0.712894
3952.000000;0.708549
3951.000000;0.704062
3950.000000;0.699503
3949.000000;0.695167
3948.000000;0.691361
3947.000000;0.688072
3946.000000;0.684797
3945.000000;0.680842
3944.000000;0.675982
3943.000000;0.670864
3942.000000;0.666575
3941.000000;0.663717
3940.000000;0.661928
3939.000000;0.660220
3938.000000;0.657671
3937.000000;0.653856
3936.000000;0.648822
3935.000000;0.642930
3934.000000;0.636814
3933.000000;0.631275
3932.000000;0.626925
3931.000000;0.623814
3930.000000;0.621401
3929.000000;0.618882
3928.000000;0.615626
3927.000000;0.611493
3926.000000;0.606877
3925.000000;0.602339
3924.000000;0.598111
3923.000000;0.593957
3922.000000;0.589574
3921.000000;0.584993
3920.000000;0.580442
3919.000000;0.576034
3918.000000;0.571828
3917.000000;0.568070
3916.000000;0.564991
3915.000000;0.562348
3914.000000;0.559505
3913.000000;0.556109
3912.000000;0.552390
3911.000000;0.548709
3910.000000;0.545073
3909.000000;0.541251
3908.000000;0.537030
3907.000000;0.532178
3906.000000;0.526548
3905.000000;0.520525
3904.000000;0.515066
3903.000000;0.510882
3902.000000;0.507765
3901.000000;0.505048
3900.000000;0.502503
3899.000000;0.500343
3898.000000;0.498431
3897.000000;0.496099
3896.000000;0.492932
3895.000000;0.489286
3894.000000;0.485748
3893.000000;0.482476
3892.000000;0.479316
3891.000000;0.476282
3890.000000;0.473543
3889.000000;0.470973
3888.000000;0.468159
3887.000000;0.464940
3886.000000;0.461599
3885.000000;0.458525
3884.000000;0.455876
3883.000000;0.453491
3882.000000;0.451051
3881.000000;0.448317
3880.000000;0.445332
3879.000000;0.442452
3878.000000;0.440029
3877.000000;0.438015
3876.000000;0.436034
3875.000000;0.433760
3874.000000;0.431075
3873.000000;0.427987
3872.000000;0.424581
3871.000000;0.421104
3870.000000;0.417862
3869.000000;0.415030
3868.000000;0.412571
3867.000000;0.410308
3866.000000;0.408175
3865.000000;0.406302
3864.000000;0.404745
3863.000000;0.403251
3862.000000;0.401429
3861.000000;0.399192
3860.000000;0.396853
3859.000000;0.394685
3858.000000;0.392531
3857.000000;0.389979
3856.000000;0.386935
3855.000000;0.383913
3854.000000;0.381355
3853.000000;0.379103
3852.000000;0.376926
3851.000000;0.374739
3850.000000;0.372306
3849.000000;0.369391
3848.000000;0.366176
3847.000000;0.363228
3846.000000;0.360931
3845.000000;0.359130
3844.000000;0.357403
3843.000000;0.355559
3842.000000;0.353741
3841.000000;0.352078
3840.000000;0.350424
3839.000000;0.348557
3838.000000;0.346489
3837.000000;0.344389
3836.000000;0.342299
3835.000000;0.340157
3834.000000;0.338074
3833.000000;0.336274
3832.000000;0.334684
3831.000000;0.332883
3830.000000;0.330591
3829.000000;0.327958
3828.000000;0.325296
3827.000000;0.322717
3826.000000;0.320190
3825.000000;0.317714
3824.000000;0.315217
3823.000000;0.312614
3822.000000;0.310053
3821.000000;0.307832
3820.000000;0.306111
3819.000000;0.304666
3818.000000;0.303082
3817.000000;0.301201
3816.000000;0.298997
3815.000000;0.296335
3814.000000;0.293287
3813.000000;0.290368
3812.000000;0.288092
3811.000000;0.286321
3810.000000;0.284412
3809.000000;0.282112
3808.000000;0.279811
3807.000000;0.277745
3806.000000;0.275597
3805.000000;0.273107
3804.000000;0.270543
3803.000000;0.268321
3802.000000;0.266271
3801.000000;0.263779
3800.000000;0.260752
3799.000000;0.257741
3798.000000;0.255197
3797.000000;0.253125
3796.000000;0.251328
3795.000000;0.249642
3794.000000;0.247862
3793.000000;0.245726
3792.000000;0.243161
3791.000000;0.240401
3790.000000;0.237740
3789.000000;0.235272
3788.000000;0.232925
3787.000000;0.230673
3786.000000;0.228574
3785.000000;0.226586
3784.000000;0.224400
3783.000000;0.221615
3782.000000;0.218165
3781.000000;0.214528
3780.000000;0.211365
3779.000000;0.208976
3778.000000;0.207225
3777.000000;0.205834
3776.000000;0.204478
3775.000000;0.202693
3774.000000;0.200094
3773.000000;0.196821
3772.000000;0.193513
3771.000000;0.190674
3770.000000;0.188261
3769.000000;0.186018
3768.000000;0.183872
3767.000000;0.181789
3766.000000;0.179560
3765.000000;0.177024
3764.000000;0.174330
3763.000000;0.171726
3762.000000;0.169204
3761.000000;0.166548
3760.000000;0.163651
3759.000000;0.160625
3758.000000;0.157684
3757.000000;0.155049
3756.000000;0.152825
3755.000000;0.150803
3754.000000;0.148571
3753.000000;0.145997
3752.000000;0.143412
3751.000000;0.141088
3750.000000;0.138780
3749.000000;0.136055
3748.000000;0.132853
3747.000000;0.129420
3746.000000;0.126030
3745.000000;0.122753
3744.000000;0.119512
3743.000000;0.116492
3742.000000;0.113895
3741.000000;0.111553
3740.000000;0.109264
3739.000000;0.107091
3738.000000;0.105065
3737.000000;0.102901
3736.000000;0.100229
3735.000000;0.097019
3734.000000;0.093563
3733.000000;0.090064
3732.000000;0.086516
3731.000000;0.083001
3730.000000;0.079828
3729.000000;0.077291
3728.000000;0.075375
3727.000000;0.073662
3726.000000;0.071549
3725.000000;0.068724
3724.000000;0.065403
3723.000000;0.062069
3722.000000;0.059040
3721.000000;0.056344
3720.000000;0.053878
3719.000000;0.051521
3718.000000;0.049086
3717.000000;0.046350
3716.000000;0.043213
3715.000000;0.039734
3714.000000;0.036036
3713.000000;0.032306
3712.000000;0.028791
3711.000000;0.025623
3710.000000;0.022649
3709.000000;0.019591
3708.000000;0.016431
3707.000000;0.013478
3706.000000;0.010953
3705.000000;0.008625
3704.000000;0.006038
3703.000000;0.003020
3702.000000;-0.000224
3701.000000;-0.003469
3700.000000;-0.006752
3699.000000;-0.010261
3698.000000;-0.014055
3697.000000;-0.017951
3696.000000;-0.021667
3695.000000;-0.025058
3694.000000;-0.028255
3693.000000;-0.031518
3692.000000;-0.034909
3691.000000;-0.038154
3690.000000;-0.040974
3689.000000;-0.043524
3688.000000;-0.046282
3687.000000;-0.049450
3686.000000;-0.052720
3685.000000;-0.055755
3684.000000;-0.058736
3683.000000;-0.062214
3682.000000;-0.066355
3681.000000;-0.070592
3680.000000;-0.074255
3679.000000;-0.077325
3678.000000;-0.080269
3677.000000;-0.083280
3676.000000;-0.086261
3675.000000;-0.089302
3674.000000;-0.092546
3673.000000;-0.095945
3672.000000;-0.099342
3671.000000;-0.102674
3670.000000;-0.106169
3669.000000;-0.110097
3668.000000;-0.114380
3667.000000;-0.118651
3666.000000;-0.122515
3665.000000;-0.125786
3664.000000;-0.128659
3663.000000;-0.131639
3662.000000;-0.135091
3661.000000;-0.138854
3660.000000;-0.142437
3659.000000;-0.145604
3658.000000;-0.148542
3657.000000;-0.151565
3656.000000;-0.154899
3655.000000;-0.158692
3654.000000;-0.163031
3653.000000;-0.167802
3652.000000;-0.172556
3651.000000;-0.176752
3650.000000;-0.180167
3649.000000;-0.182958
3648.000000;-0.185450
3647.000000;-0.188015
3646.000000;-0.190920
3645.000000;-0.194116
3644.000000;-0.197303
3643.000000;-0.200354
3642.000000;-0.203547
3641.000000;-0.207265
3640.000000;-0.211581
3639.000000;-0.216271
3638.000000;-0.221101
3637.000000;-0.225885
3636.000000;-0.230388
3635.000000;-0.234355
3634.000000;-0.237687
3633.000000;-0.240503
3632.000000;-0.243104
3631.000000;-0.245743
3630.000000;-0.248379
3629.000000;-0.250871
3628.000000;-0.253282
3627.000000;-0.255950
3626.000000;-0.259289
3625.000000;-0.263290
3624.000000;-0.267411
3623.000000;-0.271248
3622.000000;-0.274939
3621.000000;-0.278654
3620.000000;-0.282145
3619.000000;-0.285194
3618.000000;-0.288121
3617.000000;-0.291339
3616.000000;-0.294673
3615.000000;-0.297643
3614.000000;-0.300279
3613.000000;-0.303073
3612.000000;-0.306133
3611.000000;-0.309009
3610.000000;-0.311493
3609.000000;-0.314007
3608.000000;-0.316924
3607.000000;-0.319958
3606.000000;-0.322619
3605.000000;-0.324973
3604.000000;-0.327501
3603.000000;-0.330389
3602.000000;-0.333320
3601.000000;-0.335945
3600.000000;-0.338276
3599.000000;-0.340591
3598.000000;-0.343139
3597.000000;-0.345907
3596.000000;-0.348537
3595.000000;-0.350627
3594.000000;-0.352245
3593.000000;-0.353989
3592.000000;-0.356351
3591.000000;-0.359086
3590.000000;-0.361434
3589.000000;-0.362992
3588.000000;-0.364208
3587.000000;-0.365893
3586.000000;-0.368305
3585.000000;-0.370862
3584.000000;-0.372697
3583.000000;-0.373408
3582.000000;-0.373343
3581.000000;-0.373295
3580.000000;-0.373907
3579.000000;-0.375250
3578.000000;-0.376893
3577.000000;-0.378300
3576.000000;-0.379171
3575.000000;-0.379546
3574.000000;-0.379750
3573.000000;-0.380214
3572.000000;-0.381141
3571.000000;-0.382232
3570.000000;-0.382827
3569.000000;-0.382515
3568.000000;-0.381600
3567.000000;-0.380792
3566.000000;-0.380447
3565.000000;-0.380349
3564.000000;-0.380322
3563.000000;-0.380660
3562.000000;-0.381662
3561.000000;-0.382953
3560.000000;-0.383634
3559.000000;-0.383171
3558.000000;-0.381904
3557.000000;-0.380663
3556.000000;-0.380032
3555.000000;-0.379975
3554.000000;-0.379931
3553.000000;-0.379193
3552.000000;-0.377423
3551.000000;-0.374984
3550.000000;-0.372710
3549.000000;-0.371209
3548.000000;-0.370375
3547.000000;-0.369590
3546.000000;-0.368334
3545.000000;-0.366583
3544.000000;-0.364745
3543.000000;-0.363258
3542.000000;-0.362176
3541.000000;-0.361134
3540.000000;-0.359759
3539.000000;-0.358104
3538.000000;-0.356558
3537.000000;-0.355351
3536.000000;-0.354313
3535.000000;-0.353150
3534.000000;-0.351694
3533.000000;-0.349828
3532.000000;-0.347415
3531.000000;-0.344544
3530.000000;-0.341684
3529.000000;-0.339330
3528.000000;-0.337497
3527.000000;-0.335740
3526.000000;-0.333618
3525.000000;-0.331011
3524.000000;-0.328043
3523.000000;-0.324948
3522.000000;-0.322045
3521.000000;-0.319687
3520.000000;-0.318070
3519.000000;-0.317057
3518.000000;-0.316161
3517.000000;-0.314750
3516.000000;-0.312449
3515.000000;-0.309512
3514.000000;-0.306687
3513.000000;-0.304535
3512.000000;-0.302892
3511.000000;-0.301107
3510.000000;-0.298752
3509.000000;-0.295955
3508.000000;-0.293080
3507.000000;-0.290328
3506.000000;-0.287714
3505.000000;-0.285259
3504.000000;-0.283034
3503.000000;-0.281047
3502.000000;-0.279189
3501.000000;-0.277276
3500.000000;-0.275124
3499.000000;-0.272675
3498.000000;-0.270107
3497.000000;-0.267782
3496.000000;-0.265938
3495.000000;-0.264403
3494.000000;-0.262663
3493.000000;-0.260293
3492.000000;-0.257340
3491.000000;-0.254258
3490.000000;-0.251448
3489.000000;-0.248928
3488.000000;-0.246473
3487.000000;-0.244002
3486.000000;-0.241711
3485.000000;-0.239808
3484.000000;-0.238217
3483.000000;-0.236569
3482.000000;-0.234496
3481.000000;-0.231960
3480.000000;-0.229353
3479.000000;-0.227201
3478.000000;-0.225658
3477.000000;-0.224314
3476.000000;-0.222570
3475.000000;-0.220180
3474.000000;-0.217343
3473.000000;-0.214351
3472.000000;-0.211314
3471.000000;-0.208250
3470.000000;-0.205273
3469.000000;-0.202594
3468.000000;-0.200380
3467.000000;-0.198632
3466.000000;-0.197155
3465.000000;-0.195691
3464.000000;-0.194182
3463.000000;-0.192818
3462.000000;-0.191678
3461.000000;-0.190434
3460.000000;-0.188603
3459.000000;-0.186061
3458.000000;-0.183112
3457.000000;-0.180086
3456.000000;-0.177151
3455.000000;-0.174512
3454.000000;-0.172451
3453.000000;-0.171019
3452.000000;-0.169893
3451.000000;-0.168673
3450.000000;-0.167163
3449.000000;-0.165329
3448.000000;-0.163234
3447.000000;-0.161142
3446.000000;-0.159457
3445.000000;-0.158354
3444.000000;-0.157607
3443.000000;-0.156795
3442.000000;-0.155528
3441.000000;-0.153495
3440.000000;-0.150626
3439.000000;-0.147337
3438.000000;-0.144302
3437.000000;-0.141783
3436.000000;-0.139490
3435.000000;-0.137246
3434.000000;-0.135393
3433.000000;-0.134228
3432.000000;-0.133379
3431.000000;-0.132198
3430.000000;-0.130557
3429.000000;-0.128834
3428.000000;-0.127251
3427.000000;-0.125700
3426.000000;-0.124158
3425.000000;-0.122795
3424.000000;-0.121577
3423.000000;-0.120105
3422.000000;-0.118036
3421.000000;-0.115466
3420.000000;-0.112848
3419.000000;-0.110696
3418.000000;-0.109331
3417.000000;-0.108671
3416.000000;-0.108205
3415.000000;-0.107350
3414.000000;-0.105883
3413.000000;-0.103950
3412.000000;-0.101755
3411.000000;-0.099452
3410.000000;-0.097305
3409.000000;-0.095661
3408.000000;-0.094677
3407.000000;-0.094178
3406.000000;-0.093802
3405.000000;-0.093139
3404.000000;-0.091811
3403.000000;-0.089702
3402.000000;-0.087190
3401.000000;-0.084964
3400.000000;-0.083457
3399.000000;-0.082516
3398.000000;-0.081633
3397.000000;-0.080410
3396.000000;-0.078789
3395.000000;-0.076980
3394.000000;-0.075226
3393.000000;-0.073619
3392.000000;-0.072162
3391.000000;-0.070938
3390.000000;-0.070037
3389.000000;-0.069263
3388.000000;-0.068183
3387.000000;-0.066667
3386.000000;-0.065144
3385.000000;-0.064055
3384.000000;-0.063242
3383.000000;-0.062189
3382.000000;-0.060716
3381.000000;-0.059023
3380.000000;-0.057179
3379.000000;-0.055060
3378.000000;-0.052848
3377.000000;-0.051095
3376.000000;-0.050069
3375.000000;-0.049391
3374.000000;-0.048535
3373.000000;-0.047428
3372.000000;-0.046361
3371.000000;-0.045514
3370.000000;-0.044786
3369.000000;-0.043883
3368.000000;-0.042470
3367.000000;-0.040424
3366.000000;-0.038148
3365.000000;-0.036407
3364.000000;-0.035626
3363.000000;-0.035448
3362.000000;-0.035160
3361.000000;-0.034383
3360.000000;-0.033236
3359.000000;-0.032006
3358.000000;-0.030899
3357.000000;-0.029978
3356.000000;-0.029091
3355.000000;-0.027888
3354.000000;-0.026148
3353.000000;-0.024104
3352.000000;-0.022298
3351.000000;-0.021074
3350.000000;-0.020291
3349.000000;-0.019553
3348.000000;-0.018605
3347.000000;-0.017478
3346.000000;-0.016334
3345.000000;-0.015225
3344.000000;-0.013980
3343.000000;-0.012394
3342.000000;-0.010528
3341.000000;-0.008761
3340.000000;-0.007453
3339.000000;-0.006602
3338.000000;-0.005918
3337.000000;-0.005228
3336.000000;-0.004669
3335.000000;-0.004400
3334.000000;-0.004209
3333.000000;-0.003570
3332.000000;-0.002200
3331.000000;-0.000465
3330.000000;0.000961
3329.000000;0.001855
3328.000000;0.002646
3327.000000;0.003797
3326.000000;0.005201
3325.000000;0.006379
3324.000000;0.007116
3323.000000;0.007610
3322.000000;0.008090
3321.000000;0.008622
3320.000000;0.009294
3319.000000;0.010261
3318.000000;0.011491
3317.000000;0.012706
3316.000000;0.013706
3315.000000;0.014597
3314.000000;0.015558
3313.000000;0.016555
3312.000000;0.017464
3311.000000;0.018333
3310.000000;0.019348
3309.000000;0.020560
3308.000000;0.021792
3307.000000;0.022804
3306.000000;0.023494
3305.000000;0.024004
3304.000000;0.024667
3303.000000;0.025766
3302.000000;0.027245
3301.000000;0.028699
3300.000000;0.029712
3299.000000;0.030184
3298.000000;0.030335
3297.000000;0.030514
3296.000000;0.031003
3295.000000;0.031854
3294.000000;0.032816
3293.000000;0.033520
3292.000000;0.033831
3291.000000;0.033947
3290.000000;0.034128
3289.000000;0.034474
3288.000000;0.035035
3287.000000;0.035938
3286.000000;0.037221
3285.000000;0.038630
3284.000000;0.039780
3283.000000;0.040504
3282.000000;0.040945
3281.000000;0.041346
3280.000000;0.041887
3279.000000;0.042661
3278.000000;0.043639
3277.000000;0.044627
3276.000000;0.045359
3275.000000;0.045692
3274.000000;0.045724
3273.000000;0.045766
3272.000000;0.046216
3271.000000;0.047353
3270.000000;0.049101
3269.000000;0.051010
3268.000000;0.052547
3267.000000;0.053412
3266.000000;0.053578
3265.000000;0.053230
3264.000000;0.052791
3263.000000;0.052848
3262.000000;0.053712
3261.000000;0.055041
3260.000000;0.056090
3259.000000;0.056473
3258.000000;0.056542
3257.000000;0.056958
3256.000000;0.058027
3255.000000;0.059534
3254.000000;0.061060
3253.000000;0.062323
3252.000000;0.063287
3251.000000;0.064075
3250.000000;0.064803
3249.000000;0.065418
3248.000000;0.065740
3247.000000;0.065723
3246.000000;0.065612
3245.000000;0.065752
3244.000000;0.066298
3243.000000;0.067183
3242.000000;0.068272
3241.000000;0.069394
3240.000000;0.070259
3239.000000;0.070620
3238.000000;0.070628
3237.000000;0.070860
3236.000000;0.071753
3235.000000;0.073061
3234.000000;0.074030
3233.000000;0.074181
3232.000000;0.073807
3231.000000;0.073638
3230.000000;0.074131
3229.000000;0.075184
3228.000000;0.076439
3227.000000;0.077664
3226.000000;0.078766
3225.000000;0.079597
3224.000000;0.079981
3223.000000;0.079961
3222.000000;0.079855
3221.000000;0.079966
3220.000000;0.080294
3219.000000;0.080644
3218.000000;0.080988
3217.000000;0.081549
3216.000000;0.082502
3215.000000;0.083694
3214.000000;0.084749
3213.000000;0.085401
3212.000000;0.085692
3211.000000;0.085909
3210.000000;0.086381
3209.000000;0.087243
3208.000000;0.088300
3207.000000;0.089170
3206.000000;0.089644
3205.000000;0.089854
3204.000000;0.090037
3203.000000;0.090225
3202.000000;0.090322
3201.000000;0.090384
3200.000000;0.090627
3199.000000;0.091182
3198.000000;0.092011
3197.000000;0.093076
3196.000000;0.094370
3195.000000;0.095714
3194.000000;0.096719
3193.000000;0.097118
3192.000000;0.097050
3191.000000;0.096908
3190.000000;0.096958
3189.000000;0.097206
3188.000000;0.097537
3187.000000;0.097852
3186.000000;0.098098
3185.000000;0.098298
3184.000000;0.098578
3183.000000;0.099085
3182.000000;0.099869
3181.000000;0.100837
3180.000000;0.101823
3179.000000;0.102691
3178.000000;0.103395
3177.000000;0.103957
3176.000000;0.104373
3175.000000;0.104619
3174.000000;0.104826
3173.000000;0.105346
3172.000000;0.106465
3171.000000;0.108021
3170.000000;0.109451
3169.000000;0.110292
3168.000000;0.110527
3167.000000;0.110422
3166.000000;0.110218
3165.000000;0.110063
3164.000000;0.110105
3163.000000;0.110446
3162.000000;0.111024
3161.000000;0.111599
3160.000000;0.111870
3159.000000;0.111705
3158.000000;0.111385
3157.000000;0.111548
3156.000000;0.112600
3155.000000;0.114150
3154.000000;0.115315
3153.000000;0.115671
3152.000000;0.115618
3151.000000;0.115651
3150.000000;0.115695
3149.000000;0.115498
3148.000000;0.115331
3147.000000;0.115749
3146.000000;0.116746
3145.000000;0.117644
3144.000000;0.117960
3143.000000;0.118013
3142.000000;0.118469
3141.000000;0.119552
3140.000000;0.120924
3139.000000;0.122151
3138.000000;0.123067
3137.000000;0.123716
3136.000000;0.124123
3135.000000;0.124226
3134.000000;0.124048
3133.000000;0.123846
3132.000000;0.123949
3131.000000;0.124387
3130.000000;0.124809
3129.000000;0.124936
3128.000000;0.124976
3127.000000;0.125398
3126.000000;0.126348
3125.000000;0.127516
3124.000000;0.128517
3123.000000;0.129183
3122.000000;0.129472
3121.000000;0.129394
3120.000000;0.129154
3119.000000;0.129156
3118.000000;0.129697
3117.000000;0.130708
3116.000000;0.131868
3115.000000;0.132878
3114.000000;0.133602
3113.000000;0.134069
3112.000000;0.134435
3111.000000;0.134828
3110.000000;0.135174
3109.000000;0.135260
3108.000000;0.135012
3107.000000;0.134618
3106.000000;0.134339
3105.000000;0.134292
3104.000000;0.134474
3103.000000;0.134889
3102.000000;0.135585
3101.000000;0.136599
3100.000000;0.137903
3099.000000;0.139310
3098.000000;0.140471
3097.000000;0.141086
3096.000000;0.141166
3095.000000;0.141007
3094.000000;0.140907
3093.000000;0.141019
3092.000000;0.141444
3091.000000;0.142212
3090.000000;0.143090
3089.000000;0.143609
3088.000000;0.143471
3087.000000;0.142891
3086.000000;0.142431
3085.000000;0.142551
3084.000000;0.143328
3083.000000;0.144468
3082.000000;0.145472
3081.000000;0.145903
3080.000000;0.145675
3079.000000;0.145152
3078.000000;0.144920
3077.000000;0.145398
3076.000000;0.146555
3075.000000;0.147925
3074.000000;0.148939
3073.000000;0.149354
3072.000000;0.149398
3071.000000;0.149434
3070.000000;0.149568
3069.000000;0.149715
3068.000000;0.149935
3067.000000;0.150432
3066.000000;0.151200
3065.000000;0.151944
3064.000000;0.152452
3063.000000;0.152826
3062.000000;0.153232
3061.000000;0.153657
3060.000000;0.154054
3059.000000;0.154512
3058.000000;0.155057
3057.000000;0.155484
3056.000000;0.155630
3055.000000;0.155667
3054.000000;0.155885
3053.000000;0.156296
3052.000000;0.156756
3051.000000;0.157366
3050.000000;0.158388
3049.000000;0.159729
3048.000000;0.160846
3047.000000;0.161316
3046.000000;0.161282
3045.000000;0.161167
3044.000000;0.161162
3043.000000;0.161179
3042.000000;0.161153
3041.000000;0.161140
3040.000000;0.161154
3039.000000;0.161098
3038.000000;0.160908
3037.000000;0.160691
3036.000000;0.160700
3035.000000;0.161170
3034.000000;0.162136
3033.000000;0.163322
3032.000000;0.164276
3031.000000;0.164732
3030.000000;0.164857
3029.000000;0.165082
3028.000000;0.165698
3027.000000;0.166679
3026.000000;0.167891
3025.000000;0.169269
3024.000000;0.170724
3023.000000;0.171957
3022.000000;0.172570
3021.000000;0.172412
3020.000000;0.171779
3019.000000;0.171250
3018.000000;0.171321
3017.000000;0.172081
3016.000000;0.173131
3015.000000;0.173856
3014.000000;0.173948
3013.000000;0.173721
3012.000000;0.173791
3011.000000;0.174409
3010.000000;0.175239
3009.000000;0.175811
3008.000000;0.176032
3007.000000;0.176125
3006.000000;0.176278
3005.000000;0.176561
3004.000000;0.177074
3003.000000;0.177872
3002.000000;0.178748
3001.000000;0.179322
3000.000000;0.179436
2999.000000;0.179302
2998.000000;0.179220
2997.000000;0.179317
2996.000000;0.179590
2995.000000;0.179996
2994.000000;0.180448
2993.000000;0.180872
2992.000000;0.181380
2991.000000;0.182235
2990.000000;0.183519
2989.000000;0.184910
2988.000000;0.185909
2987.000000;0.186231
2986.000000;0.185965
2985.000000;0.185464
2984.000000;0.185108
2983.000000;0.185093
2982.000000;0.185387
2981.000000;0.185939
2980.000000;0.186836
2979.000000;0.188033
2978.000000;0.189011
2977.000000;0.189076
2976.000000;0.188174
2975.000000;0.187124
2974.000000;0.186810
2973.000000;0.187370
2972.000000;0.188342
2971.000000;0.189335
2970.000000;0.190226
2969.000000;0.190892
2968.000000;0.191197
2967.000000;0.191264
2966.000000;0.191457
2965.000000;0.191991
2964.000000;0.192754
2963.000000;0.193505
2962.000000;0.194100
2961.000000;0.194528
2960.000000;0.194922
2959.000000;0.195502
2958.000000;0.196335
2957.000000;0.197186
2956.000000;0.197809
2955.000000;0.198330
2954.000000;0.199044
2953.000000;0.199839
2952.000000;0.200147
2951.000000;0.199613
2950.000000;0.198593
2949.000000;0.197814
2948.000000;0.197717
2947.000000;0.198248
2946.000000;0.199112
2945.000000;0.200036
2944.000000;0.200851
2943.000000;0.201477
2942.000000;0.201900
2941.000000;0.202188
2940.000000;0.202542
2939.000000;0.203199
2938.000000;0.204159
2937.000000;0.205051
2936.000000;0.205528
2935.000000;0.205761
2934.000000;0.206292
2933.000000;0.207320
2932.000000;0.208376
2931.000000;0.208840
2930.000000;0.208625
2929.000000;0.208232
2928.000000;0.208265
2927.000000;0.208983
2926.000000;0.210154
2925.000000;0.211216
2924.000000;0.211734
2923.000000;0.211813
2922.000000;0.211940
2921.000000;0.212385
2920.000000;0.212928
2919.000000;0.213258
2918.000000;0.213350
2917.000000;0.213282
2916.000000;0.212946
2915.000000;0.212289
2914.000000;0.211697
2913.000000;0.211784
2912.000000;0.212714
2911.000000;0.213974
2910.000000;0.214878
2909.000000;0.215168
2908.000000;0.215082
2907.000000;0.215013
2906.000000;0.215232
2905.000000;0.215843
2904.000000;0.216822
2903.000000;0.217988
2902.000000;0.218992
2901.000000;0.219517
2900.000000;0.219643
2899.000000;0.219918
2898.000000;0.220875
2897.000000;0.222474
2896.000000;0.224173
2895.000000;0.225520
2894.000000;0.226452
2893.000000;0.226999
2892.000000;0.227054
2891.000000;0.226663
2890.000000;0.226272
2889.000000;0.226372
2888.000000;0.227001
2887.000000;0.227814
2886.000000;0.228544
2885.000000;0.229139
2884.000000;0.229573
2883.000000;0.229816
2882.000000;0.229984
2881.000000;0.230269
2880.000000;0.230665
2879.000000;0.230958
2878.000000;0.231044
2877.000000;0.231113
2876.000000;0.231458
2875.000000;0.232170
2874.000000;0.233050
2873.000000;0.233774
2872.000000;0.234210
2871.000000;0.234568
2870.000000;0.235136
2869.000000;0.235811
2868.000000;0.236140
2867.000000;0.235958
2866.000000;0.235774
2865.000000;0.236211
2864.000000;0.237248
2863.000000;0.238313
2862.000000;0.239050
2861.000000;0.239646
2860.000000;0.240365
2859.000000;0.241116
2858.000000;0.241637
2857.000000;0.241873
2856.000000;0.242021
2855.000000;0.242312
2854.000000;0.242818
2853.000000;0.243366
2852.000000;0.243632
2851.000000;0.243464
2850.000000;0.243099
2849.000000;0.242964
2848.000000;0.243275
2847.000000;0.243975
2846.000000;0.244972
2845.000000;0.246167
2844.000000;0.247279
2843.000000;0.247969
2842.000000;0.248254
2841.000000;0.248566
2840.000000;0.249265
2839.000000;0.250239
2838.000000;0.251073
2837.000000;0.251441
2836.000000;0.251312
2835.000000;0.250943
2834.000000;0.250774
2833.000000;0.251139
2832.000000;0.251976
2831.000000;0.252912
2830.000000;0.253679
2829.000000;0.254310
2828.000000;0.254914
2827.000000;0.255470
2826.000000;0.255931
2825.000000;0.256313
2824.000000;0.256592
2823.000000;0.256680
2822.000000;0.256639
2821.000000;0.256743
2820.000000;0.257221
2819.000000;0.258030
2818.000000;0.258909
2817.000000;0.259546
2816.000000;0.259705
2815.000000;0.259412
2814.000000;0.259108
2813.000000;0.259355
2812.000000;0.260253
2811.000000;0.261352
2810.000000;0.262212
2809.000000;0.262867
2808.000000;0.263602
2807.000000;0.264550
2806.000000;0.265634
2805.000000;0.266683
2804.000000;0.267406
2803.000000;0.267535
2802.000000;0.267231
2801.000000;0.267140
2800.000000;0.267750
2799.000000;0.268866
2798.000000;0.269957
2797.000000;0.270820
2796.000000;0.271565
2795.000000;0.272137
2794.000000;0.272294
2793.000000;0.272095
2792.000000;0.272008
2791.000000;0.272411
2790.000000;0.273239
2789.000000;0.274173
2788.000000;0.274953
2787.000000;0.275437
2786.000000;0.275617
2785.000000;0.275709
2784.000000;0.276027
2783.000000;0.276652
2782.000000;0.277371
2781.000000;0.278045
2780.000000;0.278859
2779.000000;0.280003
2778.000000;0.281215
2777.000000;0.281905
2776.000000;0.281796
2775.000000;0.281324
2774.000000;0.281274
2773.000000;0.282026
2772.000000;0.283209
2771.000000;0.284112
2770.000000;0.284377
2769.000000;0.284264
2768.000000;0.284303
2767.000000;0.284791
2766.000000;0.285601
2765.000000;0.286331
2764.000000;0.286596
2763.000000;0.286359
2762.000000;0.286053
2761.000000;0.286258
2760.000000;0.287135
2759.000000;0.288298
2758.000000;0.289308
2757.000000;0.290141
2756.000000;0.291031
2755.000000;0.292038
2754.000000;0.293000
2753.000000;0.293793
2752.000000;0.294419
2751.000000;0.294890
2750.000000;0.295259
2749.000000;0.295729
2748.000000;0.296517
2747.000000;0.297591
2746.000000;0.298701
2745.000000;0.299643
2744.000000;0.300303
2743.000000;0.300508
2742.000000;0.300122
2741.000000;0.299386
2740.000000;0.298901
2739.000000;0.299107
2738.000000;0.299905
2737.000000;0.300884
2736.000000;0.301797
2735.000000;0.302684
2734.000000;0.303639
2733.000000;0.304608
2732.000000;0.305403
2731.000000;0.305838
2730.000000;0.305905
2729.000000;0.305859
2728.000000;0.306051
2727.000000;0.306559
2726.000000;0.307068
2725.000000;0.307214
2724.000000;0.307008
2723.000000;0.306814
2722.000000;0.306936
2721.000000;0.307369
2720.000000;0.307974
2719.000000;0.308732
2718.000000;0.309694
2717.000000;0.310771
2716.000000;0.311761
2715.000000;0.312594
2714.000000;0.313375
2713.000000;0.314088
2712.000000;0.314477
2711.000000;0.314438
2710.000000;0.314418
2709.000000;0.315076
2708.000000;0.316493
2707.000000;0.317992
2706.000000;0.318894
2705.000000;0.319235
2704.000000;0.319517
2703.000000;0.319962
2702.000000;0.320355
2701.000000;0.320526
2700.000000;0.320615
2699.000000;0.320761
2698.000000;0.320840
2697.000000;0.320722
2696.000000;0.320621
2695.000000;0.320988
2694.000000;0.322065
2693.000000;0.323676
2692.000000;0.325400
2691.000000;0.326851
2690.000000;0.327790
2689.000000;0.328126
2688.000000;0.327943
2687.000000;0.327508
2686.000000;0.327154
2685.000000;0.327087
2684.000000;0.327282
2683.000000;0.327597
2682.000000;0.327986
2681.000000;0.328561
2680.000000;0.329443
2679.000000;0.330559
2678.000000;0.331617
2677.000000;0.332299
2676.000000;0.332547
2675.000000;0.332637
2674.000000;0.332901
2673.000000;0.333337
2672.000000;0.333627
2671.000000;0.333640
2670.000000;0.333745
2669.000000;0.334386
2668.000000;0.335459
2667.000000;0.336425
2666.000000;0.337063
2665.000000;0.337729
2664.000000;0.338712
2663.000000;0.339701
2662.000000;0.340206
2661.000000;0.340275
2660.000000;0.340405
2659.000000;0.340865
2658.000000;0.341492
2657.000000;0.342163
2656.000000;0.343052
2655.000000;0.344254
2654.000000;0.345435
2653.000000;0.346091
2652.000000;0.346125
2651.000000;0.346003
2650.000000;0.346338
2649.000000;0.347344
2648.000000;0.348618
2647.000000;0.349436
2646.000000;0.349371
2645.000000;0.348720
2644.000000;0.348245
2643.000000;0.348482
2642.000000;0.349329
2641.000000;0.350300
2640.000000;0.351061
2639.000000;0.351638
2638.000000;0.352161
2637.000000;0.352582
2636.000000;0.352786
2635.000000;0.352931
2634.000000;0.353452
2633.000000;0.354559
2632.000000;0.355845
2631.000000;0.356655
2630.000000;0.356857
2629.000000;0.356962
2628.000000;0.357416
2627.000000;0.358092
2626.000000;0.358663
2625.000000;0.359171
2624.000000;0.359925
2623.000000;0.361010
2622.000000;0.362223
2621.000000;0.363408
2620.000000;0.364497
2619.000000;0.365305
2618.000000;0.365632
2617.000000;0.365624
2616.000000;0.365668
2615.000000;0.365893
2614.000000;0.366069
2613.000000;0.366098
2612.000000;0.366277
2611.000000;0.366875
2610.000000;0.367699
2609.000000;0.368333
2608.000000;0.368640
2607.000000;0.368837
2606.000000;0.369162
2605.000000;0.369654
2604.000000;0.370230
2603.000000;0.370804
2602.000000;0.371331
2601.000000;0.371803
2600.000000;0.372234
2599.000000;0.372645
2598.000000;0.373090
2597.000000;0.373695
2596.000000;0.374584
2595.000000;0.375724
2594.000000;0.376877
2593.000000;0.377717
2592.000000;0.377984
2591.000000;0.377634
2590.000000;0.377011
2589.000000;0.376758
2588.000000;0.377289
2587.000000;0.378332
2586.000000;0.379236
2585.000000;0.379748
2584.000000;0.380239
2583.000000;0.381068
2582.000000;0.382055
2581.000000;0.382808
2580.000000;0.383315
2579.000000;0.383925
2578.000000;0.384820
2577.000000;0.385790
2576.000000;0.386522
2575.000000;0.386911
2574.000000;0.387080
2573.000000;0.387246
2572.000000;0.387554
2571.000000;0.387964
2570.000000;0.388308
2569.000000;0.388519
2568.000000;0.388760
2567.000000;0.389245
2566.000000;0.389998
2565.000000;0.390836
2564.000000;0.391506
2563.000000;0.391810
2562.000000;0.391767
2561.000000;0.391752
2560.000000;0.392275
2559.000000;0.393434
2558.000000;0.394689
2557.000000;0.395421
2556.000000;0.395621
2555.000000;0.395807
2554.000000;0.396333
2553.000000;0.397055
2552.000000;0.397694
2551.000000;0.398255
2550.000000;0.398934
2549.000000;0.399736
2548.000000;0.400371
2547.000000;0.400538
2546.000000;0.400298
2545.000000;0.400116
2544.000000;0.400460
2543.000000;0.401372
2542.000000;0.402507
2541.000000;0.403580
2540.000000;0.404597
2539.000000;0.405582
2538.000000;0.406352
2537.000000;0.406780
2536.000000;0.407062
2535.000000;0.407419
2534.000000;0.407711
2533.000000;0.407726
2532.000000;0.407725
2531.000000;0.408229
2530.000000;0.409247
2529.000000;0.410180
2528.000000;0.410632
2527.000000;0.410885
2526.000000;0.411377
2525.000000;0.412108
2524.000000;0.412873
2523.000000;0.413714
2522.000000;0.414729
2521.000000;0.415661
2520.000000;0.416131
2519.000000;0.416180
2518.000000;0.416219
2517.000000;0.416502
2516.000000;0.417024
2515.000000;0.417854
2514.000000;0.419103
2513.000000;0.420479
2512.000000;0.421297
2511.000000;0.421176
2510.000000;0.420484
2509.000000;0.419927
2508.000000;0.419927
2507.000000;0.420529
2506.000000;0.421636
2505.000000;0.423062
2504.000000;0.424495
2503.000000;0.425653
2502.000000;0.426472
2501.000000;0.427014
2500.000000;0.427300
2499.000000;0.427374
2498.000000;0.427399
2497.000000;0.427483
2496.000000;0.427503
2495.000000;0.427326
2494.000000;0.427169
2493.000000;0.427486
2492.000000;0.428440
2491.000000;0.429695
2490.000000;0.430804
2489.000000;0.431646
2488.000000;0.432331
2487.000000;0.432843
2486.000000;0.432987
2485.000000;0.432685
2484.000000;0.432176
2483.000000;0.431853
2482.000000;0.431981
2481.000000;0.432614
2480.000000;0.433689
2479.000000;0.435069
2478.000000;0.436485
2477.000000;0.437571
2476.000000;0.438095
2475.000000;0.438166
2474.000000;0.438178
2473.000000;0.438493
2472.000000;0.439192
2471.000000;0.440122
2470.000000;0.441097
2469.000000;0.442009
2468.000000;0.442793
2467.000000;0.443409
2466.000000;0.443924
2465.000000;0.444530
2464.000000;0.445398
2463.000000;0.446444
2462.000000;0.447309
2461.000000;0.447630
2460.000000;0.447372
2459.000000;0.446849
2458.000000;0.446453
2457.000000;0.446402
2456.000000;0.446736
2455.000000;0.447411
2454.000000;0.448301
2453.000000;0.449191
2452.000000;0.449954
2451.000000;0.450692
2450.000000;0.451518
2449.000000;0.452250
2448.000000;0.452570
2447.000000;0.452532
2446.000000;0.452666
2445.000000;0.453390
2444.000000;0.454517
2443.000000;0.455504
2442.000000;0.456084
2441.000000;0.456419
2440.000000;0.456763
2439.000000;0.457223
2438.000000;0.457849
2437.000000;0.458670
2436.000000;0.459557
2435.000000;0.460206
2434.000000;0.460381
2433.000000;0.460099
2432.000000;0.459594
2431.000000;0.459202
2430.000000;0.459283
2429.000000;0.460071
2428.000000;0.461502
2427.000000;0.463259
2426.000000;0.465029
2425.000000;0.466607
2424.000000;0.467760
2423.000000;0.468216
2422.000000;0.467957
2421.000000;0.467406
2420.000000;0.467141
2419.000000;0.467429
2418.000000;0.468098
2417.000000;0.468812
2416.000000;0.469352
2415.000000;0.469677
2414.000000;0.469885
2413.000000;0.470187
2412.000000;0.470807
2411.000000;0.471771
2410.000000;0.472802
2409.000000;0.473512
2408.000000;0.473784
2407.000000;0.473924
2406.000000;0.474361
2405.000000;0.475162
2404.000000;0.475954
2403.000000;0.476348
2402.000000;0.476390
2401.000000;0.476490
2400.000000;0.477000
2399.000000;0.477967
2398.000000;0.479223
2397.000000;0.480521
2396.000000;0.481559
2395.000000;0.482078
2394.000000;0.482066
2393.000000;0.481806
2392.000000;0.481652
2391.000000;0.481806
2390.000000;0.482306
2389.000000;0.483057
2388.000000;0.483800
2387.000000;0.484216
2386.000000;0.484242
2385.000000;0.484218
2384.000000;0.484564
2383.000000;0.485317
2382.000000;0.486102
2381.000000;0.486590
2380.000000;0.486851
2379.000000;0.487221
2378.000000;0.487874
2377.000000;0.488637
2376.000000;0.489211
2375.000000;0.489540
2374.000000;0.489854
2373.000000;0.490336
2372.000000;0.490875
2371.000000;0.491232
2370.000000;0.491435
2369.000000;0.491845
2368.000000;0.492776
2367.000000;0.494126
2366.000000;0.495434
2365.000000;0.496277
2364.000000;0.496494
2363.000000;0.496206
2362.000000;0.495808
2361.000000;0.495648
2360.000000;0.495740
2359.000000;0.495854
2358.000000;0.495892
2357.000000;0.496225
2356.000000;0.497215
2355.000000;0.498688
2354.000000;0.500079
2353.000000;0.501046
2352.000000;0.501715
2351.000000;0.502125
2350.000000;0.502136
2349.000000;0.501752
2348.000000;0.501295
2347.000000;0.501317
2346.000000;0.502091
2345.000000;0.503537
2344.000000;0.505173
2343.000000;0.506465
2342.000000;0.507143
2341.000000;0.507189
2340.000000;0.506964
2339.000000;0.506886
2338.000000;0.507208
2337.000000;0.507846
2336.000000;0.508568
2335.000000;0.509114
2334.000000;0.509418
2333.000000;0.509594
2332.000000;0.509966
2331.000000;0.510633
2330.000000;0.511467
2329.000000;0.512224
2328.000000;0.512743
2327.000000;0.513113
2326.000000;0.513403
2325.000000;0.513763
2324.000000;0.514292
2323.000000;0.515061
2322.000000;0.516017
2321.000000;0.516920
2320.000000;0.517596
2319.000000;0.517969
2318.000000;0.518183
2317.000000;0.518375
2316.000000;0.518714
2315.000000;0.519275
2314.000000;0.520041
2313.000000;0.520817
2312.000000;0.521393
2311.000000;0.521759
2310.000000;0.522155
2309.000000;0.522830
2308.000000;0.523756
2307.000000;0.524686
2306.000000;0.525440
2305.000000;0.526065
2304.000000;0.526681
2303.000000;0.527253
2302.000000;0.527627
2301.000000;0.527713
2300.000000;0.527620
2299.000000;0.527603
2298.000000;0.527926
2297.000000;0.528693
2296.000000;0.529734
2295.000000;0.530699
2294.000000;0.531326
2293.000000;0.531678
2292.000000;0.532023
2291.000000;0.532509
2290.000000;0.532985
2289.000000;0.533215
2288.000000;0.533203
2287.000000;0.533299
2286.000000;0.533941
2285.000000;0.535239
2284.000000;0.536776
2283.000000;0.537857
2282.000000;0.538061
2281.000000;0.537604
2280.000000;0.537147
2279.000000;0.537226
2278.000000;0.537846
2277.000000;0.538557
2276.000000;0.538930
2275.000000;0.538972
2274.000000;0.539123
2273.000000;0.539792
2272.000000;0.540869
2271.000000;0.541751
2270.000000;0.541953
2269.000000;0.541664
2268.000000;0.541602
2267.000000;0.542312
2266.000000;0.543720
2265.000000;0.545307
2264.000000;0.546555
2263.000000;0.547183
2262.000000;0.547142
2261.000000;0.546599
2260.000000;0.545893
2259.000000;0.545377
2258.000000;0.545281
2257.000000;0.545752
2256.000000;0.546932
2255.000000;0.548803
2254.000000;0.550978
2253.000000;0.552806
2252.000000;0.553819
2251.000000;0.554067
2250.000000;0.554011
2249.000000;0.554143
2248.000000;0.554683
2247.000000;0.555511
2246.000000;0.556333
2245.000000;0.556966
2244.000000;0.557477
2243.000000;0.557988
2242.000000;0.558422
2241.000000;0.558607
2240.000000;0.558628
2239.000000;0.558877
2238.000000;0.559596
2237.000000;0.560540
2236.000000;0.561251
2235.000000;0.561602
2234.000000;0.561856
2233.000000;0.562229
2232.000000;0.562625
2231.000000;0.562829
2230.000000;0.562815
2229.000000;0.562781
2228.000000;0.562972
2227.000000;0.563517
2226.000000;0.564354
2225.000000;0.565255
2224.000000;0.565986
2223.000000;0.566487
2222.000000;0.566883
2221.000000;0.567338
2220.000000;0.567948
2219.000000;0.568743
2218.000000;0.569651
2217.000000;0.570473
2216.000000;0.571046
2215.000000;0.571461
2214.000000;0.572009
2213.000000;0.572826
2212.000000;0.573695
2211.000000;0.574283
2210.000000;0.574472
2209.000000;0.574404
2208.000000;0.574312
2207.000000;0.574426
2206.000000;0.574933
2205.000000;0.575872
2204.000000;0.577058
2203.000000;0.578208
2202.000000;0.579151
2201.000000;0.579847
2200.000000;0.580264
2199.000000;0.580393
2198.000000;0.580387
2197.000000;0.580559
2196.000000;0.581148
2195.000000;0.582096
2194.000000;0.583077
2193.000000;0.583731
2192.000000;0.583911
2191.000000;0.583741
2190.000000;0.583475
2189.000000;0.583323
2188.000000;0.583435
2187.000000;0.583947
2186.000000;0.584920
2185.000000;0.586158
2184.000000;0.587236
2183.000000;0.587867
2182.000000;0.588221
2181.000000;0.588726
2180.000000;0.589569
2179.000000;0.590489
2178.000000;0.591091
2177.000000;0.591258
2176.000000;0.591207
2175.000000;0.591249
2174.000000;0.591606
2173.000000;0.592375
2172.000000;0.593463
2171.000000;0.594513
2170.000000;0.595055
2169.000000;0.594928
2168.000000;0.594514
2167.000000;0.594400
2166.000000;0.594807
2165.000000;0.595467
2164.000000;0.596064
2163.000000;0.596582
2162.000000;0.597113
2161.000000;0.597550
2160.000000;0.597724
2159.000000;0.597747
2158.000000;0.597956
2157.000000;0.598486
2156.000000;0.599169
2155.000000;0.599873
2154.000000;0.600679
2153.000000;0.601621
2152.000000;0.602529
2151.000000;0.603308
2150.000000;0.604157
2149.000000;0.605259
2148.000000;0.606378
2147.000000;0.607030
2146.000000;0.607055
2145.000000;0.606830
2144.000000;0.606898
2143.000000;0.607511
2142.000000;0.608491
2141.000000;0.609402
2140.000000;0.609868
2139.000000;0.609850
2138.000000;0.609675
2137.000000;0.609782
2136.000000;0.610456
2135.000000;0.611736
2134.000000;0.613393
2133.000000;0.614926
2132.000000;0.615799
2131.000000;0.615893
2130.000000;0.615653
2129.000000;0.615627
2128.000000;0.615936
2127.000000;0.616336
2126.000000;0.616666
2125.000000;0.616986
2124.000000;0.617344
2123.000000;0.617672
2122.000000;0.617980
2121.000000;0.618405
2120.000000;0.618962
2119.000000;0.619431
2118.000000;0.619658
2117.000000;0.619864
2116.000000;0.620490
2115.000000;0.621694
2114.000000;0.623091
2113.000000;0.624034
2112.000000;0.624172
2111.000000;0.623768
2110.000000;0.623452
2109.000000;0.623713
2108.000000;0.624604
2107.000000;0.625854
2106.000000;0.627118
2105.000000;0.628183
2104.000000;0.629062
2103.000000;0.629931
2102.000000;0.630816
2101.000000;0.631375
2100.000000;0.631222
2099.000000;0.630544
2098.000000;0.630102
2097.000000;0.630416
2096.000000;0.631201
2095.000000;0.631855
2094.000000;0.632259
2093.000000;0.632718
2092.000000;0.633290
2091.000000;0.633674
2090.000000;0.633777
2089.000000;0.633971
2088.000000;0.634610
2087.000000;0.635593
2086.000000;0.636563
2085.000000;0.637296
2084.000000;0.637767
2083.000000;0.638075
2082.000000;0.638461
2081.000000;0.639205
2080.000000;0.640306
2079.000000;0.641400
2078.000000;0.642159
2077.000000;0.642636
2076.000000;0.643114
2075.000000;0.643720
2074.000000;0.644374
2073.000000;0.645002
2072.000000;0.645589
2071.000000;0.646062
2070.000000;0.646284
2069.000000;0.646210
2068.000000;0.646008
2067.000000;0.645977
2066.000000;0.646362
2065.000000;0.647151
2064.000000;0.648052
2063.000000;0.648733
2062.000000;0.649150
2061.000000;0.649563
2060.000000;0.650213
2059.000000;0.651075
2058.000000;0.651983
2057.000000;0.652851
2056.000000;0.653656
2055.000000;0.654264
2054.000000;0.654454
2053.000000;0.654187
2052.000000;0.653777
2051.000000;0.653704
2050.000000;0.654210
2049.000000;0.655064
2048.000000;0.655800
2047.000000;0.656216
2046.000000;0.656593
2045.000000;0.657314
2044.000000;0.658373
2043.000000;0.659381
2042.000000;0.660019
2041.000000;0.660300
2040.000000;0.660404
2039.000000;0.660458
2038.000000;0.660567
2037.000000;0.660876
2036.000000;0.661478
2035.000000;0.662303
2034.000000;0.663207
2033.000000;0.664097
2032.000000;0.664933
2031.000000;0.665692
2030.000000;0.666396
2029.000000;0.667090
2028.000000;0.667721
2027.000000;0.668136
2026.000000;0.668269
2025.000000;0.668293
2024.000000;0.668515
2023.000000;0.669133
2022.000000;0.670106
2021.000000;0.671169
2020.000000;0.671959
2019.000000;0.672273
2018.000000;0.672284
2017.000000;0.672394
2016.000000;0.672813
2015.000000;0.673397
2014.000000;0.673914
2013.000000;0.674336
2012.000000;0.674750
2011.000000;0.675156
2010.000000;0.675508
2009.000000;0.675891
2008.000000;0.676460
2007.000000;0.677256
2006.000000;0.678200
2005.000000;0.679252
2004.000000;0.680414
2003.000000;0.681579
2002.000000;0.682521
2001.000000;0.683083
2000.000000;0.683318
1999.000000;0.683372
1998.000000;0.683325
1997.000000;0.683216
1996.000000;0.683183
1995.000000;0.683461
1994.000000;0.684138
1993.000000;0.684962
1992.000000;0.685539
1991.000000;0.685787
1990.000000;0.686096
1989.000000;0.686863
1988.000000;0.687927
1987.000000;0.688695
1986.000000;0.688889
1985.000000;0.688943
1984.000000;0.689484
1983.000000;0.690591
1982.000000;0.691772
1981.000000;0.692554
1980.000000;0.692910
1979.000000;0.693082
1978.000000;0.693271
1977.000000;0.693606
1976.000000;0.694185
1975.000000;0.694958
1974.000000;0.695653
1973.000000;0.695993
1972.000000;0.696019
1971.000000;0.696053
1970.000000;0.696369
1969.000000;0.696981
1968.000000;0.697778
1967.000000;0.698696
1966.000000;0.699681
1965.000000;0.700581
1964.000000;0.701263
1963.000000;0.701790
1962.000000;0.702357
1961.000000;0.703026
1960.000000;0.703654
1959.000000;0.704128
1958.000000;0.704508
1957.000000;0.704865
1956.000000;0.705126
1955.000000;0.705245
1954.000000;0.705448
1953.000000;0.706074
1952.000000;0.707144
1951.000000;0.708271
1950.000000;0.709079
1949.000000;0.709592
1948.000000;0.710090
1947.000000;0.710684
1946.000000;0.711161
1945.000000;0.711273
1944.000000;0.711105
1943.000000;0.711097
1942.000000;0.711650
1941.000000;0.712705
1940.000000;0.713722
1939.000000;0.714162
1938.000000;0.714015
1937.000000;0.713775
1936.000000;0.713910
1935.000000;0.714395
1934.000000;0.714822
1933.000000;0.714951
1932.000000;0.715038
1931.000000;0.715608
1930.000000;0.716905
1929.000000;0.718586
1928.000000;0.720014
1927.000000;0.720838
1926.000000;0.721289
1925.000000;0.721866
1924.000000;0.722788
1923.000000;0.723861
1922.000000;0.724815
1921.000000;0.725628
1920.000000;0.726419
1919.000000;0.727074
1918.000000;0.727195
1917.000000;0.726576
1916.000000;0.725687
1915.000000;0.725425
1914.000000;0.726259
1913.000000;0.727718
1912.000000;0.728863
1911.000000;0.729239
1910.000000;0.729215
1909.000000;0.729450
1908.000000;0.730284
1907.000000;0.731630
1906.000000;0.733202
1905.000000;0.734646
1904.000000;0.735607
1903.000000;0.735928
1902.000000;0.735785
1901.000000;0.735512
1900.000000;0.735339
1899.000000;0.735309
1898.000000;0.735411
1897.000000;0.735701
1896.000000;0.736269
1895.000000;0.737091
1894.000000;0.737928
1893.000000;0.738513
1892.000000;0.738954
1891.000000;0.739768
1890.000000;0.741201
1889.000000;0.742647
1888.000000;0.743142
1887.000000;0.742482
1886.000000;0.741443
1885.000000;0.740836
1884.000000;0.740811
1883.000000;0.741254
1882.000000;0.742259
1881.000000;0.743787
1880.000000;0.745272
1879.000000;0.746101
1878.000000;0.746305
1877.000000;0.746358
1876.000000;0.746470
1875.000000;0.746642
1874.000000;0.747196
1873.000000;0.748453
1872.000000;0.749915
1871.000000;0.750497
1870.000000;0.749795
1869.000000;0.748638
1868.000000;0.748175
1867.000000;0.748780
1866.000000;0.750045
1865.000000;0.751479
1864.000000;0.752872
1863.000000;0.754138
1862.000000;0.755177
1861.000000;0.755859
1860.000000;0.756068
1859.000000;0.755852
1858.000000;0.755577
1857.000000;0.755747
1856.000000;0.756623
1855.000000;0.758123
1854.000000;0.760002
1853.000000;0.761854
1852.000000;0.763122
1851.000000;0.763490
1850.000000;0.763331
1849.000000;0.763362
1848.000000;0.763701
1847.000000;0.763663
1846.000000;0.762752
1845.000000;0.761567
1844.000000;0.761403
1843.000000;0.763093
1842.000000;0.766324
1841.000000;0.769818
1840.000000;0.772000
1839.000000;0.771796
1838.000000;0.769358
1837.000000;0.766097
1836.000000;0.763831
1835.000000;0.763807
1834.000000;0.766166
1833.000000;0.769887
1832.000000;0.773198
1831.000000;0.774518
1830.000000;0.773524
1829.000000;0.771395
1828.000000;0.769813
1827.000000;0.769721
1826.000000;0.770983
1825.000000;0.772896
1824.000000;0.774790
1823.000000;0.776329
1822.000000;0.777515
1821.000000;0.778449
1820.000000;0.779073
1819.000000;0.779262
1818.000000;0.779207
1817.000000;0.779411
1816.000000;0.780173
1815.000000;0.781282
1814.000000;0.782281
1813.000000;0.782887
1812.000000;0.783030
1811.000000;0.782783
1810.000000;0.782442
1809.000000;0.782427
1808.000000;0.782900
1807.000000;0.783674
1806.000000;0.784538
1805.000000;0.785411
1804.000000;0.786076
1803.000000;0.786209
1802.000000;0.785906
1801.000000;0.785895
1800.000000;0.786761
1799.000000;0.788218
1798.000000;0.789484
1797.000000;0.790201
1796.000000;0.790593
1795.000000;0.790914
1794.000000;0.791181
1793.000000;0.791483
1792.000000;0.792049
1791.000000;0.792931
1790.000000;0.793877
1789.000000;0.794615
1788.000000;0.795066
1787.000000;0.795225
1786.000000;0.795131
1785.000000;0.795047
1784.000000;0.795384
1783.000000;0.796363
1782.000000;0.797762
1781.000000;0.799169
1780.000000;0.800261
1779.000000;0.800849
1778.000000;0.800909
1777.000000;0.800669
1776.000000;0.800533
1775.000000;0.800747
1774.000000;0.801252
1773.000000;0.801851
1772.000000;0.802423
1771.000000;0.802901
1770.000000;0.803221
1769.000000;0.803460
1768.000000;0.803820
1767.000000;0.804396
1766.000000;0.805102
1765.000000;0.805935
1764.000000;0.807088
1763.000000;0.808641
1762.000000;0.810274
1761.000000;0.811538
1760.000000;0.812242
1759.000000;0.812507
1758.000000;0.812552
1757.000000;0.812572
1756.000000;0.812818
1755.000000;0.813489
1754.000000;0.814533
1753.000000;0.815687
1752.000000;0.816697
1751.000000;0.817430
1750.000000;0.817908
1749.000000;0.818281
1748.000000;0.818771
1747.000000;0.819494
1746.000000;0.820203
1745.000000;0.820455
1744.000000;0.820059
1743.000000;0.819318
1742.000000;0.818762
1741.000000;0.818696
1740.000000;0.819022
1739.000000;0.819530
1738.000000;0.820133
1737.000000;0.820782
1736.000000;0.821403
1735.000000;0.822005
1734.000000;0.822738
1733.000000;0.823836
1732.000000;0.825237
1731.000000;0.826566
1730.000000;0.827635
1729.000000;0.828647
1728.000000;0.829852
1727.000000;0.831139
1726.000000;0.832123
1725.000000;0.832603
1724.000000;0.832655
1723.000000;0.832406
1722.000000;0.831950
1721.000000;0.831469
1720.000000;0.831275
1719.000000;0.831587
1718.000000;0.832320
1717.000000;0.833229
1716.000000;0.834113
1715.000000;0.834887
1714.000000;0.835599
1713.000000;0.836287
1712.000000;0.836865
1711.000000;0.837268
1710.000000;0.837687
1709.000000;0.838494
1708.000000;0.839833
1707.000000;0.841310
1706.000000;0.842269
1705.000000;0.842441
1704.000000;0.842206
1703.000000;0.842133
1702.000000;0.842484
1701.000000;0.843089
1700.000000;0.843644
1699.000000;0.844122
1698.000000;0.844637
1697.000000;0.845197
1696.000000;0.845708
1695.000000;0.846206
1694.000000;0.846799
1693.000000;0.847420
1692.000000;0.847885
1691.000000;0.848144
1690.000000;0.848410
1689.000000;0.848988
1688.000000;0.850056
1687.000000;0.851459
1686.000000;0.852800
1685.000000;0.853607
1684.000000;0.853636
1683.000000;0.853320
1682.000000;0.853331
1681.000000;0.853992
1680.000000;0.855196
1679.000000;0.856517
1678.000000;0.857441
1677.000000;0.857673
1676.000000;0.857337
1675.000000;0.856970
1674.000000;0.857134
1673.000000;0.857956
1672.000000;0.859013
1671.000000;0.859775
1670.000000;0.860027
1669.000000;0.859900
1668.000000;0.859684
1667.000000;0.859724
1666.000000;0.860367
1665.000000;0.861720
1664.000000;0.863341
1663.000000;0.864504
1662.000000;0.864845
1661.000000;0.864628
1660.000000;0.864384
1659.000000;0.864452
1658.000000;0.864903
1657.000000;0.865691
1656.000000;0.866737
1655.000000;0.867970
1654.000000;0.869195
1653.000000;0.869981
1652.000000;0.870170
1651.000000;0.870000
1650.000000;0.870053
1649.000000;0.870889
1648.000000;0.872365
1647.000000;0.873667
1646.000000;0.874310
1645.000000;0.874647
1644.000000;0.875225
1643.000000;0.876091
1642.000000;0.876867
1641.000000;0.877328
1640.000000;0.877630
1639.000000;0.877967
1638.000000;0.878418
1637.000000;0.879026
1636.000000;0.879802
1635.000000;0.880637
1634.000000;0.881381
1633.000000;0.881980
1632.000000;0.882492
1631.000000;0.882904
1630.000000;0.883069
1629.000000;0.882973
1628.000000;0.882919
1627.000000;0.883333
1626.000000;0.884349
1625.000000;0.885666
1624.000000;0.886769
1623.000000;0.887292
1622.000000;0.887255
1621.000000;0.886963
1620.000000;0.886779
1619.000000;0.886982
1618.000000;0.887737
1617.000000;0.888983
1616.000000;0.890436
1615.000000;0.891741
1614.000000;0.892698
1613.000000;0.893413
1612.000000;0.894132
1611.000000;0.894956
1610.000000;0.895758
1609.000000;0.896356
1608.000000;0.896650
1607.000000;0.896689
1606.000000;0.896616
1605.000000;0.896589
1604.000000;0.896682
1603.000000;0.896871
1602.000000;0.897192
1601.000000;0.897811
1600.000000;0.898798
1599.000000;0.899959
1598.000000;0.901019
1597.000000;0.901895
1596.000000;0.902623
1595.000000;0.903139
1594.000000;0.903375
1593.000000;0.903522
1592.000000;0.903897
1591.000000;0.904543
1590.000000;0.905188
1589.000000;0.905631
1588.000000;0.905959
1587.000000;0.906301
1586.000000;0.906647
1585.000000;0.906980
1584.000000;0.907451
1583.000000;0.908193
1582.000000;0.909079
1581.000000;0.909882
1580.000000;0.910579
1579.000000;0.911321
1578.000000;0.912170
1577.000000;0.913029
1576.000000;0.913762
1575.000000;0.914379
1574.000000;0.914935
1573.000000;0.915452
1572.000000;0.915988
1571.000000;0.916520
1570.000000;0.916824
1569.000000;0.916685
1568.000000;0.916284
1567.000000;0.916110
1566.000000;0.916499
1565.000000;0.917319
1564.000000;0.918191
1563.000000;0.918879
1562.000000;0.919425
1561.000000;0.919996
1560.000000;0.920678
1559.000000;0.921101
1558.000000;0.921186
1557.000000;0.921348
1556.000000;0.921907
1555.000000;0.922925
1554.000000;0.924150
1553.000000;0.925292
1552.000000;0.926282
1551.000000;0.927158
1550.000000;0.927936
1549.000000;0.928612
1548.000000;0.929264
1547.000000;0.930004
1546.000000;0.930821
1545.000000;0.931527
1544.000000;0.931947
1543.000000;0.932093
1542.000000;0.932167
1541.000000;0.932388
1540.000000;0.932865
1539.000000;0.933732
1538.000000;0.934957
1537.000000;0.936085
1536.000000;0.936625
1535.000000;0.936647
1534.000000;0.936698
1533.000000;0.937157
1532.000000;0.937845
1531.000000;0.938317
1530.000000;0.938470
1529.000000;0.938585
1528.000000;0.938835
1527.000000;0.939164
1526.000000;0.939617
1525.000000;0.940453
1524.000000;0.941741
1523.000000;0.943075
1522.000000;0.943904
1521.000000;0.944111
1520.000000;0.944093
1519.000000;0.944200
1518.000000;0.944405
1517.000000;0.944548
1516.000000;0.944666
1515.000000;0.945018
1514.000000;0.945811
1513.000000;0.947028
1512.000000;0.948411
1511.000000;0.949596
1510.000000;0.950329
1509.000000;0.950633
1508.000000;0.950783
1507.000000;0.951076
1506.000000;0.951845
1505.000000;0.953109
1504.000000;0.954257
1503.000000;0.954581
1502.000000;0.954025
1501.000000;0.953337
1500.000000;0.953374
1499.000000;0.954260
1498.000000;0.955344
1497.000000;0.955951
1496.000000;0.956013
1495.000000;0.956044
1494.000000;0.956568
1493.000000;0.957664
1492.000000;0.959016
1491.000000;0.960300
1490.000000;0.961397
1489.000000;0.962299
1488.000000;0.962936
1487.000000;0.963299
1486.000000;0.963656
1485.000000;0.964262
1484.000000;0.964994
1483.000000;0.965465
1482.000000;0.965584
1481.000000;0.965762
1480.000000;0.966416
1479.000000;0.967512
1478.000000;0.968704
1477.000000;0.969718
1476.000000;0.970385
1475.000000;0.970620
1474.000000;0.970568
1473.000000;0.970661
1472.000000;0.971280
1471.000000;0.972319
1470.000000;0.973233
1469.000000;0.973626
1468.000000;0.973611
1467.000000;0.973639
1466.000000;0.974122
1465.000000;0.975169
1464.000000;0.976537
1463.000000;0.977689
1462.000000;0.978171
1461.000000;0.978051
1460.000000;0.977909
1459.000000;0.978281
1458.000000;0.979154
1457.000000;0.980038
1456.000000;0.980551
1455.000000;0.980763
1454.000000;0.981032
1453.000000;0.981656
1452.000000;0.982620
1451.000000;0.983667
1450.000000;0.984562
1449.000000;0.985208
1448.000000;0.985545
1447.000000;0.985575
1446.000000;0.985511
1445.000000;0.985773
1444.000000;0.986668
1443.000000;0.988012
1442.000000;0.989259
1441.000000;0.989998
1440.000000;0.990243
1439.000000;0.990282
1438.000000;0.990446
1437.000000;0.990948
1436.000000;0.991752
1435.000000;0.992572
1434.000000;0.993072
1433.000000;0.993182
1432.000000;0.993175
1431.000000;0.993394
1430.000000;0.993972
1429.000000;0.994795
1428.000000;0.995627
1427.000000;0.996296
1426.000000;0.996762
1425.000000;0.997080
1424.000000;0.997326
1423.000000;0.997552
1422.000000;0.997821
1421.000000;0.998198
1420.000000;0.998675
1419.000000;0.999135
1418.000000;0.999576
1417.000000;1.000214
1416.000000;1.001183
1415.000000;1.002253
1414.000000;1.003019
1413.000000;1.003365
1412.000000;1.003567
1411.000000;1.003924
1410.000000;1.004453
1409.000000;1.004998
1408.000000;1.005484
1407.000000;1.006025
1406.000000;1.006819
1405.000000;1.007965
1404.000000;1.009317
1403.000000;1.010469
1402.000000;1.011002
1401.000000;1.010862
1400.000000;1.010446
1399.000000;1.010268
1398.000000;1.010560
1397.000000;1.011175
1396.000000;1.011789
1395.000000;1.012203
1394.000000;1.012500
1393.000000;1.012965
1392.000000;1.013841
1391.000000;1.015104
1390.000000;1.016463
1389.000000;1.017562
1388.000000;1.018198
1387.000000;1.018435
1386.000000;1.018553
1385.000000;1.018854
1384.000000;1.019448
1383.000000;1.020214
1382.000000;1.020968
1381.000000;1.021642
1380.000000;1.022283
1379.000000;1.022952
1378.000000;1.023657
1377.000000;1.024321
1376.000000;1.024775
1375.000000;1.024877
1374.000000;1.024701
1373.000000;1.024581
1372.000000;1.024815
1371.000000;1.025396
1370.000000;1.026086
1369.000000;1.026706
1368.000000;1.027260
1367.000000;1.027819
1366.000000;1.028418
1365.000000;1.029102
1364.000000;1.029941
1363.000000;1.030935
1362.000000;1.031965
1361.000000;1.032851
1360.000000;1.033439
1359.000000;1.033706
1358.000000;1.033815
1357.000000;1.034038
1356.000000;1.034513
1355.000000;1.035118
1354.000000;1.035636
1353.000000;1.036033
1352.000000;1.036426
1351.000000;1.036890
1350.000000;1.037414
1349.000000;1.038075
1348.000000;1.039027
1347.000000;1.040230
1346.000000;1.041324
1345.000000;1.041929
1344.000000;1.041988
1343.000000;1.041720
1342.000000;1.041332
1341.000000;1.040939
1340.000000;1.040702
1339.000000;1.040856
1338.000000;1.041500
1337.000000;1.042448
1336.000000;1.043377
1335.000000;1.044141
1334.000000;1.044915
1333.000000;1.046026
1332.000000;1.047611
1331.000000;1.049419
1330.000000;1.050986
1329.000000;1.052040
1328.000000;1.052705
1327.000000;1.053204
1326.000000;1.053478
1325.000000;1.053366
1324.000000;1.053159
1323.000000;1.053653
1322.000000;1.055302
1321.000000;1.057506
1320.000000;1.059113
1319.000000;1.059702
1318.000000;1.059915
1317.000000;1.060343
1316.000000;1.060566
1315.000000;1.059780
1314.000000;1.058172
1313.000000;1.057024
1312.000000;1.057281
1311.000000;1.058449
1310.000000;1.059177
1309.000000;1.058732
1308.000000;1.057647
1307.000000;1.057011
1306.000000;1.057449
1305.000000;1.058763
1304.000000;1.060284
1303.000000;1.061460
1302.000000;1.062241
1301.000000;1.062998
1300.000000;1.064018
1299.000000;1.065098
1298.000000;1.065764
1297.000000;1.065907
1296.000000;1.066021
1295.000000;1.066688
1294.000000;1.067907
1293.000000;1.069094
1292.000000;1.069723
1291.000000;1.069840
1290.000000;1.069915
1289.000000;1.070332
1288.000000;1.071138
1287.000000;1.072179
1286.000000;1.073270
1285.000000;1.074181
1284.000000;1.074645
1283.000000;1.074563
1282.000000;1.074176
1281.000000;1.073919
1280.000000;1.074062
1279.000000;1.074534
1278.000000;1.075083
1277.000000;1.075564
1276.000000;1.076084
1275.000000;1.076894
1274.000000;1.078102
1273.000000;1.079438
1272.000000;1.080391
1271.000000;1.080708
1270.000000;1.080710
1269.000000;1.080955
1268.000000;1.081595
1267.000000;1.082215
1266.000000;1.082378
1265.000000;1.082188
1264.000000;1.082210
1263.000000;1.082905
1262.000000;1.084204
1261.000000;1.085563
1260.000000;1.086389
1259.000000;1.086479
1258.000000;1.086186
1257.000000;1.086161
1256.000000;1.086854
1255.000000;1.088200
1254.000000;1.089690
1253.000000;1.090740
1252.000000;1.091066
1251.000000;1.090863
1250.000000;1.090672
1249.000000;1.090969
1248.000000;1.091800
1247.000000;1.092774
1246.000000;1.093419
1245.000000;1.093539
1244.000000;1.093276
1243.000000;1.092985
1242.000000;1.093062
1241.000000;1.093779
1240.000000;1.095097
1239.000000;1.096630
1238.000000;1.097855
1237.000000;1.098472
1236.000000;1.098601
1235.000000;1.098677
1234.000000;1.099087
1233.000000;1.099835
1232.000000;1.100576
1231.000000;1.101044
1230.000000;1.101370
1229.000000;1.101899
1228.000000;1.102707
1227.000000;1.103463
1226.000000;1.103810
1225.000000;1.103751
1224.000000;1.103593
1223.000000;1.103597
1222.000000;1.103805
1221.000000;1.104171
1220.000000;1.104760
1219.000000;1.105761
1218.000000;1.107262
1217.000000;1.109006
1216.000000;1.110442
1215.000000;1.111138
1214.000000;1.111165
1213.000000;1.110991
1212.000000;1.111018
1211.000000;1.111280
1210.000000;1.111606
1209.000000;1.111944
1208.000000;1.112443
1207.000000;1.113174
1206.000000;1.113866
1205.000000;1.114047
1204.000000;1.113591
1203.000000;1.113112
1202.000000;1.113479
1201.000000;1.115097
1200.000000;1.117111
