Criado como novo conjunto de dados;"0307_DANIEL.spp","77046.0 Secs"
cm-1;Abs
10000.000000;0.537012
9999.000000;0.536553
9998.000000;0.536091
9997.000000;0.535801
9996.000000;0.535662
9995.000000;0.535291
9994.000000;0.534368
9993.000000;0.533036
9992.000000;0.531747
9991.000000;0.530728
9990.000000;0.529882
9989.000000;0.529082
9988.000000;0.528298
9987.000000;0.527441
9986.000000;0.526401
9985.000000;0.525332
9984.000000;0.524619
9983.000000;0.524402
9982.000000;0.524340
9981.000000;0.524001
9980.000000;0.523331
9979.000000;0.522565
9978.000000;0.521805
9977.000000;0.520910
9976.000000;0.519763
9975.000000;0.518503
9974.000000;0.517423
9973.000000;0.516689
9972.000000;0.516168
9971.000000;0.515539
9970.000000;0.514614
9969.000000;0.513529
9968.000000;0.512548
9967.000000;0.511740
9966.000000;0.510988
9965.000000;0.510253
9964.000000;0.509630
9963.000000;0.509094
9962.000000;0.508429
9961.000000;0.507502
9960.000000;0.506452
9959.000000;0.505492
9958.000000;0.504670
9957.000000;0.503926
9956.000000;0.503235
9955.000000;0.502568
9954.000000;0.501819
9953.000000;0.500915
9952.000000;0.499938
9951.000000;0.499053
9950.000000;0.498341
9949.000000;0.497749
9948.000000;0.497115
9947.000000;0.496232
9946.000000;0.495054
9945.000000;0.493870
9944.000000;0.493066
9943.000000;0.492623
9942.000000;0.492069
9941.000000;0.491098
9940.000000;0.489989
9939.000000;0.489168
9938.000000;0.488569
9937.000000;0.487777
9936.000000;0.486659
9935.000000;0.485506
9934.000000;0.484535
9933.000000;0.483624
9932.000000;0.482629
9931.000000;0.481683
9930.000000;0.480980
9929.000000;0.480456
9928.000000;0.479853
9927.000000;0.478979
9926.000000;0.477816
9925.000000;0.476480
9924.000000;0.475201
9923.000000;0.474248
9922.000000;0.473693
9921.000000;0.473281
9920.000000;0.472642
9919.000000;0.471644
9918.000000;0.470467
9917.000000;0.469377
9916.000000;0.468530
9915.000000;0.467935
9914.000000;0.467478
9913.000000;0.466910
9912.000000;0.465961
9911.000000;0.464593
9910.000000;0.463111
9909.000000;0.461885
9908.000000;0.460955
9907.000000;0.460020
9906.000000;0.458846
9905.000000;0.457585
9904.000000;0.456569
9903.000000;0.455913
9902.000000;0.455437
9901.000000;0.454925
9900.000000;0.454257
9899.000000;0.453354
9898.000000;0.452208
9897.000000;0.451019
9896.000000;0.450076
9895.000000;0.449385
9894.000000;0.448606
9893.000000;0.447504
9892.000000;0.446304
9891.000000;0.445409
9890.000000;0.444878
9889.000000;0.444376
9888.000000;0.443597
9887.000000;0.442526
9886.000000;0.441311
9885.000000;0.440051
9884.000000;0.438777
9883.000000;0.437509
9882.000000;0.436285
9881.000000;0.435164
9880.000000;0.434193
9879.000000;0.433314
9878.000000;0.432343
9877.000000;0.431165
9876.000000;0.429923
9875.000000;0.428904
9874.000000;0.428229
9873.000000;0.427715
9872.000000;0.427044
9871.000000;0.426011
9870.000000;0.424640
9869.000000;0.423125
9868.000000;0.421664
9867.000000;0.420306
9866.000000;0.418977
9865.000000;0.417697
9864.000000;0.416650
9863.000000;0.415958
9862.000000;0.415451
9861.000000;0.414836
9860.000000;0.414025
9859.000000;0.413149
9858.000000;0.412267
9857.000000;0.411254
9856.000000;0.410001
9855.000000;0.408576
9854.000000;0.407136
9853.000000;0.405820
9852.000000;0.404733
9851.000000;0.403907
9850.000000;0.403224
9849.000000;0.402483
9848.000000;0.401626
9847.000000;0.400756
9846.000000;0.399907
9845.000000;0.398907
9844.000000;0.397591
9843.000000;0.396019
9842.000000;0.394394
9841.000000;0.392840
9840.000000;0.391398
9839.000000;0.390179
9838.000000;0.389339
9837.000000;0.388878
9836.000000;0.388528
9835.000000;0.387943
9834.000000;0.386970
9833.000000;0.385726
9832.000000;0.384427
9831.000000;0.383181
9830.000000;0.381945
9829.000000;0.380661
9828.000000;0.379375
9827.000000;0.378203
9826.000000;0.377202
9825.000000;0.376305
9824.000000;0.375380
9823.000000;0.374342
9822.000000;0.373229
9821.000000;0.372165
9820.000000;0.371229
9819.000000;0.370334
9818.000000;0.369295
9817.000000;0.368030
9816.000000;0.366625
9815.000000;0.365176
9814.000000;0.363646
9813.000000;0.361995
9812.000000;0.360360
9811.000000;0.358957
9810.000000;0.357839
9809.000000;0.356838
9808.000000;0.355754
9807.000000;0.354509
9806.000000;0.353142
9805.000000;0.351780
9804.000000;0.350588
9803.000000;0.349617
9802.000000;0.348717
9801.000000;0.347718
9800.000000;0.346672
9799.000000;0.345739
9798.000000;0.344845
9797.000000;0.343684
9796.000000;0.342157
9795.000000;0.340583
9794.000000;0.339315
9793.000000;0.338285
9792.000000;0.337138
9791.000000;0.335694
9790.000000;0.334102
9789.000000;0.332599
9788.000000;0.331297
9787.000000;0.330200
9786.000000;0.329248
9785.000000;0.328304
9784.000000;0.327241
9783.000000;0.326078
9782.000000;0.324936
9781.000000;0.323838
9780.000000;0.322702
9779.000000;0.321522
9778.000000;0.320415
9777.000000;0.319401
9776.000000;0.318293
9775.000000;0.316933
9774.000000;0.315427
9773.000000;0.314005
9772.000000;0.312691
9771.000000;0.311258
9770.000000;0.309526
9769.000000;0.307609
9768.000000;0.305826
9767.000000;0.304438
9766.000000;0.303464
9765.000000;0.302685
9764.000000;0.301815
9763.000000;0.300716
9762.000000;0.299476
9761.000000;0.298248
9760.000000;0.297005
9759.000000;0.295537
9758.000000;0.293715
9757.000000;0.291726
9756.000000;0.289986
9755.000000;0.288796
9754.000000;0.288051
9753.000000;0.287255
9752.000000;0.285897
9751.000000;0.283919
9750.000000;0.281819
9749.000000;0.280195
9748.000000;0.279154
9747.000000;0.278243
9746.000000;0.276958
9745.000000;0.275228
9744.000000;0.273381
9743.000000;0.271804
9742.000000;0.270720
9741.000000;0.270115
9740.000000;0.269687
9739.000000;0.268948
9738.000000;0.267565
9737.000000;0.265639
9736.000000;0.263551
9735.000000;0.261575
9734.000000;0.259771
9733.000000;0.258167
9732.000000;0.256838
9731.000000;0.255773
9730.000000;0.254849
9729.000000;0.253974
9728.000000;0.253118
9727.000000;0.252162
9726.000000;0.250876
9725.000000;0.249128
9724.000000;0.247005
9723.000000;0.244687
9722.000000;0.242339
9721.000000;0.240149
9720.000000;0.238308
9719.000000;0.236837
9718.000000;0.235559
9717.000000;0.234297
9716.000000;0.232993
9715.000000;0.231584
9714.000000;0.229958
9713.000000;0.228165
9712.000000;0.226487
9711.000000;0.225129
9710.000000;0.223954
9709.000000;0.222687
9708.000000;0.221282
9707.000000;0.219883
9706.000000;0.218525
9705.000000;0.217088
9704.000000;0.215529
9703.000000;0.213955
9702.000000;0.212439
9701.000000;0.210923
9700.000000;0.209317
9699.000000;0.207583
9698.000000;0.205703
9697.000000;0.203702
9696.000000;0.201704
9695.000000;0.199863
9694.000000;0.198217
9693.000000;0.196704
9692.000000;0.195272
9691.000000;0.193878
9690.000000;0.192409
9689.000000;0.190760
9688.000000;0.189016
9687.000000;0.187392
9686.000000;0.185969
9685.000000;0.184618
9684.000000;0.183214
9683.000000;0.181793
9682.000000;0.180399
9681.000000;0.178933
9680.000000;0.177256
9679.000000;0.175406
9678.000000;0.173589
9677.000000;0.171961
9676.000000;0.170455
9675.000000;0.168830
9674.000000;0.166881
9673.000000;0.164658
9672.000000;0.162493
9671.000000;0.160749
9670.000000;0.159468
9669.000000;0.158278
9668.000000;0.156707
9667.000000;0.154625
9666.000000;0.152364
9665.000000;0.150407
9664.000000;0.148956
9663.000000;0.147811
9662.000000;0.146627
9661.000000;0.145203
9660.000000;0.143525
9659.000000;0.141624
9658.000000;0.139546
9657.000000;0.137423
9656.000000;0.135414
9655.000000;0.133535
9654.000000;0.131672
9653.000000;0.129797
9652.000000;0.128039
9651.000000;0.126471
9650.000000;0.124978
9649.000000;0.123454
9648.000000;0.121963
9647.000000;0.120575
9646.000000;0.119135
9645.000000;0.117410
9644.000000;0.115375
9643.000000;0.113189
9642.000000;0.110981
9641.000000;0.108834
9640.000000;0.106897
9639.000000;0.105244
9638.000000;0.103642
9637.000000;0.101738
9636.000000;0.099545
9635.000000;0.097506
9634.000000;0.095978
9633.000000;0.094804
9632.000000;0.093508
9631.000000;0.091764
9630.000000;0.089571
9629.000000;0.087142
9628.000000;0.084779
9627.000000;0.082766
9626.000000;0.081193
9625.000000;0.079870
9624.000000;0.078469
9623.000000;0.076746
9622.000000;0.074646
9621.000000;0.072302
9620.000000;0.070008
9619.000000;0.068049
9618.000000;0.066434
9617.000000;0.064829
9616.000000;0.062858
9615.000000;0.060469
9614.000000;0.057958
9613.000000;0.055688
9612.000000;0.053804
9611.000000;0.052167
9610.000000;0.050469
9609.000000;0.048467
9608.000000;0.046213
9607.000000;0.044033
9606.000000;0.042222
9605.000000;0.040758
9604.000000;0.039330
9603.000000;0.037653
9602.000000;0.035682
9601.000000;0.033565
9600.000000;0.031429
9599.000000;0.029275
9598.000000;0.027054
9597.000000;0.024820
9596.000000;0.022746
9595.000000;0.020971
9594.000000;0.019441
9593.000000;0.017942
9592.000000;0.016266
9591.000000;0.014321
9590.000000;0.012126
9589.000000;0.009788
9588.000000;0.007478
9587.000000;0.005337
9586.000000;0.003385
9585.000000;0.001572
9584.000000;-0.000126
9583.000000;-0.001736
9582.000000;-0.003418
9581.000000;-0.005404
9580.000000;-0.007737
9579.000000;-0.010158
9578.000000;-0.012340
9577.000000;-0.014187
9576.000000;-0.015870
9575.000000;-0.017600
9574.000000;-0.019443
9573.000000;-0.021333
9572.000000;-0.023200
9571.000000;-0.025070
9570.000000;-0.027045
9569.000000;-0.029177
9568.000000;-0.031394
9567.000000;-0.033577
9566.000000;-0.035702
9565.000000;-0.037815
9564.000000;-0.039886
9563.000000;-0.041774
9562.000000;-0.043434
9561.000000;-0.045093
9560.000000;-0.047099
9559.000000;-0.049558
9558.000000;-0.052189
9557.000000;-0.054566
9556.000000;-0.056523
9555.000000;-0.058258
9554.000000;-0.060045
9553.000000;-0.061912
9552.000000;-0.063671
9551.000000;-0.065237
9550.000000;-0.066774
9549.000000;-0.068484
9548.000000;-0.070403
9547.000000;-0.072477
9546.000000;-0.074706
9545.000000;-0.077056
9544.000000;-0.079304
9543.000000;-0.081219
9542.000000;-0.082849
9541.000000;-0.084451
9540.000000;-0.086119
9539.000000;-0.087701
9538.000000;-0.089161
9537.000000;-0.090802
9536.000000;-0.092954
9535.000000;-0.095550
9534.000000;-0.098155
9533.000000;-0.100395
9532.000000;-0.102230
9531.000000;-0.103857
9530.000000;-0.105456
9529.000000;-0.107039
9528.000000;-0.108510
9527.000000;-0.109867
9526.000000;-0.111323
9525.000000;-0.113122
9524.000000;-0.115229
9523.000000;-0.117310
9522.000000;-0.119099
9521.000000;-0.120656
9520.000000;-0.122204
9519.000000;-0.123810
9518.000000;-0.125372
9517.000000;-0.126832
9516.000000;-0.128248
9515.000000;-0.129660
9514.000000;-0.131041
9513.000000;-0.132395
9512.000000;-0.133824
9511.000000;-0.135452
9510.000000;-0.137319
9509.000000;-0.139352
9508.000000;-0.141379
9507.000000;-0.143213
9506.000000;-0.144772
9505.000000;-0.146143
9504.000000;-0.147456
9503.000000;-0.148717
9502.000000;-0.149832
9501.000000;-0.150800
9500.000000;-0.151804
9499.000000;-0.153075
9498.000000;-0.154688
9497.000000;-0.156477
9496.000000;-0.158142
9495.000000;-0.159443
9494.000000;-0.160355
9493.000000;-0.161070
9492.000000;-0.161826
9491.000000;-0.162755
9490.000000;-0.163855
9489.000000;-0.165044
9488.000000;-0.166183
9487.000000;-0.167115
9486.000000;-0.167794
9485.000000;-0.168380
9484.000000;-0.169132
9483.000000;-0.170159
9482.000000;-0.171321
9481.000000;-0.172369
9480.000000;-0.173164
9479.000000;-0.173764
9478.000000;-0.174363
9477.000000;-0.175134
9476.000000;-0.176106
9475.000000;-0.177138
9474.000000;-0.178049
9473.000000;-0.178766
9472.000000;-0.179363
9471.000000;-0.179963
9470.000000;-0.180637
9469.000000;-0.181381
9468.000000;-0.182157
9467.000000;-0.182911
9466.000000;-0.183576
9465.000000;-0.184038
9464.000000;-0.184193
9463.000000;-0.184090
9462.000000;-0.184039
9461.000000;-0.184409
9460.000000;-0.185228
9459.000000;-0.186063
9458.000000;-0.186441
9457.000000;-0.186352
9456.000000;-0.186191
9455.000000;-0.186233
9454.000000;-0.186330
9453.000000;-0.186195
9452.000000;-0.185845
9451.000000;-0.185590
9450.000000;-0.185658
9449.000000;-0.185975
9448.000000;-0.186320
9447.000000;-0.186567
9446.000000;-0.186716
9445.000000;-0.186764
9444.000000;-0.186653
9443.000000;-0.186351
9442.000000;-0.185936
9441.000000;-0.185523
9440.000000;-0.185134
9439.000000;-0.184677
9438.000000;-0.184087
9437.000000;-0.183454
9436.000000;-0.182947
9435.000000;-0.182633
9434.000000;-0.182406
9433.000000;-0.182110
9432.000000;-0.181683
9431.000000;-0.181164
9430.000000;-0.180600
9429.000000;-0.179980
9428.000000;-0.179296
9427.000000;-0.178630
9426.000000;-0.178129
9425.000000;-0.177836
9424.000000;-0.177557
9423.000000;-0.176995
9422.000000;-0.176054
9421.000000;-0.174966
9420.000000;-0.174043
9419.000000;-0.173360
9418.000000;-0.172772
9417.000000;-0.172165
9416.000000;-0.171535
9415.000000;-0.170823
9414.000000;-0.169873
9413.000000;-0.168674
9412.000000;-0.167490
9411.000000;-0.166597
9410.000000;-0.165933
9409.000000;-0.165172
9408.000000;-0.164146
9407.000000;-0.163027
9406.000000;-0.162066
9405.000000;-0.161264
9404.000000;-0.160425
9403.000000;-0.159429
9402.000000;-0.158295
9401.000000;-0.157008
9400.000000;-0.155448
9399.000000;-0.153605
9398.000000;-0.151761
9397.000000;-0.150315
9396.000000;-0.149413
9395.000000;-0.148838
9394.000000;-0.148265
9393.000000;-0.147504
9392.000000;-0.146496
9391.000000;-0.145227
9390.000000;-0.143765
9389.000000;-0.142287
9388.000000;-0.140900
9387.000000;-0.139464
9386.000000;-0.137747
9385.000000;-0.135772
9384.000000;-0.133867
9383.000000;-0.132320
9382.000000;-0.131099
9381.000000;-0.129979
9380.000000;-0.128847
9379.000000;-0.127777
9378.000000;-0.126835
9377.000000;-0.125920
9376.000000;-0.124832
9375.000000;-0.123445
9374.000000;-0.121817
9373.000000;-0.120122
9372.000000;-0.118500
9371.000000;-0.117002
9370.000000;-0.115678
9369.000000;-0.114601
9368.000000;-0.113716
9367.000000;-0.112736
9366.000000;-0.111380
9365.000000;-0.109744
9364.000000;-0.108260
9363.000000;-0.107167
9362.000000;-0.106183
9361.000000;-0.104832
9360.000000;-0.102999
9359.000000;-0.101001
9358.000000;-0.099172
9357.000000;-0.097550
9356.000000;-0.095955
9355.000000;-0.094250
9354.000000;-0.092460
9353.000000;-0.090740
9352.000000;-0.089252
9351.000000;-0.088019
9350.000000;-0.086897
9349.000000;-0.085720
9348.000000;-0.084443
9347.000000;-0.083099
9346.000000;-0.081689
9345.000000;-0.080208
9344.000000;-0.078736
9343.000000;-0.077373
9342.000000;-0.076086
9341.000000;-0.074754
9340.000000;-0.073330
9339.000000;-0.071856
9338.000000;-0.070317
9337.000000;-0.068640
9336.000000;-0.066867
9335.000000;-0.065158
9334.000000;-0.063589
9333.000000;-0.062067
9332.000000;-0.060539
9331.000000;-0.059144
9330.000000;-0.058051
9329.000000;-0.057218
9328.000000;-0.056402
9327.000000;-0.055352
9326.000000;-0.053938
9325.000000;-0.052180
9324.000000;-0.050247
9323.000000;-0.048362
9322.000000;-0.046634
9321.000000;-0.045040
9320.000000;-0.043595
9319.000000;-0.042393
9318.000000;-0.041407
9317.000000;-0.040381
9316.000000;-0.039083
9315.000000;-0.037601
9314.000000;-0.036211
9313.000000;-0.035005
9312.000000;-0.033813
9311.000000;-0.032478
9310.000000;-0.031033
9309.000000;-0.029588
9308.000000;-0.028190
9307.000000;-0.026841
9306.000000;-0.025552
9305.000000;-0.024307
9304.000000;-0.023033
9303.000000;-0.021637
9302.000000;-0.020072
9301.000000;-0.018377
9300.000000;-0.016707
9299.000000;-0.015240
9298.000000;-0.013987
9297.000000;-0.012739
9296.000000;-0.011341
9295.000000;-0.009929
9294.000000;-0.008735
9293.000000;-0.007683
9292.000000;-0.006401
9291.000000;-0.004695
9290.000000;-0.002819
9289.000000;-0.001169
9288.000000;0.000134
9287.000000;0.001248
9286.000000;0.002325
9285.000000;0.003376
9284.000000;0.004366
9283.000000;0.005305
9282.000000;0.006253
9281.000000;0.007330
9280.000000;0.008665
9279.000000;0.010241
9278.000000;0.011831
9277.000000;0.013187
9276.000000;0.014314
9275.000000;0.015472
9274.000000;0.016900
9273.000000;0.018579
9272.000000;0.020247
9271.000000;0.021638
9270.000000;0.022709
9269.000000;0.023702
9268.000000;0.024939
9267.000000;0.026508
9266.000000;0.028124
9265.000000;0.029369
9264.000000;0.030085
9263.000000;0.030548
9262.000000;0.031234
9261.000000;0.032402
9260.000000;0.033885
9259.000000;0.035286
9258.000000;0.036400
9257.000000;0.037416
9256.000000;0.038646
9255.000000;0.040093
9254.000000;0.041428
9253.000000;0.042412
9252.000000;0.043199
9251.000000;0.044129
9250.000000;0.045312
9249.000000;0.046524
9248.000000;0.047507
9247.000000;0.048230
9246.000000;0.048893
9245.000000;0.049745
9244.000000;0.050916
9243.000000;0.052327
9242.000000;0.053745
9241.000000;0.054979
9240.000000;0.056073
9239.000000;0.057278
9238.000000;0.058758
9237.000000;0.060347
9236.000000;0.061663
9235.000000;0.062506
9234.000000;0.063098
9233.000000;0.063865
9232.000000;0.065014
9231.000000;0.066420
9230.000000;0.067889
9229.000000;0.069363
9228.000000;0.070796
9227.000000;0.072007
9226.000000;0.072853
9225.000000;0.073474
9224.000000;0.074156
9223.000000;0.074998
9222.000000;0.075893
9221.000000;0.076800
9220.000000;0.077809
9219.000000;0.078878
9218.000000;0.079782
9217.000000;0.080447
9216.000000;0.081147
9215.000000;0.082207
9214.000000;0.083620
9213.000000;0.085111
9212.000000;0.086447
9211.000000;0.087566
9210.000000;0.088493
9209.000000;0.089304
9208.000000;0.090108
9207.000000;0.090911
9206.000000;0.091544
9205.000000;0.091897
9204.000000;0.092187
9203.000000;0.092867
9202.000000;0.094189
9201.000000;0.095942
9200.000000;0.097580
9199.000000;0.098645
9198.000000;0.099140
9197.000000;0.099576
9196.000000;0.100542
9195.000000;0.102113
9194.000000;0.103750
9193.000000;0.104901
9192.000000;0.105585
9191.000000;0.106248
9190.000000;0.107135
9189.000000;0.108053
9188.000000;0.108736
9187.000000;0.109205
9186.000000;0.109681
9185.000000;0.110323
9184.000000;0.111146
9183.000000;0.112089
9182.000000;0.113063
9181.000000;0.114003
9180.000000;0.114931
9179.000000;0.115906
9178.000000;0.116904
9177.000000;0.117815
9176.000000;0.118610
9175.000000;0.119416
9174.000000;0.120343
9173.000000;0.121304
9172.000000;0.122107
9171.000000;0.122720
9170.000000;0.123363
9169.000000;0.124284
9168.000000;0.125469
9167.000000;0.126620
9166.000000;0.127440
9165.000000;0.127915
9164.000000;0.128253
9163.000000;0.128623
9162.000000;0.129060
9161.000000;0.129630
9160.000000;0.130511
9159.000000;0.131773
9158.000000;0.133176
9157.000000;0.134330
9156.000000;0.135047
9155.000000;0.135454
9154.000000;0.135807
9153.000000;0.136277
9152.000000;0.136895
9151.000000;0.137596
9150.000000;0.138324
9149.000000;0.139127
9148.000000;0.140114
9147.000000;0.141272
9146.000000;0.142393
9145.000000;0.143279
9144.000000;0.143946
9143.000000;0.144532
9142.000000;0.145107
9141.000000;0.145684
9140.000000;0.146347
9139.000000;0.147167
9138.000000;0.148022
9137.000000;0.148698
9136.000000;0.149191
9135.000000;0.149742
9134.000000;0.150516
9133.000000;0.151390
9132.000000;0.152111
9131.000000;0.152559
9130.000000;0.152794
9129.000000;0.152960
9128.000000;0.153232
9127.000000;0.153778
9126.000000;0.154664
9125.000000;0.155803
9124.000000;0.156995
9123.000000;0.158021
9122.000000;0.158734
9121.000000;0.159196
9120.000000;0.159700
9119.000000;0.160560
9118.000000;0.161777
9117.000000;0.162998
9116.000000;0.163833
9115.000000;0.164209
9114.000000;0.164382
9113.000000;0.164668
9112.000000;0.165161
9111.000000;0.165676
9110.000000;0.165969
9109.000000;0.166061
9108.000000;0.166293
9107.000000;0.166986
9106.000000;0.168062
9105.000000;0.169139
9104.000000;0.169969
9103.000000;0.170645
9102.000000;0.171344
9101.000000;0.172051
9100.000000;0.172634
9099.000000;0.173064
9098.000000;0.173429
9097.000000;0.173793
9096.000000;0.174165
9095.000000;0.174571
9094.000000;0.175057
9093.000000;0.175620
9092.000000;0.176212
9091.000000;0.176787
9090.000000;0.177328
9089.000000;0.177832
9088.000000;0.178333
9087.000000;0.178904
9086.000000;0.179593
9085.000000;0.180371
9084.000000;0.181159
9083.000000;0.181896
9082.000000;0.182539
9081.000000;0.183045
9080.000000;0.183407
9079.000000;0.183723
9078.000000;0.184165
9077.000000;0.184836
9076.000000;0.185659
9075.000000;0.186422
9074.000000;0.186965
9073.000000;0.187299
9072.000000;0.187558
9071.000000;0.187871
9070.000000;0.188308
9069.000000;0.188886
9068.000000;0.189538
9067.000000;0.190101
9066.000000;0.190470
9065.000000;0.190790
9064.000000;0.191349
9063.000000;0.192192
9062.000000;0.192984
9061.000000;0.193402
9060.000000;0.193552
9059.000000;0.193816
9058.000000;0.194332
9057.000000;0.194852
9056.000000;0.195113
9055.000000;0.195187
9054.000000;0.195346
9053.000000;0.195750
9052.000000;0.196349
9051.000000;0.197005
9050.000000;0.197601
9049.000000;0.198054
9048.000000;0.198355
9047.000000;0.198599
9046.000000;0.198958
9045.000000;0.199553
9044.000000;0.200317
9043.000000;0.201001
9042.000000;0.201364
9041.000000;0.201423
9040.000000;0.201436
9039.000000;0.201597
9038.000000;0.201837
9037.000000;0.202010
9036.000000;0.202175
9035.000000;0.202541
9034.000000;0.203152
9033.000000;0.203813
9032.000000;0.204341
9031.000000;0.204744
9030.000000;0.205106
9029.000000;0.205426
9028.000000;0.205671
9027.000000;0.205883
9026.000000;0.206154
9025.000000;0.206534
9024.000000;0.207009
9023.000000;0.207529
9022.000000;0.208013
9021.000000;0.208384
9020.000000;0.208629
9019.000000;0.208802
9018.000000;0.208964
9017.000000;0.209183
9016.000000;0.209544
9015.000000;0.210090
9014.000000;0.210721
9013.000000;0.211257
9012.000000;0.211622
9011.000000;0.211880
9010.000000;0.212087
9009.000000;0.212235
9008.000000;0.212368
9007.000000;0.212631
9006.000000;0.213091
9005.000000;0.213588
9004.000000;0.213889
9003.000000;0.213965
9002.000000;0.214034
9001.000000;0.214329
9000.000000;0.214881
8999.000000;0.215515
8998.000000;0.216009
8997.000000;0.216273
8996.000000;0.216387
8995.000000;0.216509
8994.000000;0.216753
8993.000000;0.217150
8992.000000;0.217650
8991.000000;0.218111
8990.000000;0.218340
8989.000000;0.218272
8988.000000;0.218100
8987.000000;0.218135
8986.000000;0.218499
8985.000000;0.219036
8984.000000;0.219528
8983.000000;0.219916
8982.000000;0.220261
8981.000000;0.220587
8980.000000;0.220834
8979.000000;0.220949
8978.000000;0.220982
8977.000000;0.221105
8976.000000;0.221506
8975.000000;0.222202
8974.000000;0.222938
8973.000000;0.223377
8972.000000;0.223435
8971.000000;0.223354
8970.000000;0.223408
8969.000000;0.223630
8968.000000;0.223880
8967.000000;0.224091
8966.000000;0.224307
8965.000000;0.224528
8964.000000;0.224655
8963.000000;0.224626
8962.000000;0.224532
8961.000000;0.224528
8960.000000;0.224656
8959.000000;0.224817
8958.000000;0.224928
8957.000000;0.225059
8956.000000;0.225364
8955.000000;0.225863
8954.000000;0.226368
8953.000000;0.226657
8952.000000;0.226705
8951.000000;0.226686
8950.000000;0.226779
8949.000000;0.227026
8948.000000;0.227357
8947.000000;0.227694
8946.000000;0.227997
8945.000000;0.228270
8944.000000;0.228542
8943.000000;0.228829
8942.000000;0.229093
8941.000000;0.229235
8940.000000;0.229161
8939.000000;0.228882
8938.000000;0.228587
8937.000000;0.228552
8936.000000;0.228905
8935.000000;0.229456
8934.000000;0.229839
8933.000000;0.229866
8932.000000;0.229671
8931.000000;0.229506
8930.000000;0.229492
8929.000000;0.229631
8928.000000;0.229929
8927.000000;0.230381
8926.000000;0.230889
8925.000000;0.231313
8924.000000;0.231571
8923.000000;0.231627
8922.000000;0.231464
8921.000000;0.231171
8920.000000;0.230966
8919.000000;0.231002
8918.000000;0.231191
8917.000000;0.231367
8916.000000;0.231539
8915.000000;0.231850
8914.000000;0.232313
8913.000000;0.232763
8912.000000;0.233054
8911.000000;0.233163
8910.000000;0.233122
8909.000000;0.233010
8908.000000;0.232990
8907.000000;0.233157
8906.000000;0.233350
8905.000000;0.233299
8904.000000;0.233006
8903.000000;0.232796
8902.000000;0.232932
8901.000000;0.233342
8900.000000;0.233771
8899.000000;0.234041
8898.000000;0.234097
8897.000000;0.233973
8896.000000;0.233825
8895.000000;0.233858
8894.000000;0.234105
8893.000000;0.234393
8892.000000;0.234606
8891.000000;0.234824
8890.000000;0.235115
8889.000000;0.235344
8888.000000;0.235360
8887.000000;0.235230
8886.000000;0.235116
8885.000000;0.235009
8884.000000;0.234771
8883.000000;0.234430
8882.000000;0.234239
8881.000000;0.234411
8880.000000;0.234892
8879.000000;0.235414
8878.000000;0.235695
8877.000000;0.235623
8876.000000;0.235327
8875.000000;0.235075
8874.000000;0.235040
8873.000000;0.235162
8872.000000;0.235288
8871.000000;0.235372
8870.000000;0.235501
8869.000000;0.235764
8868.000000;0.236148
8867.000000;0.236525
8866.000000;0.236688
8865.000000;0.236472
8864.000000;0.235968
8863.000000;0.235539
8862.000000;0.235481
8861.000000;0.235693
8860.000000;0.235771
8859.000000;0.235475
8858.000000;0.235002
8857.000000;0.234754
8856.000000;0.234949
8855.000000;0.235475
8854.000000;0.236047
8853.000000;0.236428
8852.000000;0.236533
8851.000000;0.236407
8850.000000;0.236160
8849.000000;0.235898
8848.000000;0.235689
8847.000000;0.235564
8846.000000;0.235513
8845.000000;0.235491
8844.000000;0.235420
8843.000000;0.235223
8842.000000;0.234906
8841.000000;0.234636
8840.000000;0.234658
8839.000000;0.235059
8838.000000;0.235620
8837.000000;0.236009
8836.000000;0.236099
8835.000000;0.236027
8834.000000;0.235937
8833.000000;0.235805
8832.000000;0.235563
8831.000000;0.235278
8830.000000;0.235091
8829.000000;0.235056
8828.000000;0.235124
8827.000000;0.235245
8826.000000;0.235411
8825.000000;0.235605
8824.000000;0.235781
8823.000000;0.235865
8822.000000;0.235761
8821.000000;0.235405
8820.000000;0.234893
8819.000000;0.234478
8818.000000;0.234369
8817.000000;0.234553
8816.000000;0.234888
8815.000000;0.235291
8814.000000;0.235737
8813.000000;0.236089
8812.000000;0.236114
8811.000000;0.235712
8810.000000;0.235059
8809.000000;0.234462
8808.000000;0.234113
8807.000000;0.234025
8806.000000;0.234119
8805.000000;0.234329
8804.000000;0.234607
8803.000000;0.234890
8802.000000;0.235058
8801.000000;0.234971
8800.000000;0.234599
8799.000000;0.234112
8798.000000;0.233767
8797.000000;0.233659
8796.000000;0.233633
8795.000000;0.233480
8794.000000;0.233187
8793.000000;0.232946
8792.000000;0.232929
8791.000000;0.233122
8790.000000;0.233358
8789.000000;0.233453
8788.000000;0.233306
8787.000000;0.232955
8786.000000;0.232576
8785.000000;0.232394
8784.000000;0.232505
8783.000000;0.232790
8782.000000;0.233026
8781.000000;0.233076
8780.000000;0.232953
8779.000000;0.232723
8778.000000;0.232431
8777.000000;0.232108
8776.000000;0.231809
8775.000000;0.231599
8774.000000;0.231515
8773.000000;0.231560
8772.000000;0.231687
8771.000000;0.231769
8770.000000;0.231656
8769.000000;0.231295
8768.000000;0.230799
8767.000000;0.230347
8766.000000;0.230038
8765.000000;0.229862
8764.000000;0.229793
8763.000000;0.229850
8762.000000;0.230051
8761.000000;0.230307
8760.000000;0.230405
8759.000000;0.230166
8758.000000;0.229668
8757.000000;0.229242
8756.000000;0.229161
8755.000000;0.229315
8754.000000;0.229326
8753.000000;0.229008
8752.000000;0.228588
8751.000000;0.228400
8750.000000;0.228451
8749.000000;0.228452
8748.000000;0.228199
8747.000000;0.227786
8746.000000;0.227419
8745.000000;0.227164
8744.000000;0.226955
8743.000000;0.226777
8742.000000;0.226710
8741.000000;0.226785
8740.000000;0.226869
8739.000000;0.226776
8738.000000;0.226505
8737.000000;0.226275
8736.000000;0.226257
8735.000000;0.226346
8734.000000;0.226291
8733.000000;0.226042
8732.000000;0.225796
8731.000000;0.225688
8730.000000;0.225610
8729.000000;0.225418
8728.000000;0.225176
8727.000000;0.225043
8726.000000;0.225026
8725.000000;0.224997
8724.000000;0.224890
8723.000000;0.224737
8722.000000;0.224550
8721.000000;0.224313
8720.000000;0.224074
8719.000000;0.223887
8718.000000;0.223706
8717.000000;0.223460
8716.000000;0.223229
8715.000000;0.223173
8714.000000;0.223271
8713.000000;0.223289
8712.000000;0.223055
8711.000000;0.222636
8710.000000;0.222202
8709.000000;0.221854
8708.000000;0.221638
8707.000000;0.221596
8706.000000;0.221672
8705.000000;0.221695
8704.000000;0.221544
8703.000000;0.221287
8702.000000;0.221050
8701.000000;0.220830
8700.000000;0.220531
8699.000000;0.220156
8698.000000;0.219857
8697.000000;0.219773
8696.000000;0.219879
8695.000000;0.220005
8694.000000;0.219964
8693.000000;0.219695
8692.000000;0.219281
8691.000000;0.218851
8690.000000;0.218449
8689.000000;0.218043
8688.000000;0.217650
8687.000000;0.217400
8686.000000;0.217425
8685.000000;0.217692
8684.000000;0.217969
8683.000000;0.217956
8682.000000;0.217490
8681.000000;0.216694
8680.000000;0.215915
8679.000000;0.215471
8678.000000;0.215414
8677.000000;0.215530
8676.000000;0.215559
8675.000000;0.215387
8674.000000;0.215060
8673.000000;0.214707
8672.000000;0.214440
8671.000000;0.214284
8670.000000;0.214160
8669.000000;0.213978
8668.000000;0.213766
8667.000000;0.213656
8666.000000;0.213710
8665.000000;0.213793
8664.000000;0.213654
8663.000000;0.213130
8662.000000;0.212311
8661.000000;0.211504
8660.000000;0.211017
8659.000000;0.210941
8658.000000;0.211116
8657.000000;0.211314
8656.000000;0.211397
8655.000000;0.211297
8654.000000;0.210961
8653.000000;0.210406
8652.000000;0.209779
8651.000000;0.209250
8650.000000;0.208874
8649.000000;0.208624
8648.000000;0.208518
8647.000000;0.208583
8646.000000;0.208732
8645.000000;0.208798
8644.000000;0.208709
8643.000000;0.208516
8642.000000;0.208250
8641.000000;0.207866
8640.000000;0.207371
8639.000000;0.206875
8638.000000;0.206485
8637.000000;0.206240
8636.000000;0.206171
8635.000000;0.206292
8634.000000;0.206461
8633.000000;0.206408
8632.000000;0.205980
8631.000000;0.205311
8630.000000;0.204643
8629.000000;0.204089
8628.000000;0.203638
8627.000000;0.203316
8626.000000;0.203166
8625.000000;0.203127
8624.000000;0.203044
8623.000000;0.202826
8622.000000;0.202508
8621.000000;0.202159
8620.000000;0.201814
8619.000000;0.201511
8618.000000;0.201317
8617.000000;0.201255
8616.000000;0.201237
8615.000000;0.201121
8614.000000;0.200862
8613.000000;0.200561
8612.000000;0.200341
8611.000000;0.200185
8610.000000;0.199962
8609.000000;0.199628
8608.000000;0.199322
8607.000000;0.199195
8606.000000;0.199170
8605.000000;0.199008
8604.000000;0.198589
8603.000000;0.198042
8602.000000;0.197580
8601.000000;0.197316
8600.000000;0.197240
8599.000000;0.197268
8598.000000;0.197243
8597.000000;0.197000
8596.000000;0.196527
8595.000000;0.196000
8594.000000;0.195584
8593.000000;0.195258
8592.000000;0.194926
8591.000000;0.194603
8590.000000;0.194386
8589.000000;0.194277
8588.000000;0.194181
8587.000000;0.194050
8586.000000;0.193898
8585.000000;0.193661
8584.000000;0.193187
8583.000000;0.192449
8582.000000;0.191671
8581.000000;0.191132
8580.000000;0.190902
8579.000000;0.190847
8578.000000;0.190837
8577.000000;0.190837
8576.000000;0.190803
8575.000000;0.190625
8574.000000;0.190248
8573.000000;0.189784
8572.000000;0.189411
8571.000000;0.189183
8570.000000;0.188992
8569.000000;0.188708
8568.000000;0.188295
8567.000000;0.187800
8566.000000;0.187303
8565.000000;0.186904
8564.000000;0.186669
8563.000000;0.186543
8562.000000;0.186351
8561.000000;0.185974
8560.000000;0.185499
8559.000000;0.185138
8558.000000;0.184990
8557.000000;0.184946
8556.000000;0.184841
8555.000000;0.184636
8554.000000;0.184400
8553.000000;0.184173
8552.000000;0.183933
8551.000000;0.183679
8550.000000;0.183465
8549.000000;0.183299
8548.000000;0.183088
8547.000000;0.182762
8546.000000;0.182395
8545.000000;0.182099
8544.000000;0.181825
8543.000000;0.181420
8542.000000;0.180893
8541.000000;0.180468
8540.000000;0.180293
8539.000000;0.180229
8538.000000;0.180073
8537.000000;0.179851
8536.000000;0.179718
8535.000000;0.179635
8534.000000;0.179376
8533.000000;0.178839
8532.000000;0.178157
8531.000000;0.177469
8530.000000;0.176789
8529.000000;0.176159
8528.000000;0.175722
8527.000000;0.175540
8526.000000;0.175482
8525.000000;0.175402
8524.000000;0.175297
8523.000000;0.175186
8522.000000;0.174986
8521.000000;0.174645
8520.000000;0.174260
8519.000000;0.173944
8518.000000;0.173660
8517.000000;0.173342
8516.000000;0.173050
8515.000000;0.172857
8514.000000;0.172697
8513.000000;0.172478
8512.000000;0.172256
8511.000000;0.172119
8510.000000;0.171968
8509.000000;0.171637
8508.000000;0.171159
8507.000000;0.170727
8506.000000;0.170440
8505.000000;0.170273
8504.000000;0.170257
8503.000000;0.170436
8502.000000;0.170629
8501.000000;0.170482
8500.000000;0.169869
8499.000000;0.169059
8498.000000;0.168398
8497.000000;0.167971
8496.000000;0.167642
8495.000000;0.167281
8494.000000;0.166867
8493.000000;0.166455
8492.000000;0.166141
8491.000000;0.165986
8490.000000;0.165936
8489.000000;0.165871
8488.000000;0.165751
8487.000000;0.165604
8486.000000;0.165387
8485.000000;0.165000
8484.000000;0.164489
8483.000000;0.164064
8482.000000;0.163848
8481.000000;0.163719
8480.000000;0.163483
8479.000000;0.163090
8478.000000;0.162609
8477.000000;0.162109
8476.000000;0.161660
8475.000000;0.161331
8474.000000;0.161074
8473.000000;0.160716
8472.000000;0.160168
8471.000000;0.159596
8470.000000;0.159245
8469.000000;0.159177
8468.000000;0.159254
8467.000000;0.159340
8466.000000;0.159359
8465.000000;0.159232
8464.000000;0.158890
8463.000000;0.158391
8462.000000;0.157907
8461.000000;0.157542
8460.000000;0.157230
8459.000000;0.156851
8458.000000;0.156383
8457.000000;0.155912
8456.000000;0.155543
8455.000000;0.155310
8454.000000;0.155169
8453.000000;0.155044
8452.000000;0.154883
8451.000000;0.154684
8450.000000;0.154462
8449.000000;0.154205
8448.000000;0.153884
8447.000000;0.153515
8446.000000;0.153199
8445.000000;0.153049
8444.000000;0.153077
8443.000000;0.153137
8442.000000;0.153037
8441.000000;0.152713
8440.000000;0.152262
8439.000000;0.151802
8438.000000;0.151341
8437.000000;0.150839
8436.000000;0.150339
8435.000000;0.149949
8434.000000;0.149698
8433.000000;0.149493
8432.000000;0.149243
8431.000000;0.148966
8430.000000;0.148739
8429.000000;0.148581
8428.000000;0.148434
8427.000000;0.148228
8426.000000;0.147946
8425.000000;0.147644
8424.000000;0.147406
8423.000000;0.147266
8422.000000;0.147165
8421.000000;0.147007
8420.000000;0.146741
8419.000000;0.146391
8418.000000;0.146002
8417.000000;0.145606
8416.000000;0.145243
8415.000000;0.144971
8414.000000;0.144822
8413.000000;0.144766
8412.000000;0.144708
8411.000000;0.144548
8410.000000;0.144256
8409.000000;0.143904
8408.000000;0.143588
8407.000000;0.143321
8406.000000;0.143020
8405.000000;0.142628
8404.000000;0.142167
8403.000000;0.141674
8402.000000;0.141163
8401.000000;0.140679
8400.000000;0.140311
8399.000000;0.140071
8398.000000;0.139834
8397.000000;0.139502
8396.000000;0.139178
8395.000000;0.139051
8394.000000;0.139129
8393.000000;0.139200
8392.000000;0.139059
8391.000000;0.138694
8390.000000;0.138243
8389.000000;0.137846
8388.000000;0.137559
8387.000000;0.137338
8386.000000;0.137075
8385.000000;0.136697
8384.000000;0.136239
8383.000000;0.135805
8382.000000;0.135502
8381.000000;0.135420
8380.000000;0.135585
8379.000000;0.135867
8378.000000;0.135986
8377.000000;0.135758
8376.000000;0.135267
8375.000000;0.134717
8374.000000;0.134171
8373.000000;0.133595
8372.000000;0.133077
8371.000000;0.132815
8370.000000;0.132852
8369.000000;0.133000
8368.000000;0.133058
8367.000000;0.132973
8366.000000;0.132749
8365.000000;0.132362
8364.000000;0.131837
8363.000000;0.131287
8362.000000;0.130801
8361.000000;0.130382
8360.000000;0.130039
8359.000000;0.129833
8358.000000;0.129753
8357.000000;0.129670
8356.000000;0.129474
8355.000000;0.129190
8354.000000;0.128884
8353.000000;0.128548
8352.000000;0.128159
8351.000000;0.127776
8350.000000;0.127475
8349.000000;0.127246
8348.000000;0.127026
8347.000000;0.126814
8346.000000;0.126675
8345.000000;0.126662
8344.000000;0.126767
8343.000000;0.126908
8342.000000;0.126932
8341.000000;0.126701
8340.000000;0.126231
8339.000000;0.125708
8338.000000;0.125320
8337.000000;0.125097
8336.000000;0.124946
8335.000000;0.124756
8334.000000;0.124452
8333.000000;0.124029
8332.000000;0.123597
8331.000000;0.123334
8330.000000;0.123306
8329.000000;0.123388
8328.000000;0.123411
8327.000000;0.123319
8326.000000;0.123124
8325.000000;0.122801
8324.000000;0.122333
8323.000000;0.121836
8322.000000;0.121487
8321.000000;0.121318
8320.000000;0.121173
8319.000000;0.120902
8318.000000;0.120528
8317.000000;0.120173
8316.000000;0.119885
8315.000000;0.119602
8314.000000;0.119287
8313.000000;0.119034
8312.000000;0.118993
8311.000000;0.119186
8310.000000;0.119440
8309.000000;0.119544
8308.000000;0.119452
8307.000000;0.119288
8306.000000;0.119157
8305.000000;0.119012
8304.000000;0.118734
8303.000000;0.118314
8302.000000;0.117896
8301.000000;0.117662
8300.000000;0.117662
8299.000000;0.117761
8298.000000;0.117727
8297.000000;0.117415
8296.000000;0.116895
8295.000000;0.116369
8294.000000;0.115984
8293.000000;0.115716
8292.000000;0.115445
8291.000000;0.115096
8290.000000;0.114705
8289.000000;0.114379
8288.000000;0.114209
8287.000000;0.114207
8286.000000;0.114312
8285.000000;0.114427
8284.000000;0.114445
8283.000000;0.114271
8282.000000;0.113881
8281.000000;0.113410
8280.000000;0.113094
8279.000000;0.113054
8278.000000;0.113156
8277.000000;0.113152
8276.000000;0.112943
8275.000000;0.112635
8274.000000;0.112358
8273.000000;0.112132
8272.000000;0.111912
8271.000000;0.111660
8270.000000;0.111346
8269.000000;0.110949
8268.000000;0.110491
8267.000000;0.110055
8266.000000;0.109733
8265.000000;0.109594
8264.000000;0.109680
8263.000000;0.109936
8262.000000;0.110179
8261.000000;0.110215
8260.000000;0.110033
8259.000000;0.109787
8258.000000;0.109577
8257.000000;0.109327
8256.000000;0.108950
8255.000000;0.108542
8254.000000;0.108306
8253.000000;0.108312
8252.000000;0.108417
8251.000000;0.108415
8250.000000;0.108220
8249.000000;0.107908
8248.000000;0.107606
8247.000000;0.107372
8246.000000;0.107161
8245.000000;0.106914
8244.000000;0.106653
8243.000000;0.106462
8242.000000;0.106385
8241.000000;0.106388
8240.000000;0.106407
8239.000000;0.106391
8238.000000;0.106309
8237.000000;0.106151
8236.000000;0.105947
8235.000000;0.105731
8234.000000;0.105495
8233.000000;0.105240
8232.000000;0.105032
8231.000000;0.104942
8230.000000;0.104934
8229.000000;0.104873
8228.000000;0.104687
8227.000000;0.104421
8226.000000;0.104142
8225.000000;0.103868
8224.000000;0.103631
8223.000000;0.103518
8222.000000;0.103566
8221.000000;0.103683
8220.000000;0.103730
8219.000000;0.103648
8218.000000;0.103464
8217.000000;0.103236
8216.000000;0.103044
8215.000000;0.102971
8214.000000;0.103015
8213.000000;0.103030
8212.000000;0.102850
8211.000000;0.102471
8210.000000;0.102062
8209.000000;0.101793
8208.000000;0.101685
8207.000000;0.101624
8206.000000;0.101497
8205.000000;0.101282
8204.000000;0.101045
8203.000000;0.100874
8202.000000;0.100824
8201.000000;0.100894
8200.000000;0.101015
8199.000000;0.101053
8198.000000;0.100903
8197.000000;0.100612
8196.000000;0.100385
8195.000000;0.100362
8194.000000;0.100430
8193.000000;0.100324
8192.000000;0.099940
8191.000000;0.099462
8190.000000;0.099151
8189.000000;0.099090
8188.000000;0.099159
8187.000000;0.099201
8186.000000;0.099140
8185.000000;0.098994
8184.000000;0.098854
8183.000000;0.098827
8182.000000;0.098928
8181.000000;0.099044
8180.000000;0.099013
8179.000000;0.098772
8178.000000;0.098401
8177.000000;0.098050
8176.000000;0.097822
8175.000000;0.097706
8174.000000;0.097615
8173.000000;0.097484
8172.000000;0.097350
8171.000000;0.097301
8170.000000;0.097359
8169.000000;0.097451
8168.000000;0.097488
8167.000000;0.097442
8166.000000;0.097325
8165.000000;0.097153
8164.000000;0.096950
8163.000000;0.096764
8162.000000;0.096636
8161.000000;0.096567
8160.000000;0.096525
8159.000000;0.096466
8158.000000;0.096349
8157.000000;0.096159
8156.000000;0.095921
8155.000000;0.095667
8154.000000;0.095420
8153.000000;0.095213
8152.000000;0.095078
8151.000000;0.094989
8150.000000;0.094836
8149.000000;0.094561
8148.000000;0.094284
8147.000000;0.094199
8146.000000;0.094342
8145.000000;0.094540
8144.000000;0.094621
8143.000000;0.094573
8142.000000;0.094466
8141.000000;0.094328
8140.000000;0.094147
8139.000000;0.093942
8138.000000;0.093748
8137.000000;0.093586
8136.000000;0.093495
8135.000000;0.093528
8134.000000;0.093645
8133.000000;0.093662
8132.000000;0.093441
8131.000000;0.093095
8130.000000;0.092921
8129.000000;0.093087
8128.000000;0.093460
8127.000000;0.093742
8126.000000;0.093743
8125.000000;0.093474
8124.000000;0.093058
8123.000000;0.092625
8122.000000;0.092300
8121.000000;0.092193
8120.000000;0.092329
8119.000000;0.092576
8118.000000;0.092724
8117.000000;0.092665
8116.000000;0.092480
8115.000000;0.092321
8114.000000;0.092243
8113.000000;0.092195
8112.000000;0.092132
8111.000000;0.092070
8110.000000;0.092027
8109.000000;0.091984
8108.000000;0.091909
8107.000000;0.091785
8106.000000;0.091611
8105.000000;0.091423
8104.000000;0.091305
8103.000000;0.091318
8102.000000;0.091412
8101.000000;0.091457
8100.000000;0.091397
8099.000000;0.091308
8098.000000;0.091288
8097.000000;0.091324
8096.000000;0.091317
8095.000000;0.091186
8094.000000;0.090923
8093.000000;0.090596
8092.000000;0.090318
8091.000000;0.090174
8090.000000;0.090155
8089.000000;0.090167
8088.000000;0.090132
8087.000000;0.090071
8086.000000;0.090068
8085.000000;0.090171
8084.000000;0.090350
8083.000000;0.090508
8082.000000;0.090542
8081.000000;0.090411
8080.000000;0.090165
8079.000000;0.089915
8078.000000;0.089757
8077.000000;0.089735
8076.000000;0.089836
8075.000000;0.089976
8074.000000;0.090013
8073.000000;0.089834
8072.000000;0.089468
8071.000000;0.089078
8070.000000;0.088821
8069.000000;0.088739
8068.000000;0.088784
8067.000000;0.088905
8066.000000;0.089089
8065.000000;0.089315
8064.000000;0.089515
8063.000000;0.089582
8062.000000;0.089456
8061.000000;0.089196
8060.000000;0.088935
8059.000000;0.088744
8058.000000;0.088603
8057.000000;0.088514
8056.000000;0.088568
8055.000000;0.088799
8054.000000;0.089051
8053.000000;0.089105
8052.000000;0.088943
8051.000000;0.088764
8050.000000;0.088737
8049.000000;0.088821
8048.000000;0.088853
8047.000000;0.088722
8046.000000;0.088434
8045.000000;0.088092
8044.000000;0.087860
8043.000000;0.087857
8042.000000;0.088027
8041.000000;0.088182
8040.000000;0.088193
8039.000000;0.088098
8038.000000;0.087997
8037.000000;0.087931
8036.000000;0.087897
8035.000000;0.087893
8034.000000;0.087883
8033.000000;0.087776
8032.000000;0.087529
8031.000000;0.087230
8030.000000;0.087029
8029.000000;0.086996
8028.000000;0.087098
8027.000000;0.087267
8026.000000;0.087436
8025.000000;0.087530
8024.000000;0.087507
8023.000000;0.087395
8022.000000;0.087265
8021.000000;0.087172
8020.000000;0.087121
8019.000000;0.087078
8018.000000;0.086999
8017.000000;0.086865
8016.000000;0.086735
8015.000000;0.086693
8014.000000;0.086751
8013.000000;0.086828
8012.000000;0.086859
8011.000000;0.086880
8010.000000;0.086952
8009.000000;0.087047
8008.000000;0.087078
8007.000000;0.087006
8006.000000;0.086871
8005.000000;0.086732
8004.000000;0.086621
8003.000000;0.086549
8002.000000;0.086515
8001.000000;0.086515
8000.000000;0.086551
7999.000000;0.086634
7998.000000;0.086760
7997.000000;0.086879
7996.000000;0.086915
7995.000000;0.086819
7994.000000;0.086607
7993.000000;0.086361
7992.000000;0.086177
7991.000000;0.086081
7990.000000;0.086020
7989.000000;0.085947
7988.000000;0.085914
7987.000000;0.085992
7986.000000;0.086127
7985.000000;0.086162
7984.000000;0.086044
7983.000000;0.085911
7982.000000;0.085930
7981.000000;0.086092
7980.000000;0.086240
7979.000000;0.086258
7978.000000;0.086160
7977.000000;0.086015
7976.000000;0.085864
7975.000000;0.085723
7974.000000;0.085610
7973.000000;0.085540
7972.000000;0.085511
7971.000000;0.085505
7970.000000;0.085483
7969.000000;0.085414
7968.000000;0.085314
7967.000000;0.085258
7966.000000;0.085307
7965.000000;0.085444
7964.000000;0.085584
7963.000000;0.085663
7962.000000;0.085662
7961.000000;0.085580
7960.000000;0.085412
7959.000000;0.085183
7958.000000;0.084982
7957.000000;0.084916
7956.000000;0.085008
7955.000000;0.085163
7954.000000;0.085244
7953.000000;0.085188
7952.000000;0.085028
7951.000000;0.084817
7950.000000;0.084568
7949.000000;0.084314
7948.000000;0.084130
7947.000000;0.084067
7946.000000;0.084075
7945.000000;0.084072
7944.000000;0.084063
7943.000000;0.084113
7942.000000;0.084215
7941.000000;0.084263
7940.000000;0.084182
7939.000000;0.084014
7938.000000;0.083859
7937.000000;0.083788
7936.000000;0.083834
7935.000000;0.083987
7934.000000;0.084161
7933.000000;0.084243
7932.000000;0.084212
7931.000000;0.084176
7930.000000;0.084234
7929.000000;0.084365
7928.000000;0.084479
7927.000000;0.084527
7926.000000;0.084508
7925.000000;0.084415
7924.000000;0.084266
7923.000000;0.084141
7922.000000;0.084106
7921.000000;0.084118
7920.000000;0.084077
7919.000000;0.083973
7918.000000;0.083911
7917.000000;0.083952
7916.000000;0.084017
7915.000000;0.083970
7914.000000;0.083784
7913.000000;0.083571
7912.000000;0.083465
7911.000000;0.083494
7910.000000;0.083580
7909.000000;0.083648
7908.000000;0.083694
7907.000000;0.083756
7906.000000;0.083809
7905.000000;0.083764
7904.000000;0.083569
7903.000000;0.083299
7902.000000;0.083117
7901.000000;0.083129
7900.000000;0.083303
7899.000000;0.083509
7898.000000;0.083617
7897.000000;0.083587
7896.000000;0.083480
7895.000000;0.083401
7894.000000;0.083405
7893.000000;0.083457
7892.000000;0.083466
7891.000000;0.083368
7890.000000;0.083164
7889.000000;0.082903
7888.000000;0.082649
7887.000000;0.082460
7886.000000;0.082373
7885.000000;0.082390
7884.000000;0.082470
7883.000000;0.082545
7882.000000;0.082559
7881.000000;0.082509
7880.000000;0.082436
7879.000000;0.082381
7878.000000;0.082359
7877.000000;0.082380
7876.000000;0.082451
7875.000000;0.082553
7874.000000;0.082628
7873.000000;0.082632
7872.000000;0.082575
7871.000000;0.082498
7870.000000;0.082418
7869.000000;0.082331
7868.000000;0.082263
7867.000000;0.082252
7866.000000;0.082297
7865.000000;0.082329
7864.000000;0.082273
7863.000000;0.082114
7862.000000;0.081923
7861.000000;0.081812
7860.000000;0.081830
7859.000000;0.081913
7858.000000;0.081943
7857.000000;0.081895
7856.000000;0.081870
7855.000000;0.081964
7854.000000;0.082146
7853.000000;0.082309
7852.000000;0.082395
7851.000000;0.082396
7850.000000;0.082295
7849.000000;0.082099
7848.000000;0.081916
7847.000000;0.081884
7846.000000;0.081999
7845.000000;0.082101
7844.000000;0.082054
7843.000000;0.081870
7842.000000;0.081658
7841.000000;0.081507
7840.000000;0.081463
7839.000000;0.081538
7838.000000;0.081692
7837.000000;0.081834
7836.000000;0.081907
7835.000000;0.081925
7834.000000;0.081928
7833.000000;0.081911
7832.000000;0.081837
7831.000000;0.081676
7830.000000;0.081439
7829.000000;0.081192
7828.000000;0.081049
7827.000000;0.081071
7826.000000;0.081173
7825.000000;0.081205
7824.000000;0.081150
7823.000000;0.081161
7822.000000;0.081346
7821.000000;0.081589
7820.000000;0.081662
7819.000000;0.081489
7818.000000;0.081212
7817.000000;0.081015
7816.000000;0.080955
7815.000000;0.080965
7814.000000;0.080961
7813.000000;0.080915
7812.000000;0.080864
7811.000000;0.080861
7810.000000;0.080914
7809.000000;0.080963
7808.000000;0.080933
7807.000000;0.080810
7806.000000;0.080658
7805.000000;0.080575
7804.000000;0.080618
7803.000000;0.080748
7802.000000;0.080855
7801.000000;0.080851
7800.000000;0.080757
7799.000000;0.080665
7798.000000;0.080637
7797.000000;0.080649
7796.000000;0.080657
7795.000000;0.080664
7794.000000;0.080715
7793.000000;0.080833
7792.000000;0.080981
7791.000000;0.081088
7790.000000;0.081092
7789.000000;0.080986
7788.000000;0.080819
7787.000000;0.080657
7786.000000;0.080526
7785.000000;0.080421
7784.000000;0.080349
7783.000000;0.080325
7782.000000;0.080334
7781.000000;0.080311
7780.000000;0.080209
7779.000000;0.080052
7778.000000;0.079921
7777.000000;0.079886
7776.000000;0.079943
7775.000000;0.080014
7774.000000;0.080017
7773.000000;0.079944
7772.000000;0.079857
7771.000000;0.079813
7770.000000;0.079806
7769.000000;0.079818
7768.000000;0.079860
7767.000000;0.079937
7766.000000;0.079998
7765.000000;0.079989
7764.000000;0.079933
7763.000000;0.079899
7762.000000;0.079909
7761.000000;0.079935
7760.000000;0.079951
7759.000000;0.079940
7758.000000;0.079871
7757.000000;0.079758
7756.000000;0.079699
7755.000000;0.079789
7754.000000;0.079972
7753.000000;0.080071
7752.000000;0.079985
7751.000000;0.079788
7750.000000;0.079630
7749.000000;0.079608
7748.000000;0.079734
7747.000000;0.079937
7746.000000;0.080072
7745.000000;0.080015
7744.000000;0.079786
7743.000000;0.079526
7742.000000;0.079346
7741.000000;0.079256
7740.000000;0.079237
7739.000000;0.079280
7738.000000;0.079323
7737.000000;0.079266
7736.000000;0.079113
7735.000000;0.079003
7734.000000;0.079037
7733.000000;0.079142
7732.000000;0.079175
7731.000000;0.079103
7730.000000;0.079020
7729.000000;0.079021
7728.000000;0.079137
7727.000000;0.079327
7726.000000;0.079484
7725.000000;0.079484
7724.000000;0.079299
7723.000000;0.079041
7722.000000;0.078852
7721.000000;0.078776
7720.000000;0.078779
7719.000000;0.078819
7718.000000;0.078861
7717.000000;0.078865
7716.000000;0.078839
7715.000000;0.078847
7714.000000;0.078913
7713.000000;0.078963
7712.000000;0.078912
7711.000000;0.078791
7710.000000;0.078705
7709.000000;0.078701
7708.000000;0.078736
7707.000000;0.078759
7706.000000;0.078744
7705.000000;0.078678
7704.000000;0.078579
7703.000000;0.078514
7702.000000;0.078551
7701.000000;0.078676
7700.000000;0.078797
7699.000000;0.078822
7698.000000;0.078719
7697.000000;0.078524
7696.000000;0.078315
7695.000000;0.078174
7694.000000;0.078139
7693.000000;0.078204
7692.000000;0.078355
7691.000000;0.078555
7690.000000;0.078696
7689.000000;0.078652
7688.000000;0.078421
7687.000000;0.078164
7686.000000;0.078031
7685.000000;0.078002
7684.000000;0.077955
7683.000000;0.077849
7682.000000;0.077757
7681.000000;0.077744
7680.000000;0.077798
7679.000000;0.077870
7678.000000;0.077935
7677.000000;0.077997
7676.000000;0.078079
7675.000000;0.078199
7674.000000;0.078317
7673.000000;0.078334
7672.000000;0.078204
7671.000000;0.078008
7670.000000;0.077879
7669.000000;0.077871
7668.000000;0.077936
7667.000000;0.078014
7666.000000;0.078087
7665.000000;0.078146
7664.000000;0.078187
7663.000000;0.078223
7662.000000;0.078250
7661.000000;0.078216
7660.000000;0.078064
7659.000000;0.077813
7658.000000;0.077554
7657.000000;0.077368
7656.000000;0.077280
7655.000000;0.077282
7654.000000;0.077333
7653.000000;0.077364
7652.000000;0.077331
7651.000000;0.077270
7650.000000;0.077246
7649.000000;0.077266
7648.000000;0.077275
7647.000000;0.077252
7646.000000;0.077226
7645.000000;0.077212
7644.000000;0.077182
7643.000000;0.077135
7642.000000;0.077122
7641.000000;0.077171
7640.000000;0.077238
7639.000000;0.077265
7638.000000;0.077258
7637.000000;0.077275
7636.000000;0.077341
7635.000000;0.077409
7634.000000;0.077405
7633.000000;0.077304
7632.000000;0.077149
7631.000000;0.077021
7630.000000;0.076965
7629.000000;0.076950
7628.000000;0.076904
7627.000000;0.076794
7626.000000;0.076656
7625.000000;0.076569
7624.000000;0.076578
7623.000000;0.076654
7622.000000;0.076713
7621.000000;0.076695
7620.000000;0.076622
7619.000000;0.076570
7618.000000;0.076574
7617.000000;0.076594
7616.000000;0.076578
7615.000000;0.076532
7614.000000;0.076519
7613.000000;0.076594
7612.000000;0.076747
7611.000000;0.076900
7610.000000;0.076957
7609.000000;0.076892
7608.000000;0.076780
7607.000000;0.076719
7606.000000;0.076719
7605.000000;0.076703
7604.000000;0.076611
7603.000000;0.076465
7602.000000;0.076313
7601.000000;0.076187
7600.000000;0.076116
7599.000000;0.076132
7598.000000;0.076213
7597.000000;0.076273
7596.000000;0.076252
7595.000000;0.076177
7594.000000;0.076099
7593.000000;0.076018
7592.000000;0.075921
7591.000000;0.075857
7590.000000;0.075897
7589.000000;0.076040
7588.000000;0.076206
7587.000000;0.076316
7586.000000;0.076331
7585.000000;0.076251
7584.000000;0.076129
7583.000000;0.076050
7582.000000;0.076059
7581.000000;0.076106
7580.000000;0.076106
7579.000000;0.076026
7578.000000;0.075890
7577.000000;0.075739
7576.000000;0.075635
7575.000000;0.075645
7574.000000;0.075765
7573.000000;0.075872
7572.000000;0.075837
7571.000000;0.075666
7570.000000;0.075483
7569.000000;0.075379
7568.000000;0.075361
7567.000000;0.075417
7566.000000;0.075541
7565.000000;0.075681
7564.000000;0.075742
7563.000000;0.075676
7562.000000;0.075536
7561.000000;0.075412
7560.000000;0.075357
7559.000000;0.075375
7558.000000;0.075430
7557.000000;0.075456
7556.000000;0.075391
7555.000000;0.075245
7554.000000;0.075093
7553.000000;0.075018
7552.000000;0.075045
7551.000000;0.075140
7550.000000;0.075230
7549.000000;0.075247
7548.000000;0.075172
7547.000000;0.075048
7546.000000;0.074933
7545.000000;0.074847
7544.000000;0.074782
7543.000000;0.074736
7542.000000;0.074705
7541.000000;0.074678
7540.000000;0.074657
7539.000000;0.074677
7538.000000;0.074741
7537.000000;0.074791
7536.000000;0.074773
7535.000000;0.074717
7534.000000;0.074690
7533.000000;0.074701
7532.000000;0.074697
7531.000000;0.074658
7530.000000;0.074606
7529.000000;0.074555
7528.000000;0.074498
7527.000000;0.074453
7526.000000;0.074445
7525.000000;0.074433
7524.000000;0.074349
7523.000000;0.074207
7522.000000;0.074110
7521.000000;0.074119
7520.000000;0.074178
7519.000000;0.074197
7518.000000;0.074161
7517.000000;0.074121
7516.000000;0.074121
7515.000000;0.074163
7514.000000;0.074214
7513.000000;0.074224
7512.000000;0.074161
7511.000000;0.074054
7510.000000;0.073972
7509.000000;0.073956
7508.000000;0.073987
7507.000000;0.074024
7506.000000;0.074034
7505.000000;0.073991
7504.000000;0.073894
7503.000000;0.073778
7502.000000;0.073705
7501.000000;0.073683
7500.000000;0.073670
7499.000000;0.073578
7498.000000;0.073449
7497.000000;0.073342
7496.000000;0.073308
7495.000000;0.073369
7494.000000;0.073465
7493.000000;0.073509
7492.000000;0.073467
7491.000000;0.073406
7490.000000;0.073405
7489.000000;0.073446
7488.000000;0.073452
7487.000000;0.073406
7486.000000;0.073373
7485.000000;0.073403
7484.000000;0.073455
7483.000000;0.073458
7482.000000;0.073387
7481.000000;0.073273
7480.000000;0.073166
7479.000000;0.073104
7478.000000;0.073092
7477.000000;0.073099
7476.000000;0.073099
7475.000000;0.073096
7474.000000;0.073096
7473.000000;0.073081
7472.000000;0.073042
7471.000000;0.073004
7470.000000;0.072997
7469.000000;0.072998
7468.000000;0.072967
7467.000000;0.072920
7466.000000;0.072909
7465.000000;0.072940
7464.000000;0.072957
7463.000000;0.072921
7462.000000;0.072858
7461.000000;0.072820
7460.000000;0.072827
7459.000000;0.072840
7458.000000;0.072787
7457.000000;0.072619
7456.000000;0.072385
7455.000000;0.072200
7454.000000;0.072122
7453.000000;0.072090
7452.000000;0.072039
7451.000000;0.072001
7450.000000;0.072047
7449.000000;0.072154
7448.000000;0.072222
7447.000000;0.072206
7446.000000;0.072155
7445.000000;0.072128
7444.000000;0.072142
7443.000000;0.072181
7442.000000;0.072215
7441.000000;0.072203
7440.000000;0.072141
7439.000000;0.072089
7438.000000;0.072086
7437.000000;0.072090
7436.000000;0.072056
7435.000000;0.072014
7434.000000;0.072005
7433.000000;0.071968
7432.000000;0.071819
7431.000000;0.071602
7430.000000;0.071448
7429.000000;0.071410
7428.000000;0.071437
7427.000000;0.071496
7426.000000;0.071583
7425.000000;0.071629
7424.000000;0.071546
7423.000000;0.071405
7422.000000;0.071409
7421.000000;0.071623
7420.000000;0.071864
7419.000000;0.071923
7418.000000;0.071789
7417.000000;0.071588
7416.000000;0.071415
7415.000000;0.071296
7414.000000;0.071234
7413.000000;0.071222
7412.000000;0.071241
7411.000000;0.071267
7410.000000;0.071266
7409.000000;0.071196
7408.000000;0.071070
7407.000000;0.070985
7406.000000;0.071005
7405.000000;0.071054
7404.000000;0.071014
7403.000000;0.070903
7402.000000;0.070844
7401.000000;0.070904
7400.000000;0.071047
7399.000000;0.071183
7398.000000;0.071207
7397.000000;0.071075
7396.000000;0.070884
7395.000000;0.070774
7394.000000;0.070695
7393.000000;0.070423
7392.000000;0.069907
7391.000000;0.069426
7390.000000;0.069269
7389.000000;0.069395
7388.000000;0.069598
7387.000000;0.069831
7386.000000;0.070106
7385.000000;0.070249
7384.000000;0.070140
7383.000000;0.070104
7382.000000;0.070557
7381.000000;0.071219
7380.000000;0.071255
7379.000000;0.070444
7378.000000;0.069656
7377.000000;0.069804
7376.000000;0.070718
7375.000000;0.071447
7374.000000;0.071374
7373.000000;0.070676
7372.000000;0.069913
7371.000000;0.069546
7370.000000;0.069706
7369.000000;0.070105
7368.000000;0.070253
7367.000000;0.069977
7366.000000;0.069587
7365.000000;0.069373
7364.000000;0.069265
7363.000000;0.069214
7362.000000;0.069433
7361.000000;0.069892
7360.000000;0.070014
7359.000000;0.069473
7358.000000;0.068870
7357.000000;0.069006
7356.000000;0.069756
7355.000000;0.070294
7354.000000;0.070201
7353.000000;0.069737
7352.000000;0.069247
7351.000000;0.068960
7350.000000;0.069122
7349.000000;0.069644
7348.000000;0.069862
7347.000000;0.069338
7346.000000;0.068624
7345.000000;0.068505
7344.000000;0.068823
7343.000000;0.068993
7342.000000;0.069293
7341.000000;0.070458
7340.000000;0.072015
7339.000000;0.072400
7338.000000;0.071102
7337.000000;0.069410
7336.000000;0.068636
7335.000000;0.068747
7334.000000;0.069044
7333.000000;0.069129
7332.000000;0.068832
7331.000000;0.068190
7330.000000;0.067859
7329.000000;0.068585
7328.000000;0.069877
7327.000000;0.070237
7326.000000;0.069204
7325.000000;0.068098
7324.000000;0.068105
7323.000000;0.068724
7322.000000;0.068807
7321.000000;0.068294
7320.000000;0.068006
7319.000000;0.068278
7318.000000;0.068766
7317.000000;0.069175
7316.000000;0.069356
7315.000000;0.069118
7314.000000;0.068664
7313.000000;0.068750
7312.000000;0.069581
7311.000000;0.070137
7310.000000;0.069529
7309.000000;0.068468
7308.000000;0.068324
7307.000000;0.069115
7306.000000;0.069540
7305.000000;0.068909
7304.000000;0.067893
7303.000000;0.067274
7302.000000;0.067125
7301.000000;0.067342
7300.000000;0.067908
7299.000000;0.068328
7298.000000;0.067876
7297.000000;0.066846
7296.000000;0.066559
7295.000000;0.067607
7294.000000;0.068902
7293.000000;0.069096
7292.000000;0.068334
7291.000000;0.067827
7290.000000;0.068220
7289.000000;0.069098
7288.000000;0.069759
7287.000000;0.069876
7286.000000;0.069495
7285.000000;0.068882
7284.000000;0.068427
7283.000000;0.068336
7282.000000;0.068434
7281.000000;0.068439
7280.000000;0.068349
7279.000000;0.068343
7278.000000;0.068435
7277.000000;0.068505
7276.000000;0.068569
7275.000000;0.068756
7274.000000;0.069042
7273.000000;0.069211
7272.000000;0.069113
7271.000000;0.068858
7270.000000;0.068707
7269.000000;0.068828
7268.000000;0.069126
7267.000000;0.069301
7266.000000;0.069194
7265.000000;0.069062
7264.000000;0.069341
7263.000000;0.070050
7262.000000;0.070640
7261.000000;0.070620
7260.000000;0.070153
7259.000000;0.069764
7258.000000;0.069651
7257.000000;0.069617
7256.000000;0.069608
7255.000000;0.069872
7254.000000;0.070496
7253.000000;0.071101
7252.000000;0.071176
7251.000000;0.070679
7250.000000;0.070148
7249.000000;0.070090
7248.000000;0.070358
7247.000000;0.070354
7246.000000;0.069976
7245.000000;0.069994
7244.000000;0.071101
7243.000000;0.072776
7242.000000;0.073618
7241.000000;0.072963
7240.000000;0.071672
7239.000000;0.070998
7238.000000;0.071116
7237.000000;0.071203
7236.000000;0.070763
7235.000000;0.070367
7234.000000;0.070932
7233.000000;0.072479
7232.000000;0.073798
7231.000000;0.073594
7230.000000;0.071961
7229.000000;0.070358
7228.000000;0.070059
7227.000000;0.070935
7226.000000;0.071833
7225.000000;0.071818
7224.000000;0.070936
7223.000000;0.069969
7222.000000;0.069659
7221.000000;0.070124
7220.000000;0.070806
7219.000000;0.070992
7218.000000;0.070491
7217.000000;0.069768
7216.000000;0.069383
7215.000000;0.069405
7214.000000;0.069479
7213.000000;0.069399
7212.000000;0.069331
7211.000000;0.069424
7210.000000;0.069524
7209.000000;0.069451
7208.000000;0.069362
7207.000000;0.069609
7206.000000;0.070297
7205.000000;0.071092
7204.000000;0.071480
7203.000000;0.071196
7202.000000;0.070450
7201.000000;0.069730
7200.000000;0.069349
7199.000000;0.069197
7198.000000;0.068998
7197.000000;0.068746
7196.000000;0.068698
7195.000000;0.068896
7194.000000;0.069011
7193.000000;0.068825
7192.000000;0.068569
7191.000000;0.068545
7190.000000;0.068656
7189.000000;0.068664
7188.000000;0.068630
7187.000000;0.068671
7186.000000;0.068519
7185.000000;0.067884
7184.000000;0.067162
7183.000000;0.067131
7182.000000;0.067858
7181.000000;0.068476
7180.000000;0.068303
7179.000000;0.067679
7178.000000;0.067353
7177.000000;0.067511
7176.000000;0.067812
7175.000000;0.067970
7174.000000;0.067918
7173.000000;0.067654
7172.000000;0.067344
7171.000000;0.067384
7170.000000;0.067937
7169.000000;0.068638
7168.000000;0.069017
7167.000000;0.068965
7166.000000;0.068523
7165.000000;0.067627
7164.000000;0.066487
7163.000000;0.065813
7162.000000;0.066091
7161.000000;0.066836
7160.000000;0.067099
7159.000000;0.066700
7158.000000;0.066347
7157.000000;0.066516
7156.000000;0.066867
7155.000000;0.066901
7154.000000;0.066644
7153.000000;0.066454
7152.000000;0.066477
7151.000000;0.066560
7150.000000;0.066502
7149.000000;0.066260
7148.000000;0.065964
7147.000000;0.065863
7146.000000;0.066132
7145.000000;0.066607
7144.000000;0.066819
7143.000000;0.066530
7142.000000;0.066136
7141.000000;0.066227
7140.000000;0.066752
7139.000000;0.066986
7138.000000;0.066501
7137.000000;0.065777
7136.000000;0.065545
7135.000000;0.065836
7134.000000;0.066050
7133.000000;0.065849
7132.000000;0.065510
7131.000000;0.065380
7130.000000;0.065410
7129.000000;0.065412
7128.000000;0.065411
7127.000000;0.065459
7126.000000;0.065425
7125.000000;0.065260
7124.000000;0.065193
7123.000000;0.065337
7122.000000;0.065338
7121.000000;0.064874
7120.000000;0.064321
7119.000000;0.064392
7118.000000;0.065085
7117.000000;0.065545
7116.000000;0.065194
7115.000000;0.064504
7114.000000;0.064280
7113.000000;0.064611
7112.000000;0.064955
7111.000000;0.064957
7110.000000;0.064752
7109.000000;0.064577
7108.000000;0.064510
7107.000000;0.064568
7106.000000;0.064702
7105.000000;0.064726
7104.000000;0.064480
7103.000000;0.064106
7102.000000;0.063934
7101.000000;0.064066
7100.000000;0.064203
7099.000000;0.064004
7098.000000;0.063537
7097.000000;0.063205
7096.000000;0.063251
7095.000000;0.063480
7094.000000;0.063545
7093.000000;0.063374
7092.000000;0.063199
7091.000000;0.063209
7090.000000;0.063328
7089.000000;0.063375
7088.000000;0.063322
7087.000000;0.063288
7086.000000;0.063313
7085.000000;0.063281
7084.000000;0.063092
7083.000000;0.062816
7082.000000;0.062615
7081.000000;0.062543
7080.000000;0.062500
7079.000000;0.062406
7078.000000;0.062327
7077.000000;0.062350
7076.000000;0.062405
7075.000000;0.062356
7074.000000;0.062216
7073.000000;0.062140
7072.000000;0.062196
7071.000000;0.062268
7070.000000;0.062239
7069.000000;0.062144
7068.000000;0.062091
7067.000000;0.062106
7066.000000;0.062122
7065.000000;0.062093
7064.000000;0.062019
7063.000000;0.061887
7062.000000;0.061691
7061.000000;0.061499
7060.000000;0.061400
7059.000000;0.061384
7058.000000;0.061356
7057.000000;0.061279
7056.000000;0.061223
7055.000000;0.061254
7054.000000;0.061331
7053.000000;0.061317
7052.000000;0.061112
7051.000000;0.060775
7050.000000;0.060505
7049.000000;0.060468
7048.000000;0.060623
7047.000000;0.060762
7046.000000;0.060742
7045.000000;0.060641
7044.000000;0.060616
7043.000000;0.060664
7042.000000;0.060646
7041.000000;0.060501
7040.000000;0.060322
7039.000000;0.060197
7038.000000;0.060096
7037.000000;0.059968
7036.000000;0.059843
7035.000000;0.059767
7034.000000;0.059728
7033.000000;0.059677
7032.000000;0.059601
7031.000000;0.059506
7030.000000;0.059387
7029.000000;0.059256
7028.000000;0.059144
7027.000000;0.059063
7026.000000;0.059011
7025.000000;0.059026
7024.000000;0.059157
7023.000000;0.059340
7022.000000;0.059400
7021.000000;0.059236
7020.000000;0.058949
7019.000000;0.058711
7018.000000;0.058572
7017.000000;0.058475
7016.000000;0.058392
7015.000000;0.058341
7014.000000;0.058306
7013.000000;0.058242
7012.000000;0.058156
7011.000000;0.058089
7010.000000;0.058043
7009.000000;0.058006
7008.000000;0.058004
7007.000000;0.058065
7006.000000;0.058117
7005.000000;0.058054
7004.000000;0.057873
7003.000000;0.057687
7002.000000;0.057575
7001.000000;0.057513
7000.000000;0.057458
6999.000000;0.057421
6998.000000;0.057408
6997.000000;0.057392
6996.000000;0.057353
6995.000000;0.057318
6994.000000;0.057302
6993.000000;0.057251
6992.000000;0.057114
6991.000000;0.056926
6990.000000;0.056789
6989.000000;0.056763
6988.000000;0.056820
6987.000000;0.056874
6986.000000;0.056834
6985.000000;0.056681
6984.000000;0.056494
6983.000000;0.056394
6982.000000;0.056411
6981.000000;0.056448
6980.000000;0.056377
6979.000000;0.056187
6978.000000;0.055982
6977.000000;0.055841
6976.000000;0.055737
6975.000000;0.055626
6974.000000;0.055545
6973.000000;0.055565
6972.000000;0.055643
6971.000000;0.055629
6970.000000;0.055446
6969.000000;0.055201
6968.000000;0.055057
6967.000000;0.055049
6966.000000;0.055085
6965.000000;0.055085
6964.000000;0.055050
6963.000000;0.054995
6962.000000;0.054912
6961.000000;0.054812
6960.000000;0.054723
6959.000000;0.054637
6958.000000;0.054542
6957.000000;0.054477
6956.000000;0.054489
6955.000000;0.054525
6954.000000;0.054473
6953.000000;0.054308
6952.000000;0.054124
6951.000000;0.053988
6950.000000;0.053872
6949.000000;0.053755
6948.000000;0.053692
6947.000000;0.053707
6946.000000;0.053713
6945.000000;0.053636
6944.000000;0.053529
6943.000000;0.053479
6942.000000;0.053457
6941.000000;0.053383
6940.000000;0.053281
6939.000000;0.053245
6938.000000;0.053266
6937.000000;0.053225
6936.000000;0.053063
6935.000000;0.052854
6934.000000;0.052704
6933.000000;0.052644
6932.000000;0.052642
6931.000000;0.052646
6930.000000;0.052595
6929.000000;0.052447
6928.000000;0.052227
6927.000000;0.052015
6926.000000;0.051871
6925.000000;0.051796
6924.000000;0.051782
6923.000000;0.051811
6922.000000;0.051824
6921.000000;0.051768
6920.000000;0.051706
6919.000000;0.051772
6918.000000;0.051989
6917.000000;0.052201
6916.000000;0.052225
6915.000000;0.052036
6914.000000;0.051759
6913.000000;0.051531
6912.000000;0.051398
6911.000000;0.051330
6910.000000;0.051274
6909.000000;0.051205
6908.000000;0.051128
6907.000000;0.051058
6906.000000;0.050978
6905.000000;0.050862
6904.000000;0.050727
6903.000000;0.050623
6902.000000;0.050564
6901.000000;0.050517
6900.000000;0.050459
6899.000000;0.050403
6898.000000;0.050365
6897.000000;0.050349
6896.000000;0.050360
6895.000000;0.050400
6894.000000;0.050423
6893.000000;0.050362
6892.000000;0.050200
6891.000000;0.050000
6890.000000;0.049840
6889.000000;0.049759
6888.000000;0.049749
6887.000000;0.049769
6886.000000;0.049759
6885.000000;0.049684
6884.000000;0.049581
6883.000000;0.049519
6882.000000;0.049508
6881.000000;0.049479
6880.000000;0.049375
6879.000000;0.049222
6878.000000;0.049095
6877.000000;0.049035
6876.000000;0.049009
6875.000000;0.048962
6874.000000;0.048877
6873.000000;0.048793
6872.000000;0.048756
6871.000000;0.048752
6870.000000;0.048724
6869.000000;0.048647
6868.000000;0.048567
6867.000000;0.048534
6866.000000;0.048528
6865.000000;0.048482
6864.000000;0.048369
6863.000000;0.048236
6862.000000;0.048138
6861.000000;0.048082
6860.000000;0.048026
6859.000000;0.047932
6858.000000;0.047806
6857.000000;0.047699
6856.000000;0.047657
6855.000000;0.047662
6854.000000;0.047649
6853.000000;0.047573
6852.000000;0.047449
6851.000000;0.047328
6850.000000;0.047242
6849.000000;0.047189
6848.000000;0.047158
6847.000000;0.047137
6846.000000;0.047113
6845.000000;0.047082
6844.000000;0.047053
6843.000000;0.047017
6842.000000;0.046942
6841.000000;0.046815
6840.000000;0.046676
6839.000000;0.046568
6838.000000;0.046494
6837.000000;0.046449
6836.000000;0.046448
6835.000000;0.046488
6834.000000;0.046506
6833.000000;0.046446
6832.000000;0.046340
6831.000000;0.046279
6830.000000;0.046283
6829.000000;0.046279
6828.000000;0.046220
6827.000000;0.046140
6826.000000;0.046077
6825.000000;0.046004
6824.000000;0.045883
6823.000000;0.045735
6822.000000;0.045608
6821.000000;0.045500
6820.000000;0.045375
6819.000000;0.045227
6818.000000;0.045101
6817.000000;0.045029
6816.000000;0.044995
6815.000000;0.044953
6814.000000;0.044881
6813.000000;0.044806
6812.000000;0.044784
6811.000000;0.044839
6810.000000;0.044915
6809.000000;0.044913
6808.000000;0.044811
6807.000000;0.044704
6806.000000;0.044706
6805.000000;0.044809
6804.000000;0.044884
6803.000000;0.044831
6802.000000;0.044680
6801.000000;0.044538
6800.000000;0.044462
6799.000000;0.044419
6798.000000;0.044362
6797.000000;0.044284
6796.000000;0.044207
6795.000000;0.044143
6794.000000;0.044099
6793.000000;0.044088
6792.000000;0.044092
6791.000000;0.044049
6790.000000;0.043907
6789.000000;0.043710
6788.000000;0.043567
6787.000000;0.043536
6786.000000;0.043554
6785.000000;0.043528
6784.000000;0.043438
6783.000000;0.043330
6782.000000;0.043243
6781.000000;0.043170
6780.000000;0.043105
6779.000000;0.043053
6778.000000;0.043014
6777.000000;0.042969
6776.000000;0.042888
6775.000000;0.042765
6774.000000;0.042629
6773.000000;0.042533
6772.000000;0.042515
6771.000000;0.042549
6770.000000;0.042564
6769.000000;0.042518
6768.000000;0.042442
6767.000000;0.042383
6766.000000;0.042346
6765.000000;0.042307
6764.000000;0.042256
6763.000000;0.042196
6762.000000;0.042115
6761.000000;0.042009
6760.000000;0.041899
6759.000000;0.041800
6758.000000;0.041707
6757.000000;0.041627
6756.000000;0.041602
6755.000000;0.041647
6754.000000;0.041700
6753.000000;0.041682
6752.000000;0.041592
6751.000000;0.041495
6750.000000;0.041421
6749.000000;0.041351
6748.000000;0.041265
6747.000000;0.041181
6746.000000;0.041108
6745.000000;0.041038
6744.000000;0.040969
6743.000000;0.040928
6742.000000;0.040937
6741.000000;0.040987
6740.000000;0.041047
6739.000000;0.041079
6738.000000;0.041047
6737.000000;0.040936
6736.000000;0.040775
6735.000000;0.040619
6734.000000;0.040507
6733.000000;0.040442
6732.000000;0.040402
6731.000000;0.040361
6730.000000;0.040301
6729.000000;0.040234
6728.000000;0.040180
6727.000000;0.040132
6726.000000;0.040043
6725.000000;0.039891
6724.000000;0.039725
6723.000000;0.039624
6722.000000;0.039618
6721.000000;0.039675
6720.000000;0.039751
6719.000000;0.039805
6718.000000;0.039795
6717.000000;0.039711
6716.000000;0.039598
6715.000000;0.039519
6714.000000;0.039488
6713.000000;0.039479
6712.000000;0.039462
6711.000000;0.039458
6710.000000;0.039467
6709.000000;0.039455
6708.000000;0.039392
6707.000000;0.039317
6706.000000;0.039208
6705.000000;0.039159
6704.000000;0.039122
6703.000000;0.039056
6702.000000;0.039014
6701.000000;0.038943
6700.000000;0.038867
6699.000000;0.038815
6698.000000;0.038805
6697.000000;0.038810
6696.000000;0.038807
6695.000000;0.038791
6694.000000;0.038755
6693.000000;0.038683
6692.000000;0.038576
6691.000000;0.038461
6690.000000;0.038362
6689.000000;0.038285
6688.000000;0.038231
6687.000000;0.038197
6686.000000;0.038174
6685.000000;0.038145
6684.000000;0.038116
6683.000000;0.038092
6682.000000;0.038062
6681.000000;0.038011
6680.000000;0.037963
6679.000000;0.037948
6678.000000;0.037951
6677.000000;0.037914
6676.000000;0.037821
6675.000000;0.037715
6674.000000;0.037636
6673.000000;0.037570
6672.000000;0.037491
6671.000000;0.037403
6670.000000;0.037334
6669.000000;0.037301
6668.000000;0.037299
6667.000000;0.037308
6666.000000;0.037300
6665.000000;0.037249
6664.000000;0.037159
6663.000000;0.037059
6662.000000;0.036981
6661.000000;0.036938
6660.000000;0.036926
6659.000000;0.036924
6658.000000;0.036899
6657.000000;0.036831
6656.000000;0.036743
6655.000000;0.036666
6654.000000;0.036596
6653.000000;0.036504
6652.000000;0.036392
6651.000000;0.036287
6650.000000;0.036208
6649.000000;0.036151
6648.000000;0.036128
6647.000000;0.036161
6646.000000;0.036234
6645.000000;0.036281
6644.000000;0.036248
6643.000000;0.036147
6642.000000;0.036031
6641.000000;0.035932
6640.000000;0.035852
6639.000000;0.035785
6638.000000;0.035730
6637.000000;0.035694
6636.000000;0.035682
6635.000000;0.035685
6634.000000;0.035680
6633.000000;0.035654
6632.000000;0.035625
6631.000000;0.035609
6630.000000;0.035594
6629.000000;0.035553
6628.000000;0.035493
6627.000000;0.035449
6626.000000;0.035442
6625.000000;0.035464
6624.000000;0.035494
6623.000000;0.035515
6622.000000;0.035512
6621.000000;0.035472
6620.000000;0.035401
6619.000000;0.035317
6618.000000;0.035231
6617.000000;0.035156
6616.000000;0.035113
6615.000000;0.035094
6614.000000;0.035052
6613.000000;0.034957
6612.000000;0.034846
6611.000000;0.034781
6610.000000;0.034767
6609.000000;0.034750
6608.000000;0.034700
6607.000000;0.034636
6606.000000;0.034575
6605.000000;0.034504
6604.000000;0.034415
6603.000000;0.034336
6602.000000;0.034288
6601.000000;0.034264
6600.000000;0.034254
6599.000000;0.034266
6598.000000;0.034292
6597.000000;0.034300
6596.000000;0.034270
6595.000000;0.034222
6594.000000;0.034177
6593.000000;0.034134
6592.000000;0.034081
6591.000000;0.034030
6590.000000;0.033998
6589.000000;0.033988
6588.000000;0.033988
6587.000000;0.033989
6586.000000;0.033974
6585.000000;0.033932
6584.000000;0.033883
6583.000000;0.033852
6582.000000;0.033836
6581.000000;0.033797
6580.000000;0.033718
6579.000000;0.033624
6578.000000;0.033544
6577.000000;0.033467
6576.000000;0.033375
6575.000000;0.033280
6574.000000;0.033207
6573.000000;0.033159
6572.000000;0.033123
6571.000000;0.033100
6570.000000;0.033097
6569.000000;0.033101
6568.000000;0.033094
6567.000000;0.033071
6566.000000;0.033039
6565.000000;0.032999
6564.000000;0.032950
6563.000000;0.032897
6562.000000;0.032850
6561.000000;0.032806
6560.000000;0.032752
6559.000000;0.032683
6558.000000;0.032611
6557.000000;0.032554
6556.000000;0.032519
6555.000000;0.032495
6554.000000;0.032466
6553.000000;0.032432
6552.000000;0.032414
6551.000000;0.032427
6550.000000;0.032457
6549.000000;0.032471
6548.000000;0.032449
6547.000000;0.032392
6546.000000;0.032312
6545.000000;0.032222
6544.000000;0.032142
6543.000000;0.032075
6542.000000;0.032010
6541.000000;0.031940
6540.000000;0.031893
6539.000000;0.031904
6538.000000;0.031972
6537.000000;0.032055
6536.000000;0.032114
6535.000000;0.032131
6534.000000;0.032093
6533.000000;0.031996
6532.000000;0.031858
6531.000000;0.031722
6530.000000;0.031616
6529.000000;0.031546
6528.000000;0.031505
6527.000000;0.031490
6526.000000;0.031491
6525.000000;0.031489
6524.000000;0.031479
6523.000000;0.031470
6522.000000;0.031465
6521.000000;0.031448
6520.000000;0.031405
6519.000000;0.031339
6518.000000;0.031256
6517.000000;0.031160
6516.000000;0.031059
6515.000000;0.030961
6514.000000;0.030865
6513.000000;0.030773
6512.000000;0.030705
6511.000000;0.030684
6510.000000;0.030696
6509.000000;0.030707
6508.000000;0.030707
6507.000000;0.030727
6506.000000;0.030783
6505.000000;0.030841
6504.000000;0.030849
6503.000000;0.030793
6502.000000;0.030701
6501.000000;0.030619
6500.000000;0.030580
6499.000000;0.030587
6498.000000;0.030614
6497.000000;0.030628
6496.000000;0.030619
6495.000000;0.030611
6494.000000;0.030625
6493.000000;0.030647
6492.000000;0.030644
6491.000000;0.030592
6490.000000;0.030493
6489.000000;0.030364
6488.000000;0.030239
6487.000000;0.030153
6486.000000;0.030122
6485.000000;0.030132
6484.000000;0.030152
6483.000000;0.030155
6482.000000;0.030131
6481.000000;0.030087
6480.000000;0.030047
6479.000000;0.030027
6478.000000;0.030020
6477.000000;0.029990
6476.000000;0.029914
6475.000000;0.029815
6474.000000;0.029736
6473.000000;0.029704
6472.000000;0.029704
6471.000000;0.029707
6470.000000;0.029703
6469.000000;0.029698
6468.000000;0.029693
6467.000000;0.029675
6466.000000;0.029637
6465.000000;0.029602
6464.000000;0.029594
6463.000000;0.029605
6462.000000;0.029606
6461.000000;0.029587
6460.000000;0.029566
6459.000000;0.029556
6458.000000;0.029540
6457.000000;0.029503
6456.000000;0.029456
6455.000000;0.029419
6454.000000;0.029387
6453.000000;0.029346
6452.000000;0.029304
6451.000000;0.029284
6450.000000;0.029290
6449.000000;0.029299
6448.000000;0.029281
6447.000000;0.029224
6446.000000;0.029138
6445.000000;0.029052
6444.000000;0.028993
6443.000000;0.028957
6442.000000;0.028912
6441.000000;0.028850
6440.000000;0.028804
6439.000000;0.028810
6438.000000;0.028857
6437.000000;0.028899
6436.000000;0.028915
6435.000000;0.028908
6434.000000;0.028888
6433.000000;0.028852
6432.000000;0.028809
6431.000000;0.028773
6430.000000;0.028758
6429.000000;0.028769
6428.000000;0.028809
6427.000000;0.028863
6426.000000;0.028898
6425.000000;0.028887
6424.000000;0.028844
6423.000000;0.028805
6422.000000;0.028789
6421.000000;0.028788
6420.000000;0.028792
6419.000000;0.028797
6418.000000;0.028793
6417.000000;0.028764
6416.000000;0.028702
6415.000000;0.028613
6414.000000;0.028510
6413.000000;0.028413
6412.000000;0.028345
6411.000000;0.028314
6410.000000;0.028303
6409.000000;0.028297
6408.000000;0.028303
6407.000000;0.028324
6406.000000;0.028336
6405.000000;0.028316
6404.000000;0.028268
6403.000000;0.028212
6402.000000;0.028154
6401.000000;0.028103
6400.000000;0.028082
6399.000000;0.028103
6398.000000;0.028135
6397.000000;0.028145
6396.000000;0.028143
6395.000000;0.028155
6394.000000;0.028161
6393.000000;0.028116
6392.000000;0.028021
6391.000000;0.027937
6390.000000;0.027906
6389.000000;0.027922
6388.000000;0.027960
6387.000000;0.028009
6386.000000;0.028055
6385.000000;0.028065
6384.000000;0.028021
6383.000000;0.027941
6382.000000;0.027856
6381.000000;0.027793
6380.000000;0.027765
6379.000000;0.027775
6378.000000;0.027797
6377.000000;0.027798
6376.000000;0.027767
6375.000000;0.027719
6374.000000;0.027662
6373.000000;0.027595
6372.000000;0.027533
6371.000000;0.027509
6370.000000;0.027537
6369.000000;0.027586
6368.000000;0.027617
6367.000000;0.027608
6366.000000;0.027559
6365.000000;0.027483
6364.000000;0.027410
6363.000000;0.027372
6362.000000;0.027373
6361.000000;0.027380
6360.000000;0.027364
6359.000000;0.027320
6358.000000;0.027260
6357.000000;0.027195
6356.000000;0.027140
6355.000000;0.027118
6354.000000;0.027131
6353.000000;0.027155
6352.000000;0.027165
6351.000000;0.027166
6350.000000;0.027178
6349.000000;0.027205
6348.000000;0.027232
6347.000000;0.027246
6346.000000;0.027246
6345.000000;0.027242
6344.000000;0.027245
6343.000000;0.027267
6342.000000;0.027303
6341.000000;0.027331
6340.000000;0.027331
6339.000000;0.027298
6338.000000;0.027250
6337.000000;0.027204
6336.000000;0.027157
6335.000000;0.027095
6334.000000;0.027017
6333.000000;0.026952
6332.000000;0.026930
6331.000000;0.026947
6330.000000;0.026962
6329.000000;0.026941
6328.000000;0.026893
6327.000000;0.026850
6326.000000;0.026832
6325.000000;0.026836
6324.000000;0.026845
6323.000000;0.026840
6322.000000;0.026808
6321.000000;0.026752
6320.000000;0.026695
6319.000000;0.026651
6318.000000;0.026613
6317.000000;0.026566
6316.000000;0.026507
6315.000000;0.026446
6314.000000;0.026399
6313.000000;0.026393
6312.000000;0.026440
6311.000000;0.026512
6310.000000;0.026552
6309.000000;0.026530
6308.000000;0.026477
6307.000000;0.026439
6306.000000;0.026427
6305.000000;0.026427
6304.000000;0.026432
6303.000000;0.026436
6302.000000;0.026417
6301.000000;0.026360
6300.000000;0.026284
6299.000000;0.026224
6298.000000;0.026191
6297.000000;0.026173
6296.000000;0.026165
6295.000000;0.026171
6294.000000;0.026184
6293.000000;0.026192
6292.000000;0.026195
6291.000000;0.026196
6290.000000;0.026182
6289.000000;0.026141
6288.000000;0.026088
6287.000000;0.026046
6286.000000;0.026014
6285.000000;0.025985
6284.000000;0.025979
6283.000000;0.026015
6282.000000;0.026071
6281.000000;0.026095
6280.000000;0.026076
6279.000000;0.026056
6278.000000;0.026067
6277.000000;0.026096
6276.000000;0.026105
6275.000000;0.026086
6274.000000;0.026060
6273.000000;0.026053
6272.000000;0.026064
6271.000000;0.026067
6270.000000;0.026024
6269.000000;0.025931
6268.000000;0.025825
6267.000000;0.025749
6266.000000;0.025706
6265.000000;0.025676
6264.000000;0.025654
6263.000000;0.025656
6262.000000;0.025684
6261.000000;0.025720
6260.000000;0.025741
6259.000000;0.025736
6258.000000;0.025705
6257.000000;0.025661
6256.000000;0.025625
6255.000000;0.025610
6254.000000;0.025605
6253.000000;0.025594
6252.000000;0.025577
6251.000000;0.025566
6250.000000;0.025564
6249.000000;0.025568
6248.000000;0.025581
6247.000000;0.025596
6246.000000;0.025590
6245.000000;0.025547
6244.000000;0.025483
6243.000000;0.025423
6242.000000;0.025378
6241.000000;0.025355
6240.000000;0.025371
6239.000000;0.025412
6238.000000;0.025422
6237.000000;0.025362
6236.000000;0.025270
6235.000000;0.025225
6234.000000;0.025246
6233.000000;0.025277
6232.000000;0.025273
6231.000000;0.025249
6230.000000;0.025242
6229.000000;0.025260
6228.000000;0.025286
6227.000000;0.025304
6226.000000;0.025301
6225.000000;0.025270
6224.000000;0.025228
6223.000000;0.025198
6222.000000;0.025179
6221.000000;0.025154
6220.000000;0.025119
6219.000000;0.025097
6218.000000;0.025096
6217.000000;0.025096
6216.000000;0.025073
6215.000000;0.025028
6214.000000;0.024977
6213.000000;0.024935
6212.000000;0.024913
6211.000000;0.024916
6210.000000;0.024937
6209.000000;0.024953
6208.000000;0.024942
6207.000000;0.024895
6206.000000;0.024819
6205.000000;0.024746
6204.000000;0.024713
6203.000000;0.024729
6202.000000;0.024762
6201.000000;0.024767
6200.000000;0.024734
6199.000000;0.024680
6198.000000;0.024625
6197.000000;0.024579
6196.000000;0.024549
6195.000000;0.024531
6194.000000;0.024507
6193.000000;0.024467
6192.000000;0.024428
6191.000000;0.024408
6190.000000;0.024397
6189.000000;0.024380
6188.000000;0.024367
6187.000000;0.024382
6186.000000;0.024418
6185.000000;0.024444
6184.000000;0.024446
6183.000000;0.024441
6182.000000;0.024446
6181.000000;0.024453
6180.000000;0.024450
6179.000000;0.024427
6178.000000;0.024384
6177.000000;0.024326
6176.000000;0.024276
6175.000000;0.024246
6174.000000;0.024218
6173.000000;0.024176
6172.000000;0.024136
6171.000000;0.024132
6170.000000;0.024169
6169.000000;0.024219
6168.000000;0.024253
6167.000000;0.024264
6166.000000;0.024247
6165.000000;0.024195
6164.000000;0.024116
6163.000000;0.024038
6162.000000;0.023985
6161.000000;0.023969
6160.000000;0.023984
6159.000000;0.024009
6158.000000;0.024010
6157.000000;0.023973
6156.000000;0.023921
6155.000000;0.023888
6154.000000;0.023871
6153.000000;0.023848
6152.000000;0.023812
6151.000000;0.023779
6150.000000;0.023756
6149.000000;0.023738
6148.000000;0.023723
6147.000000;0.023720
6146.000000;0.023727
6145.000000;0.023728
6144.000000;0.023718
6143.000000;0.023706
6142.000000;0.023700
6141.000000;0.023694
6140.000000;0.023684
6139.000000;0.023667
6138.000000;0.023637
6137.000000;0.023597
6136.000000;0.023562
6135.000000;0.023544
6134.000000;0.023531
6133.000000;0.023504
6132.000000;0.023467
6131.000000;0.023429
6130.000000;0.023390
6129.000000;0.023343
6128.000000;0.023298
6127.000000;0.023267
6126.000000;0.023243
6125.000000;0.023208
6124.000000;0.023157
6123.000000;0.023097
6122.000000;0.023030
6121.000000;0.022962
6120.000000;0.022921
6119.000000;0.022926
6118.000000;0.022966
6117.000000;0.023014
6116.000000;0.023061
6115.000000;0.023107
6114.000000;0.023124
6113.000000;0.023079
6112.000000;0.022981
6111.000000;0.022876
6110.000000;0.022811
6109.000000;0.022795
6108.000000;0.022819
6107.000000;0.022856
6106.000000;0.022871
6105.000000;0.022839
6104.000000;0.022775
6103.000000;0.022710
6102.000000;0.022665
6101.000000;0.022647
6100.000000;0.022671
6099.000000;0.022744
6098.000000;0.022833
6097.000000;0.022880
6096.000000;0.022858
6095.000000;0.022780
6094.000000;0.022668
6093.000000;0.022541
6092.000000;0.022428
6091.000000;0.022355
6090.000000;0.022326
6089.000000;0.022324
6088.000000;0.022339
6087.000000;0.022364
6086.000000;0.022375
6085.000000;0.022344
6084.000000;0.022277
6083.000000;0.022208
6082.000000;0.022165
6081.000000;0.022153
6080.000000;0.022167
6079.000000;0.022198
6078.000000;0.022213
6077.000000;0.022183
6076.000000;0.022116
6075.000000;0.022048
6074.000000;0.021999
6073.000000;0.021964
6072.000000;0.021932
6071.000000;0.021905
6070.000000;0.021876
6069.000000;0.021836
6068.000000;0.021791
6067.000000;0.021758
6066.000000;0.021740
6065.000000;0.021727
6064.000000;0.021708
6063.000000;0.021682
6062.000000;0.021651
6061.000000;0.021628
6060.000000;0.021638
6059.000000;0.021681
6058.000000;0.021714
6057.000000;0.021692
6056.000000;0.021621
6055.000000;0.021545
6054.000000;0.021482
6053.000000;0.021415
6052.000000;0.021333
6051.000000;0.021258
6050.000000;0.021216
6049.000000;0.021212
6048.000000;0.021227
6047.000000;0.021228
6046.000000;0.021183
6045.000000;0.021096
6044.000000;0.021018
6043.000000;0.020989
6042.000000;0.020991
6041.000000;0.020977
6040.000000;0.020942
6039.000000;0.020919
6038.000000;0.020916
6037.000000;0.020890
6036.000000;0.020809
6035.000000;0.020691
6034.000000;0.020580
6033.000000;0.020504
6032.000000;0.020474
6031.000000;0.020487
6030.000000;0.020521
6029.000000;0.020551
6028.000000;0.020565
6027.000000;0.020565
6026.000000;0.020545
6025.000000;0.020496
6024.000000;0.020425
6023.000000;0.020351
6022.000000;0.020285
6021.000000;0.020230
6020.000000;0.020197
6019.000000;0.020188
6018.000000;0.020188
6017.000000;0.020187
6016.000000;0.020192
6015.000000;0.020209
6014.000000;0.020205
6013.000000;0.020155
6012.000000;0.020076
6011.000000;0.020011
6010.000000;0.019970
6009.000000;0.019934
6008.000000;0.019902
6007.000000;0.019890
6006.000000;0.019896
6005.000000;0.019890
6004.000000;0.019863
6003.000000;0.019831
6002.000000;0.019795
6001.000000;0.019740
6000.000000;0.019666
5999.000000;0.019598
5998.000000;0.019549
5997.000000;0.019503
5996.000000;0.019453
5995.000000;0.019409
5994.000000;0.019371
5993.000000;0.019324
5992.000000;0.019265
5991.000000;0.019210
5990.000000;0.019167
5989.000000;0.019129
5988.000000;0.019095
5987.000000;0.019068
5986.000000;0.019048
5985.000000;0.019026
5984.000000;0.019008
5983.000000;0.019003
5982.000000;0.018998
5981.000000;0.018970
5980.000000;0.018919
5979.000000;0.018867
5978.000000;0.018819
5977.000000;0.018771
5976.000000;0.018735
5975.000000;0.018724
5974.000000;0.018721
5973.000000;0.018689
5972.000000;0.018621
5971.000000;0.018546
5970.000000;0.018473
5969.000000;0.018390
5968.000000;0.018299
5967.000000;0.018233
5966.000000;0.018210
5965.000000;0.018205
5964.000000;0.018183
5963.000000;0.018135
5962.000000;0.018065
5961.000000;0.017979
5960.000000;0.017889
5959.000000;0.017820
5958.000000;0.017785
5957.000000;0.017778
5956.000000;0.017784
5955.000000;0.017787
5954.000000;0.017766
5953.000000;0.017708
5952.000000;0.017632
5951.000000;0.017573
5950.000000;0.017538
5949.000000;0.017503
5948.000000;0.017453
5947.000000;0.017400
5946.000000;0.017352
5945.000000;0.017300
5944.000000;0.017238
5943.000000;0.017177
5942.000000;0.017130
5941.000000;0.017094
5940.000000;0.017064
5939.000000;0.017044
5938.000000;0.017032
5937.000000;0.017010
5936.000000;0.016964
5935.000000;0.016900
5934.000000;0.016839
5933.000000;0.016792
5932.000000;0.016763
5931.000000;0.016739
5930.000000;0.016704
5929.000000;0.016651
5928.000000;0.016591
5927.000000;0.016534
5926.000000;0.016477
5925.000000;0.016415
5924.000000;0.016360
5923.000000;0.016322
5922.000000;0.016286
5921.000000;0.016234
5920.000000;0.016174
5919.000000;0.016118
5918.000000;0.016055
5917.000000;0.015973
5916.000000;0.015887
5915.000000;0.015828
5914.000000;0.015792
5913.000000;0.015753
5912.000000;0.015707
5911.000000;0.015669
5910.000000;0.015639
5909.000000;0.015589
5908.000000;0.015507
5907.000000;0.015417
5906.000000;0.015343
5905.000000;0.015289
5904.000000;0.015242
5903.000000;0.015191
5902.000000;0.015131
5901.000000;0.015058
5900.000000;0.014976
5899.000000;0.014892
5898.000000;0.014807
5897.000000;0.014725
5896.000000;0.014657
5895.000000;0.014611
5894.000000;0.014576
5893.000000;0.014537
5892.000000;0.014501
5891.000000;0.014475
5890.000000;0.014446
5889.000000;0.014402
5888.000000;0.014350
5887.000000;0.014306
5886.000000;0.014257
5885.000000;0.014193
5884.000000;0.014130
5883.000000;0.014094
5882.000000;0.014080
5881.000000;0.014054
5880.000000;0.014000
5879.000000;0.013928
5878.000000;0.013848
5877.000000;0.013766
5876.000000;0.013707
5875.000000;0.013687
5874.000000;0.013680
5873.000000;0.013639
5872.000000;0.013552
5871.000000;0.013446
5870.000000;0.013351
5869.000000;0.013273
5868.000000;0.013215
5867.000000;0.013175
5866.000000;0.013123
5865.000000;0.013034
5864.000000;0.012921
5863.000000;0.012827
5862.000000;0.012785
5861.000000;0.012789
5860.000000;0.012822
5859.000000;0.012859
5858.000000;0.012868
5857.000000;0.012826
5856.000000;0.012750
5855.000000;0.012671
5854.000000;0.012590
5853.000000;0.012488
5852.000000;0.012379
5851.000000;0.012306
5850.000000;0.012286
5849.000000;0.012285
5848.000000;0.012259
5847.000000;0.012195
5846.000000;0.012104
5845.000000;0.011999
5844.000000;0.011891
5843.000000;0.011781
5842.000000;0.011662
5841.000000;0.011535
5840.000000;0.011429
5839.000000;0.011372
5838.000000;0.011347
5837.000000;0.011311
5836.000000;0.011238
5835.000000;0.011134
5834.000000;0.011009
5833.000000;0.010874
5832.000000;0.010746
5831.000000;0.010641
5830.000000;0.010548
5829.000000;0.010448
5828.000000;0.010347
5827.000000;0.010263
5826.000000;0.010193
5825.000000;0.010129
5824.000000;0.010088
5823.000000;0.010091
5822.000000;0.010115
5821.000000;0.010107
5820.000000;0.010040
5819.000000;0.009933
5818.000000;0.009814
5817.000000;0.009704
5816.000000;0.009626
5815.000000;0.009602
5814.000000;0.009616
5813.000000;0.009621
5812.000000;0.009588
5811.000000;0.009526
5810.000000;0.009453
5809.000000;0.009372
5808.000000;0.009287
5807.000000;0.009202
5806.000000;0.009111
5805.000000;0.009007
5804.000000;0.008895
5803.000000;0.008794
5802.000000;0.008712
5801.000000;0.008647
5800.000000;0.008594
5799.000000;0.008542
5798.000000;0.008466
5797.000000;0.008356
5796.000000;0.008236
5795.000000;0.008140
5794.000000;0.008067
5793.000000;0.007998
5792.000000;0.007931
5791.000000;0.007861
5790.000000;0.007769
5789.000000;0.007649
5788.000000;0.007536
5787.000000;0.007465
5786.000000;0.007417
5785.000000;0.007344
5784.000000;0.007242
5783.000000;0.007148
5782.000000;0.007072
5781.000000;0.006984
5780.000000;0.006867
5779.000000;0.006741
5778.000000;0.006626
5777.000000;0.006522
5776.000000;0.006431
5775.000000;0.006361
5774.000000;0.006296
5773.000000;0.006206
5772.000000;0.006089
5771.000000;0.005973
5770.000000;0.005879
5769.000000;0.005796
5768.000000;0.005709
5767.000000;0.005617
5766.000000;0.005515
5765.000000;0.005395
5764.000000;0.005262
5763.000000;0.005134
5762.000000;0.005020
5761.000000;0.004909
5760.000000;0.004792
5759.000000;0.004677
5758.000000;0.004578
5757.000000;0.004503
5756.000000;0.004452
5755.000000;0.004410
5754.000000;0.004344
5753.000000;0.004241
5752.000000;0.004128
5751.000000;0.004036
5750.000000;0.003960
5749.000000;0.003878
5748.000000;0.003792
5747.000000;0.003719
5746.000000;0.003657
5745.000000;0.003589
5744.000000;0.003513
5743.000000;0.003439
5742.000000;0.003355
5741.000000;0.003238
5740.000000;0.003093
5739.000000;0.002948
5738.000000;0.002822
5737.000000;0.002714
5736.000000;0.002615
5735.000000;0.002518
5734.000000;0.002409
5733.000000;0.002289
5732.000000;0.002187
5731.000000;0.002120
5730.000000;0.002055
5729.000000;0.001949
5728.000000;0.001803
5727.000000;0.001659
5726.000000;0.001537
5725.000000;0.001424
5724.000000;0.001310
5723.000000;0.001192
5722.000000;0.001061
5721.000000;0.000916
5720.000000;0.000790
5719.000000;0.000723
5718.000000;0.000701
5717.000000;0.000673
5716.000000;0.000605
5715.000000;0.000498
5714.000000;0.000356
5713.000000;0.000184
5712.000000;0.000010
5711.000000;-0.000124
5710.000000;-0.000209
5709.000000;-0.000267
5708.000000;-0.000322
5707.000000;-0.000388
5706.000000;-0.000484
5705.000000;-0.000622
5704.000000;-0.000789
5703.000000;-0.000952
5702.000000;-0.001100
5701.000000;-0.001221
5700.000000;-0.001313
5699.000000;-0.001381
5698.000000;-0.001444
5697.000000;-0.001541
5696.000000;-0.001658
5695.000000;-0.001778
5694.000000;-0.001912
5693.000000;-0.002081
5692.000000;-0.002255
5691.000000;-0.002388
5690.000000;-0.002482
5689.000000;-0.002578
5688.000000;-0.002686
5687.000000;-0.002783
5686.000000;-0.002861
5685.000000;-0.002939
5684.000000;-0.003024
5683.000000;-0.003110
5682.000000;-0.003212
5681.000000;-0.003350
5680.000000;-0.003516
5679.000000;-0.003681
5678.000000;-0.003837
5677.000000;-0.003995
5676.000000;-0.004144
5675.000000;-0.004262
5674.000000;-0.004356
5673.000000;-0.004448
5672.000000;-0.004532
5671.000000;-0.004594
5670.000000;-0.004657
5669.000000;-0.004761
5668.000000;-0.004901
5667.000000;-0.005034
5666.000000;-0.005147
5665.000000;-0.005267
5664.000000;-0.005414
5663.000000;-0.005575
5662.000000;-0.005741
5661.000000;-0.005907
5660.000000;-0.006059
5659.000000;-0.006186
5658.000000;-0.006299
5657.000000;-0.006418
5656.000000;-0.006526
5655.000000;-0.006599
5654.000000;-0.006659
5653.000000;-0.006747
5652.000000;-0.006870
5651.000000;-0.006993
5650.000000;-0.007102
5649.000000;-0.007211
5648.000000;-0.007324
5647.000000;-0.007436
5646.000000;-0.007559
5645.000000;-0.007709
5644.000000;-0.007859
5643.000000;-0.007964
5642.000000;-0.008017
5641.000000;-0.008062
5640.000000;-0.008132
5639.000000;-0.008235
5638.000000;-0.008374
5637.000000;-0.008537
5636.000000;-0.008688
5635.000000;-0.008807
5634.000000;-0.008930
5633.000000;-0.009109
5632.000000;-0.009337
5631.000000;-0.009557
5630.000000;-0.009744
5629.000000;-0.009911
5628.000000;-0.010058
5627.000000;-0.010169
5626.000000;-0.010252
5625.000000;-0.010336
5624.000000;-0.010426
5623.000000;-0.010503
5622.000000;-0.010576
5621.000000;-0.010675
5620.000000;-0.010804
5619.000000;-0.010944
5618.000000;-0.011097
5617.000000;-0.011274
5616.000000;-0.011457
5615.000000;-0.011614
5614.000000;-0.011750
5613.000000;-0.011888
5612.000000;-0.012015
5611.000000;-0.012093
5610.000000;-0.012128
5609.000000;-0.012175
5608.000000;-0.012272
5607.000000;-0.012421
5606.000000;-0.012603
5605.000000;-0.012789
5604.000000;-0.012931
5603.000000;-0.013009
5602.000000;-0.013071
5601.000000;-0.013183
5600.000000;-0.013348
5599.000000;-0.013525
5598.000000;-0.013693
5597.000000;-0.013847
5596.000000;-0.013962
5595.000000;-0.014022
5594.000000;-0.014068
5593.000000;-0.014154
5592.000000;-0.014274
5591.000000;-0.014390
5590.000000;-0.014510
5589.000000;-0.014674
5588.000000;-0.014867
5587.000000;-0.015036
5586.000000;-0.015169
5585.000000;-0.015292
5584.000000;-0.015410
5583.000000;-0.015503
5582.000000;-0.015591
5581.000000;-0.015712
5580.000000;-0.015856
5579.000000;-0.015982
5578.000000;-0.016103
5577.000000;-0.016260
5576.000000;-0.016437
5575.000000;-0.016577
5574.000000;-0.016680
5573.000000;-0.016804
5572.000000;-0.016960
5571.000000;-0.017107
5570.000000;-0.017246
5569.000000;-0.017418
5568.000000;-0.017606
5567.000000;-0.017744
5566.000000;-0.017831
5565.000000;-0.017943
5564.000000;-0.018114
5563.000000;-0.018286
5562.000000;-0.018422
5561.000000;-0.018560
5560.000000;-0.018733
5559.000000;-0.018904
5558.000000;-0.019037
5557.000000;-0.019159
5556.000000;-0.019312
5555.000000;-0.019481
5554.000000;-0.019626
5553.000000;-0.019745
5552.000000;-0.019857
5551.000000;-0.019974
5550.000000;-0.020107
5549.000000;-0.020263
5548.000000;-0.020428
5547.000000;-0.020584
5546.000000;-0.020745
5545.000000;-0.020932
5544.000000;-0.021113
5543.000000;-0.021231
5542.000000;-0.021291
5541.000000;-0.021361
5540.000000;-0.021473
5539.000000;-0.021586
5538.000000;-0.021675
5537.000000;-0.021799
5536.000000;-0.022006
5535.000000;-0.022251
5534.000000;-0.022452
5533.000000;-0.022586
5532.000000;-0.022694
5531.000000;-0.022808
5530.000000;-0.022927
5529.000000;-0.023037
5528.000000;-0.023128
5527.000000;-0.023233
5526.000000;-0.023419
5525.000000;-0.023695
5524.000000;-0.023966
5523.000000;-0.024124
5522.000000;-0.024189
5521.000000;-0.024300
5520.000000;-0.024510
5519.000000;-0.024724
5518.000000;-0.024850
5517.000000;-0.024931
5516.000000;-0.025073
5515.000000;-0.025289
5514.000000;-0.025497
5513.000000;-0.025657
5512.000000;-0.025819
5511.000000;-0.026018
5510.000000;-0.026196
5509.000000;-0.026289
5508.000000;-0.026340
5507.000000;-0.026476
5506.000000;-0.026734
5505.000000;-0.026976
5504.000000;-0.027100
5503.000000;-0.027204
5502.000000;-0.027454
5501.000000;-0.027816
5500.000000;-0.028030
5499.000000;-0.027980
5498.000000;-0.027937
5497.000000;-0.028194
5496.000000;-0.028601
5495.000000;-0.028720
5494.000000;-0.028434
5493.000000;-0.028162
5492.000000;-0.028321
5491.000000;-0.028779
5490.000000;-0.029097
5489.000000;-0.029144
5488.000000;-0.029186
5487.000000;-0.029449
5486.000000;-0.029838
5485.000000;-0.030126
5484.000000;-0.030289
5483.000000;-0.030430
5482.000000;-0.030516
5481.000000;-0.030506
5480.000000;-0.030584
5479.000000;-0.030948
5478.000000;-0.031415
5477.000000;-0.031502
5476.000000;-0.031076
5475.000000;-0.030707
5474.000000;-0.031009
5473.000000;-0.031818
5472.000000;-0.032458
5471.000000;-0.032609
5470.000000;-0.032538
5469.000000;-0.032588
5468.000000;-0.032744
5467.000000;-0.032862
5466.000000;-0.033024
5465.000000;-0.033348
5464.000000;-0.033710
5463.000000;-0.033876
5462.000000;-0.033791
5461.000000;-0.033654
5460.000000;-0.033726
5459.000000;-0.034071
5458.000000;-0.034500
5457.000000;-0.034746
5456.000000;-0.034726
5455.000000;-0.034701
5454.000000;-0.035007
5453.000000;-0.035534
5452.000000;-0.035785
5451.000000;-0.035560
5450.000000;-0.035293
5449.000000;-0.035475
5448.000000;-0.035893
5447.000000;-0.035954
5446.000000;-0.035698
5445.000000;-0.035789
5444.000000;-0.036462
5443.000000;-0.037117
5442.000000;-0.037116
5441.000000;-0.036658
5440.000000;-0.036566
5439.000000;-0.037221
5438.000000;-0.038088
5437.000000;-0.038397
5436.000000;-0.037945
5435.000000;-0.037291
5434.000000;-0.037262
5433.000000;-0.038075
5432.000000;-0.039077
5431.000000;-0.039473
5430.000000;-0.039137
5429.000000;-0.038686
5428.000000;-0.038779
5427.000000;-0.039452
5426.000000;-0.040222
5425.000000;-0.040665
5424.000000;-0.040760
5423.000000;-0.040800
5422.000000;-0.041008
5421.000000;-0.041214
5420.000000;-0.041157
5419.000000;-0.041014
5418.000000;-0.041204
5417.000000;-0.041670
5416.000000;-0.041793
5415.000000;-0.041261
5414.000000;-0.040673
5413.000000;-0.040797
5412.000000;-0.041499
5411.000000;-0.042035
5410.000000;-0.042191
5409.000000;-0.042439
5408.000000;-0.043047
5407.000000;-0.043673
5406.000000;-0.043957
5405.000000;-0.044028
5404.000000;-0.044143
5403.000000;-0.044259
5402.000000;-0.044352
5401.000000;-0.044535
5400.000000;-0.044725
5399.000000;-0.044748
5398.000000;-0.044709
5397.000000;-0.044890
5396.000000;-0.045226
5395.000000;-0.045293
5394.000000;-0.045059
5393.000000;-0.045047
5392.000000;-0.045527
5391.000000;-0.046137
5390.000000;-0.046502
5389.000000;-0.046707
5388.000000;-0.046909
5387.000000;-0.046941
5386.000000;-0.046729
5385.000000;-0.046707
5384.000000;-0.047142
5383.000000;-0.047584
5382.000000;-0.047665
5381.000000;-0.047732
5380.000000;-0.048129
5379.000000;-0.048487
5378.000000;-0.048281
5377.000000;-0.047810
5376.000000;-0.047843
5375.000000;-0.048452
5374.000000;-0.049018
5373.000000;-0.049271
5372.000000;-0.049508
5371.000000;-0.049875
5370.000000;-0.050120
5369.000000;-0.050156
5368.000000;-0.050296
5367.000000;-0.050654
5366.000000;-0.050915
5365.000000;-0.050926
5364.000000;-0.050945
5363.000000;-0.051181
5362.000000;-0.051515
5361.000000;-0.051746
5360.000000;-0.051836
5359.000000;-0.051880
5358.000000;-0.052003
5357.000000;-0.052303
5356.000000;-0.052658
5355.000000;-0.052678
5354.000000;-0.052234
5353.000000;-0.051914
5352.000000;-0.052295
5351.000000;-0.052953
5350.000000;-0.053108
5349.000000;-0.052889
5348.000000;-0.053061
5347.000000;-0.053644
5346.000000;-0.053721
5345.000000;-0.052924
5344.000000;-0.052284
5343.000000;-0.052819
5342.000000;-0.054006
5341.000000;-0.054600
5340.000000;-0.054265
5339.000000;-0.053671
5338.000000;-0.053501
5337.000000;-0.053871
5336.000000;-0.054592
5335.000000;-0.055335
5334.000000;-0.055649
5333.000000;-0.055444
5332.000000;-0.055284
5331.000000;-0.055659
5330.000000;-0.056261
5329.000000;-0.056413
5328.000000;-0.056042
5327.000000;-0.055810
5326.000000;-0.056166
5325.000000;-0.056783
5324.000000;-0.057179
5323.000000;-0.057323
5322.000000;-0.057429
5321.000000;-0.057604
5320.000000;-0.057825
5319.000000;-0.058063
5318.000000;-0.058271
5317.000000;-0.058380
5316.000000;-0.058419
5315.000000;-0.058494
5314.000000;-0.058587
5313.000000;-0.058624
5312.000000;-0.058711
5311.000000;-0.058990
5310.000000;-0.059312
5309.000000;-0.059356
5308.000000;-0.059126
5307.000000;-0.059025
5306.000000;-0.059312
5305.000000;-0.059768
5304.000000;-0.060071
5303.000000;-0.060212
5302.000000;-0.060350
5301.000000;-0.060497
5300.000000;-0.060551
5299.000000;-0.060564
5298.000000;-0.060683
5297.000000;-0.060846
5296.000000;-0.060906
5295.000000;-0.060961
5294.000000;-0.061225
5293.000000;-0.061599
5292.000000;-0.061688
5291.000000;-0.061348
5290.000000;-0.061012
5289.000000;-0.061182
5288.000000;-0.061750
5287.000000;-0.062144
5286.000000;-0.062085
5285.000000;-0.061897
5284.000000;-0.062001
5283.000000;-0.062365
5282.000000;-0.062666
5281.000000;-0.062791
5280.000000;-0.062899
5279.000000;-0.063087
5278.000000;-0.063290
5277.000000;-0.063433
5276.000000;-0.063511
5275.000000;-0.063559
5274.000000;-0.063606
5273.000000;-0.063706
5272.000000;-0.063870
5271.000000;-0.063930
5270.000000;-0.063737
5269.000000;-0.063508
5268.000000;-0.063603
5267.000000;-0.063949
5266.000000;-0.064074
5265.000000;-0.063772
5264.000000;-0.063439
5263.000000;-0.063562
5262.000000;-0.064050
5261.000000;-0.064433
5260.000000;-0.064590
5259.000000;-0.064803
5258.000000;-0.065157
5257.000000;-0.065355
5256.000000;-0.065165
5255.000000;-0.064812
5254.000000;-0.064738
5253.000000;-0.065114
5252.000000;-0.065708
5251.000000;-0.066062
5250.000000;-0.065859
5249.000000;-0.065313
5248.000000;-0.065032
5247.000000;-0.065347
5246.000000;-0.065893
5245.000000;-0.066090
5244.000000;-0.065946
5243.000000;-0.066036
5242.000000;-0.066615
5241.000000;-0.067212
5240.000000;-0.067352
5239.000000;-0.067219
5238.000000;-0.067231
5237.000000;-0.067390
5236.000000;-0.067458
5235.000000;-0.067461
5234.000000;-0.067600
5233.000000;-0.067804
5232.000000;-0.067793
5231.000000;-0.067616
5230.000000;-0.067680
5229.000000;-0.068092
5228.000000;-0.068399
5227.000000;-0.068208
5226.000000;-0.067745
5225.000000;-0.067549
5224.000000;-0.067822
5223.000000;-0.068319
5222.000000;-0.068759
5221.000000;-0.069035
5220.000000;-0.069150
5219.000000;-0.069176
5218.000000;-0.069228
5217.000000;-0.069386
5216.000000;-0.069575
5215.000000;-0.069668
5214.000000;-0.069703
5213.000000;-0.069795
5212.000000;-0.069914
5211.000000;-0.069962
5210.000000;-0.069940
5209.000000;-0.069876
5208.000000;-0.069700
5207.000000;-0.069419
5206.000000;-0.069309
5205.000000;-0.069657
5204.000000;-0.070295
5203.000000;-0.070744
5202.000000;-0.070835
5201.000000;-0.070851
5200.000000;-0.071012
5199.000000;-0.071138
5198.000000;-0.071027
5197.000000;-0.070888
5196.000000;-0.071031
5195.000000;-0.071370
5194.000000;-0.071595
5193.000000;-0.071639
5192.000000;-0.071654
5191.000000;-0.071700
5190.000000;-0.071727
5189.000000;-0.071794
5188.000000;-0.071995
5187.000000;-0.072179
5186.000000;-0.072108
5185.000000;-0.071893
5184.000000;-0.071915
5183.000000;-0.072270
5182.000000;-0.072627
5181.000000;-0.072738
5180.000000;-0.072750
5179.000000;-0.072870
5178.000000;-0.073035
5177.000000;-0.073093
5176.000000;-0.073105
5175.000000;-0.073226
5174.000000;-0.073421
5173.000000;-0.073541
5172.000000;-0.073559
5171.000000;-0.073561
5170.000000;-0.073602
5169.000000;-0.073704
5168.000000;-0.073906
5167.000000;-0.074172
5166.000000;-0.074338
5165.000000;-0.074309
5164.000000;-0.074207
5163.000000;-0.074209
5162.000000;-0.074306
5161.000000;-0.074379
5160.000000;-0.074412
5159.000000;-0.074470
5158.000000;-0.074529
5157.000000;-0.074510
5156.000000;-0.074453
5155.000000;-0.074496
5154.000000;-0.074664
5153.000000;-0.074840
5152.000000;-0.074954
5151.000000;-0.075064
5150.000000;-0.075216
5149.000000;-0.075361
5148.000000;-0.075439
5147.000000;-0.075466
5146.000000;-0.075498
5145.000000;-0.075556
5144.000000;-0.075620
5143.000000;-0.075675
5142.000000;-0.075726
5141.000000;-0.075804
5140.000000;-0.075937
5139.000000;-0.076109
5138.000000;-0.076273
5137.000000;-0.076415
5136.000000;-0.076565
5135.000000;-0.076730
5134.000000;-0.076850
5133.000000;-0.076886
5132.000000;-0.076872
5131.000000;-0.076851
5130.000000;-0.076817
5129.000000;-0.076772
5128.000000;-0.076772
5127.000000;-0.076851
5126.000000;-0.076949
5125.000000;-0.076989
5124.000000;-0.076999
5123.000000;-0.077061
5122.000000;-0.077189
5121.000000;-0.077330
5120.000000;-0.077459
5119.000000;-0.077588
5118.000000;-0.077709
5117.000000;-0.077797
5116.000000;-0.077865
5115.000000;-0.077959
5114.000000;-0.078082
5113.000000;-0.078213
5112.000000;-0.078347
5111.000000;-0.078493
5110.000000;-0.078621
5109.000000;-0.078695
5108.000000;-0.078736
5107.000000;-0.078796
5106.000000;-0.078887
5105.000000;-0.078981
5104.000000;-0.079071
5103.000000;-0.079168
5102.000000;-0.079260
5101.000000;-0.079326
5100.000000;-0.079385
5099.000000;-0.079474
5098.000000;-0.079592
5097.000000;-0.079697
5096.000000;-0.079767
5095.000000;-0.079810
5094.000000;-0.079832
5093.000000;-0.079843
5092.000000;-0.079872
5091.000000;-0.079942
5090.000000;-0.080021
5089.000000;-0.080066
5088.000000;-0.080081
5087.000000;-0.080094
5086.000000;-0.080108
5085.000000;-0.080110
5084.000000;-0.080130
5083.000000;-0.080219
5082.000000;-0.080369
5081.000000;-0.080513
5080.000000;-0.080607
5079.000000;-0.080659
5078.000000;-0.080701
5077.000000;-0.080757
5076.000000;-0.080849
5075.000000;-0.080979
5074.000000;-0.081112
5073.000000;-0.081216
5072.000000;-0.081301
5071.000000;-0.081397
5070.000000;-0.081499
5069.000000;-0.081577
5068.000000;-0.081635
5067.000000;-0.081703
5066.000000;-0.081786
5065.000000;-0.081859
5064.000000;-0.081905
5063.000000;-0.081936
5062.000000;-0.081966
5061.000000;-0.082002
5060.000000;-0.082058
5059.000000;-0.082135
5058.000000;-0.082209
5057.000000;-0.082251
5056.000000;-0.082269
5055.000000;-0.082287
5054.000000;-0.082312
5053.000000;-0.082343
5052.000000;-0.082400
5051.000000;-0.082498
5050.000000;-0.082613
5049.000000;-0.082708
5048.000000;-0.082775
5047.000000;-0.082838
5046.000000;-0.082907
5045.000000;-0.082987
5044.000000;-0.083097
5043.000000;-0.083245
5042.000000;-0.083390
5041.000000;-0.083479
5040.000000;-0.083506
5039.000000;-0.083514
5038.000000;-0.083538
5037.000000;-0.083594
5036.000000;-0.083690
5035.000000;-0.083811
5034.000000;-0.083912
5033.000000;-0.083957
5032.000000;-0.083974
5031.000000;-0.084023
5030.000000;-0.084127
5029.000000;-0.084258
5028.000000;-0.084386
5027.000000;-0.084500
5026.000000;-0.084590
5025.000000;-0.084646
5024.000000;-0.084673
5023.000000;-0.084687
5022.000000;-0.084703
5021.000000;-0.084734
5020.000000;-0.084802
5019.000000;-0.084913
5018.000000;-0.085031
5017.000000;-0.085108
5016.000000;-0.085141
5015.000000;-0.085171
5014.000000;-0.085234
5013.000000;-0.085338
5012.000000;-0.085477
5011.000000;-0.085628
5010.000000;-0.085754
5009.000000;-0.085829
5008.000000;-0.085863
5007.000000;-0.085886
5006.000000;-0.085916
5005.000000;-0.085963
5004.000000;-0.086018
5003.000000;-0.086054
5002.000000;-0.086097
5001.000000;-0.086107
5000.000000;-0.086124
4999.000000;-0.086174
4998.000000;-0.086248
4997.000000;-0.086320
4996.000000;-0.086393
4995.000000;-0.086477
4994.000000;-0.086555
4993.000000;-0.086610
4992.000000;-0.086659
4991.000000;-0.086736
4990.000000;-0.086841
4989.000000;-0.086947
4988.000000;-0.087040
4987.000000;-0.087133
4986.000000;-0.087235
4985.000000;-0.087352
4984.000000;-0.087489
4983.000000;-0.087629
4982.000000;-0.087727
4981.000000;-0.087762
4980.000000;-0.087773
4979.000000;-0.087823
4978.000000;-0.087928
4977.000000;-0.088052
4976.000000;-0.088164
4975.000000;-0.088261
4974.000000;-0.088343
4973.000000;-0.088412
4972.000000;-0.088474
4971.000000;-0.088533
4970.000000;-0.088582
4969.000000;-0.088624
4968.000000;-0.088688
4967.000000;-0.088791
4966.000000;-0.088909
4965.000000;-0.088997
4964.000000;-0.089044
4963.000000;-0.089074
4962.000000;-0.089112
4961.000000;-0.089182
4960.000000;-0.089300
4959.000000;-0.089449
4958.000000;-0.089581
4957.000000;-0.089658
4956.000000;-0.089705
4955.000000;-0.089764
4954.000000;-0.089846
4953.000000;-0.089938
4952.000000;-0.090041
4951.000000;-0.090154
4950.000000;-0.090246
4949.000000;-0.090282
4948.000000;-0.090274
4947.000000;-0.090262
4946.000000;-0.090280
4945.000000;-0.090337
4944.000000;-0.090447
4943.000000;-0.090605
4942.000000;-0.090771
4941.000000;-0.090899
4940.000000;-0.090996
4939.000000;-0.091104
4938.000000;-0.091242
4937.000000;-0.091390
4936.000000;-0.091519
4935.000000;-0.091618
4934.000000;-0.091687
4933.000000;-0.091741
4932.000000;-0.091810
4931.000000;-0.091909
4930.000000;-0.092016
4929.000000;-0.092115
4928.000000;-0.092221
4927.000000;-0.092347
4926.000000;-0.092469
4925.000000;-0.092556
4924.000000;-0.092626
4923.000000;-0.092729
4922.000000;-0.092873
4921.000000;-0.093019
4920.000000;-0.093133
4919.000000;-0.093208
4918.000000;-0.093246
4917.000000;-0.093264
4916.000000;-0.093307
4915.000000;-0.093418
4914.000000;-0.093586
4913.000000;-0.093757
4912.000000;-0.093892
4911.000000;-0.093987
4910.000000;-0.094048
4909.000000;-0.094092
4908.000000;-0.094156
4907.000000;-0.094273
4906.000000;-0.094433
4905.000000;-0.094593
4904.000000;-0.094735
4903.000000;-0.094867
4902.000000;-0.094995
4901.000000;-0.095110
4900.000000;-0.095216
4899.000000;-0.095330
4898.000000;-0.095449
4897.000000;-0.095551
4896.000000;-0.095633
4895.000000;-0.095714
4894.000000;-0.095806
4893.000000;-0.095908
4892.000000;-0.096025
4891.000000;-0.096165
4890.000000;-0.096320
4889.000000;-0.096470
4888.000000;-0.096606
4887.000000;-0.096734
4886.000000;-0.096849
4885.000000;-0.096942
4884.000000;-0.097019
4883.000000;-0.097104
4882.000000;-0.097207
4881.000000;-0.097320
4880.000000;-0.097437
4879.000000;-0.097544
4878.000000;-0.097617
4877.000000;-0.097649
4876.000000;-0.097675
4875.000000;-0.097741
4874.000000;-0.097842
4873.000000;-0.097933
4872.000000;-0.097996
4871.000000;-0.098057
4870.000000;-0.098143
4869.000000;-0.098253
4868.000000;-0.098375
4867.000000;-0.098502
4866.000000;-0.098619
4865.000000;-0.098709
4864.000000;-0.098781
4863.000000;-0.098878
4862.000000;-0.099030
4861.000000;-0.099220
4860.000000;-0.099402
4859.000000;-0.099536
4858.000000;-0.099615
4857.000000;-0.099667
4856.000000;-0.099734
4855.000000;-0.099836
4854.000000;-0.099961
4853.000000;-0.100089
4852.000000;-0.100222
4851.000000;-0.100362
4850.000000;-0.100481
4849.000000;-0.100545
4848.000000;-0.100560
4847.000000;-0.100575
4846.000000;-0.100628
4845.000000;-0.100713
4844.000000;-0.100806
4843.000000;-0.100886
4842.000000;-0.100946
4841.000000;-0.101000
4840.000000;-0.101080
4839.000000;-0.101211
4838.000000;-0.101380
4837.000000;-0.101552
4836.000000;-0.101701
4835.000000;-0.101825
4834.000000;-0.101921
4833.000000;-0.101990
4832.000000;-0.102051
4831.000000;-0.102133
4830.000000;-0.102243
4829.000000;-0.102364
4828.000000;-0.102485
4827.000000;-0.102607
4826.000000;-0.102732
4825.000000;-0.102864
4824.000000;-0.103007
4823.000000;-0.103167
4822.000000;-0.103329
4821.000000;-0.103468
4820.000000;-0.103571
4819.000000;-0.103638
4818.000000;-0.103675
4817.000000;-0.103691
4816.000000;-0.103715
4815.000000;-0.103776
4814.000000;-0.103882
4813.000000;-0.104006
4812.000000;-0.104115
4811.000000;-0.104190
4810.000000;-0.104232
4809.000000;-0.104273
4808.000000;-0.104361
4807.000000;-0.104505
4806.000000;-0.104659
4805.000000;-0.104765
4804.000000;-0.104810
4803.000000;-0.104830
4802.000000;-0.104863
4801.000000;-0.104928
4800.000000;-0.105040
4799.000000;-0.105206
4798.000000;-0.105402
4797.000000;-0.105576
4796.000000;-0.105680
4795.000000;-0.105711
4794.000000;-0.105715
4793.000000;-0.105759
4792.000000;-0.105886
4791.000000;-0.106074
4790.000000;-0.106243
4789.000000;-0.106339
4788.000000;-0.106382
4787.000000;-0.106441
4786.000000;-0.106559
4785.000000;-0.106728
4784.000000;-0.106913
4783.000000;-0.107071
4782.000000;-0.107161
4781.000000;-0.107169
4780.000000;-0.107126
4779.000000;-0.107088
4778.000000;-0.107093
4777.000000;-0.107150
4776.000000;-0.107254
4775.000000;-0.107382
4774.000000;-0.107495
4773.000000;-0.107561
4772.000000;-0.107590
4771.000000;-0.107615
4770.000000;-0.107662
4769.000000;-0.107743
4768.000000;-0.107865
4767.000000;-0.108014
4766.000000;-0.108140
4765.000000;-0.108191
4764.000000;-0.108172
4763.000000;-0.108148
4762.000000;-0.108177
4761.000000;-0.108268
4760.000000;-0.108394
4759.000000;-0.108524
4758.000000;-0.108637
4757.000000;-0.108730
4756.000000;-0.108809
4755.000000;-0.108885
4754.000000;-0.108956
4753.000000;-0.109023
4752.000000;-0.109103
4751.000000;-0.109211
4750.000000;-0.109328
4749.000000;-0.109422
4748.000000;-0.109484
4747.000000;-0.109544
4746.000000;-0.109631
4745.000000;-0.109759
4744.000000;-0.109917
4743.000000;-0.110074
4742.000000;-0.110191
4741.000000;-0.110247
4740.000000;-0.110259
4739.000000;-0.110263
4738.000000;-0.110275
4737.000000;-0.110299
4736.000000;-0.110345
4735.000000;-0.110416
4734.000000;-0.110500
4733.000000;-0.110574
4732.000000;-0.110645
4731.000000;-0.110738
4730.000000;-0.110859
4729.000000;-0.110984
4728.000000;-0.111086
4727.000000;-0.111158
4726.000000;-0.111212
4725.000000;-0.111278
4724.000000;-0.111392
4723.000000;-0.111564
4722.000000;-0.111753
4721.000000;-0.111898
4720.000000;-0.111963
4719.000000;-0.111967
4718.000000;-0.111952
4717.000000;-0.111946
4716.000000;-0.111970
4715.000000;-0.112037
4714.000000;-0.112148
4713.000000;-0.112283
4712.000000;-0.112404
4711.000000;-0.112473
4710.000000;-0.112473
4709.000000;-0.112430
4708.000000;-0.112402
4707.000000;-0.112434
4706.000000;-0.112519
4705.000000;-0.112617
4704.000000;-0.112681
4703.000000;-0.112686
4702.000000;-0.112636
4701.000000;-0.112590
4700.000000;-0.112631
4699.000000;-0.112789
4698.000000;-0.113001
4697.000000;-0.113165
4696.000000;-0.113240
4695.000000;-0.113255
4694.000000;-0.113257
4693.000000;-0.113268
4692.000000;-0.113303
4691.000000;-0.113389
4690.000000;-0.113532
4689.000000;-0.113697
4688.000000;-0.113828
4687.000000;-0.113887
4686.000000;-0.113879
4685.000000;-0.113844
4684.000000;-0.113832
4683.000000;-0.113859
4682.000000;-0.113897
4681.000000;-0.113905
4680.000000;-0.113868
4679.000000;-0.113809
4678.000000;-0.113763
4677.000000;-0.113756
4676.000000;-0.113800
4675.000000;-0.113887
4674.000000;-0.113992
4673.000000;-0.114088
4672.000000;-0.114162
4671.000000;-0.114203
4670.000000;-0.114208
4669.000000;-0.114197
4668.000000;-0.114211
4667.000000;-0.114275
4666.000000;-0.114360
4665.000000;-0.114425
4664.000000;-0.114462
4663.000000;-0.114489
4662.000000;-0.114514
4661.000000;-0.114531
4660.000000;-0.114543
4659.000000;-0.114559
4658.000000;-0.114566
4657.000000;-0.114541
4656.000000;-0.114485
4655.000000;-0.114433
4654.000000;-0.114421
4653.000000;-0.114459
4652.000000;-0.114538
4651.000000;-0.114622
4650.000000;-0.114657
4649.000000;-0.114606
4648.000000;-0.114496
4647.000000;-0.114398
4646.000000;-0.114372
4645.000000;-0.114424
4644.000000;-0.114514
4643.000000;-0.114582
4642.000000;-0.114569
4641.000000;-0.114453
4640.000000;-0.114277
4639.000000;-0.114122
4638.000000;-0.114051
4637.000000;-0.114065
4636.000000;-0.114124
4635.000000;-0.114186
4634.000000;-0.114229
4633.000000;-0.114248
4632.000000;-0.114248
4631.000000;-0.114230
4630.000000;-0.114196
4629.000000;-0.114158
4628.000000;-0.114130
4627.000000;-0.114112
4626.000000;-0.114079
4625.000000;-0.114024
4624.000000;-0.113967
4623.000000;-0.113936
4622.000000;-0.113922
4621.000000;-0.113898
4620.000000;-0.113851
4619.000000;-0.113788
4618.000000;-0.113710
4617.000000;-0.113616
4616.000000;-0.113512
4615.000000;-0.113411
4614.000000;-0.113325
4613.000000;-0.113262
4612.000000;-0.113229
4611.000000;-0.113198
4610.000000;-0.113106
4609.000000;-0.112921
4608.000000;-0.112694
4607.000000;-0.112518
4606.000000;-0.112432
4605.000000;-0.112397
4604.000000;-0.112363
4603.000000;-0.112313
4602.000000;-0.112250
4601.000000;-0.112166
4600.000000;-0.112061
4599.000000;-0.111955
4598.000000;-0.111858
4597.000000;-0.111753
4596.000000;-0.111611
4595.000000;-0.111427
4594.000000;-0.111221
4593.000000;-0.111022
4592.000000;-0.110847
4591.000000;-0.110702
4590.000000;-0.110592
4589.000000;-0.110520
4588.000000;-0.110476
4587.000000;-0.110430
4586.000000;-0.110342
4585.000000;-0.110201
4584.000000;-0.110039
4583.000000;-0.109888
4582.000000;-0.109732
4581.000000;-0.109516
4580.000000;-0.109209
4579.000000;-0.108838
4578.000000;-0.108462
4577.000000;-0.108124
4576.000000;-0.107835
4575.000000;-0.107582
4574.000000;-0.107342
4573.000000;-0.107090
4572.000000;-0.106806
4571.000000;-0.106473
4570.000000;-0.106083
4569.000000;-0.105652
4568.000000;-0.105215
4567.000000;-0.104801
4566.000000;-0.104424
4565.000000;-0.104094
4564.000000;-0.103812
4563.000000;-0.103549
4562.000000;-0.103248
4561.000000;-0.102881
4560.000000;-0.102484
4559.000000;-0.102099
4558.000000;-0.101704
4557.000000;-0.101231
4556.000000;-0.100663
4555.000000;-0.100068
4554.000000;-0.099546
4553.000000;-0.099142
4552.000000;-0.098811
4551.000000;-0.098459
4550.000000;-0.097995
4549.000000;-0.097393
4548.000000;-0.096703
4547.000000;-0.096013
4546.000000;-0.095384
4545.000000;-0.094825
4544.000000;-0.094309
4543.000000;-0.093792
4542.000000;-0.093231
4541.000000;-0.092613
4540.000000;-0.091974
4539.000000;-0.091378
4538.000000;-0.090872
4537.000000;-0.090455
4536.000000;-0.090079
4535.000000;-0.089682
4534.000000;-0.089216
4533.000000;-0.088688
4532.000000;-0.088161
4531.000000;-0.087698
4530.000000;-0.087312
4529.000000;-0.086971
4528.000000;-0.086646
4527.000000;-0.086321
4526.000000;-0.085994
4525.000000;-0.085677
4524.000000;-0.085390
4523.000000;-0.085150
4522.000000;-0.084941
4521.000000;-0.084733
4520.000000;-0.084512
4519.000000;-0.084280
4518.000000;-0.084040
4517.000000;-0.083794
4516.000000;-0.083556
4515.000000;-0.083343
4514.000000;-0.083152
4513.000000;-0.082957
4512.000000;-0.082718
4511.000000;-0.082395
4510.000000;-0.081983
4509.000000;-0.081545
4508.000000;-0.081186
4507.000000;-0.080971
4506.000000;-0.080868
4505.000000;-0.080791
4504.000000;-0.080681
4503.000000;-0.080514
4502.000000;-0.080287
4501.000000;-0.080014
4500.000000;-0.079753
4499.000000;-0.079553
4498.000000;-0.079399
4497.000000;-0.079220
4496.000000;-0.078961
4495.000000;-0.078624
4494.000000;-0.078245
4493.000000;-0.077878
4492.000000;-0.077584
4491.000000;-0.077397
4490.000000;-0.077276
4489.000000;-0.077123
4488.000000;-0.076862
4487.000000;-0.076497
4486.000000;-0.076086
4485.000000;-0.075692
4484.000000;-0.075360
4483.000000;-0.075095
4482.000000;-0.074854
4481.000000;-0.074574
4480.000000;-0.074219
4479.000000;-0.073802
4478.000000;-0.073362
4477.000000;-0.072937
4476.000000;-0.072556
4475.000000;-0.072217
4474.000000;-0.071880
4473.000000;-0.071498
4472.000000;-0.071069
4471.000000;-0.070632
4470.000000;-0.070218
4469.000000;-0.069831
4468.000000;-0.069472
4467.000000;-0.069136
4466.000000;-0.068789
4465.000000;-0.068384
4464.000000;-0.067908
4463.000000;-0.067403
4462.000000;-0.066912
4461.000000;-0.066442
4460.000000;-0.065983
4459.000000;-0.065537
4458.000000;-0.065097
4457.000000;-0.064627
4456.000000;-0.064094
4455.000000;-0.063520
4454.000000;-0.062979
4453.000000;-0.062537
4452.000000;-0.062203
4451.000000;-0.061922
4450.000000;-0.061609
4449.000000;-0.061184
4448.000000;-0.060628
4447.000000;-0.059993
4446.000000;-0.059376
4445.000000;-0.058840
4444.000000;-0.058376
4443.000000;-0.057924
4442.000000;-0.057436
4441.000000;-0.056910
4440.000000;-0.056368
4439.000000;-0.055824
4438.000000;-0.055274
4437.000000;-0.054728
4436.000000;-0.054208
4435.000000;-0.053713
4434.000000;-0.053207
4433.000000;-0.052658
4432.000000;-0.052077
4431.000000;-0.051492
4430.000000;-0.050914
4429.000000;-0.050332
4428.000000;-0.049749
4427.000000;-0.049177
4426.000000;-0.048607
4425.000000;-0.048002
4424.000000;-0.047339
4423.000000;-0.046640
4422.000000;-0.045967
4421.000000;-0.045370
4420.000000;-0.044842
4419.000000;-0.044321
4418.000000;-0.043734
4417.000000;-0.043049
4416.000000;-0.042297
4415.000000;-0.041537
4414.000000;-0.040822
4413.000000;-0.040175
4412.000000;-0.039584
4411.000000;-0.039004
4410.000000;-0.038384
4409.000000;-0.037712
4408.000000;-0.037017
4407.000000;-0.036319
4406.000000;-0.035605
4405.000000;-0.034872
4404.000000;-0.034145
4403.000000;-0.033439
4402.000000;-0.032719
4401.000000;-0.031952
4400.000000;-0.031163
4399.000000;-0.030412
4398.000000;-0.029721
4397.000000;-0.029049
4396.000000;-0.028349
4395.000000;-0.027594
4394.000000;-0.026770
4393.000000;-0.025877
4392.000000;-0.024948
4391.000000;-0.024040
4390.000000;-0.023190
4389.000000;-0.022400
4388.000000;-0.021641
4387.000000;-0.020869
4386.000000;-0.020019
4385.000000;-0.019049
4384.000000;-0.017988
4383.000000;-0.016923
4382.000000;-0.015926
4381.000000;-0.014994
4380.000000;-0.014073
4379.000000;-0.013130
4378.000000;-0.012168
4377.000000;-0.011201
4376.000000;-0.010218
4375.000000;-0.009215
4374.000000;-0.008215
4373.000000;-0.007262
4372.000000;-0.006357
4371.000000;-0.005438
4370.000000;-0.004432
4369.000000;-0.003328
4368.000000;-0.002173
4367.000000;-0.001004
4366.000000;0.000172
4365.000000;0.001340
4364.000000;0.002463
4363.000000;0.003543
4362.000000;0.004635
4361.000000;0.005777
4360.000000;0.006936
4359.000000;0.008061
4358.000000;0.009165
4357.000000;0.010302
4356.000000;0.011496
4355.000000;0.012733
4354.000000;0.014011
4353.000000;0.015340
4352.000000;0.016696
4351.000000;0.018010
4350.000000;0.019244
4349.000000;0.020429
4348.000000;0.021640
4347.000000;0.022926
4346.000000;0.024276
4345.000000;0.025640
4344.000000;0.026972
4343.000000;0.028269
4342.000000;0.029559
4341.000000;0.030865
4340.000000;0.032200
4339.000000;0.033594
4338.000000;0.035076
4337.000000;0.036611
4336.000000;0.038094
4335.000000;0.039454
4334.000000;0.040738
4333.000000;0.042043
4332.000000;0.043420
4331.000000;0.044866
4330.000000;0.046394
4329.000000;0.048016
4328.000000;0.049679
4327.000000;0.051270
4326.000000;0.052721
4325.000000;0.054062
4324.000000;0.055374
4323.000000;0.056735
4322.000000;0.058205
4321.000000;0.059801
4320.000000;0.061474
4319.000000;0.063129
4318.000000;0.064701
4317.000000;0.066193
4316.000000;0.067660
4315.000000;0.069174
4314.000000;0.070777
4313.000000;0.072442
4312.000000;0.074081
4311.000000;0.075624
4310.000000;0.077100
4309.000000;0.078596
4308.000000;0.080182
4307.000000;0.081880
4306.000000;0.083673
4305.000000;0.085500
4304.000000;0.087244
4303.000000;0.088813
4302.000000;0.090250
4301.000000;0.091714
4300.000000;0.093344
4299.000000;0.095169
4298.000000;0.097134
4297.000000;0.099134
4296.000000;0.101040
4295.000000;0.102770
4294.000000;0.104377
4293.000000;0.106031
4292.000000;0.107872
4291.000000;0.109889
4290.000000;0.111945
4289.000000;0.113896
4288.000000;0.115678
4287.000000;0.117339
4286.000000;0.119001
4285.000000;0.120785
4284.000000;0.122740
4283.000000;0.124830
4282.000000;0.126961
4281.000000;0.129008
4280.000000;0.130885
4279.000000;0.132617
4278.000000;0.134356
4277.000000;0.136248
4276.000000;0.138306
4275.000000;0.140437
4274.000000;0.142559
4273.000000;0.144642
4272.000000;0.146656
4271.000000;0.148572
4270.000000;0.150439
4269.000000;0.152373
4268.000000;0.154440
4267.000000;0.156593
4266.000000;0.158751
4265.000000;0.160891
4264.000000;0.163015
4263.000000;0.165099
4262.000000;0.167117
4261.000000;0.169099
4260.000000;0.171118
4259.000000;0.173226
4258.000000;0.175431
4257.000000;0.177707
4256.000000;0.180009
4255.000000;0.182286
4254.000000;0.184517
4253.000000;0.186734
4252.000000;0.188981
4251.000000;0.191261
4250.000000;0.193523
4249.000000;0.195702
4248.000000;0.197775
4247.000000;0.199804
4246.000000;0.201912
4245.000000;0.204198
4244.000000;0.206644
4243.000000;0.209124
4242.000000;0.211505
4241.000000;0.213746
4240.000000;0.215907
4239.000000;0.218092
4238.000000;0.220379
4237.000000;0.222782
4236.000000;0.225261
4235.000000;0.227756
4234.000000;0.230218
4233.000000;0.232615
4232.000000;0.234955
4231.000000;0.237320
4230.000000;0.239822
4229.000000;0.242498
4228.000000;0.245268
4227.000000;0.248032
4226.000000;0.250765
4225.000000;0.253473
4224.000000;0.256113
4223.000000;0.258647
4222.000000;0.261145
4221.000000;0.263750
4220.000000;0.266535
4219.000000;0.269438
4218.000000;0.272340
4217.000000;0.275161
4216.000000;0.277895
4215.000000;0.280609
4214.000000;0.283418
4213.000000;0.286371
4212.000000;0.289367
4211.000000;0.292257
4210.000000;0.295020
4209.000000;0.297785
4208.000000;0.300654
4207.000000;0.303608
4206.000000;0.306611
4205.000000;0.309701
4204.000000;0.312910
4203.000000;0.316152
4202.000000;0.319283
4201.000000;0.322253
4200.000000;0.325134
4199.000000;0.328026
4198.000000;0.331003
4197.000000;0.334134
4196.000000;0.337479
4195.000000;0.341023
4194.000000;0.344630
4193.000000;0.348113
4192.000000;0.351363
4191.000000;0.354433
4190.000000;0.357515
4189.000000;0.360798
4188.000000;0.364333
4187.000000;0.367988
4186.000000;0.371564
4185.000000;0.374960
4184.000000;0.378245
4183.000000;0.381585
4182.000000;0.385093
4181.000000;0.388736
4180.000000;0.392375
4179.000000;0.395865
4178.000000;0.399144
4177.000000;0.402287
4176.000000;0.405489
4175.000000;0.408967
4174.000000;0.412782
4173.000000;0.416748
4172.000000;0.420590
4171.000000;0.424196
4170.000000;0.427691
4169.000000;0.431268
4168.000000;0.435018
4167.000000;0.438949
4166.000000;0.443046
4165.000000;0.447225
4164.000000;0.451306
4163.000000;0.455126
4162.000000;0.458697
4161.000000;0.462184
4160.000000;0.465749
4159.000000;0.469474
4158.000000;0.473397
4157.000000;0.477509
4156.000000;0.481692
4155.000000;0.485739
4154.000000;0.489525
4153.000000;0.493147
4152.000000;0.496841
4151.000000;0.500749
4150.000000;0.504799
4149.000000;0.508843
4148.000000;0.512854
4147.000000;0.516927
4146.000000;0.521103
4145.000000;0.525282
4144.000000;0.529369
4143.000000;0.533398
4142.000000;0.537448
4141.000000;0.541513
4140.000000;0.545554
4139.000000;0.549600
4138.000000;0.553688
4137.000000;0.557766
4136.000000;0.561798
4135.000000;0.565904
4134.000000;0.570190
4133.000000;0.574474
4132.000000;0.578412
4131.000000;0.581939
4130.000000;0.585393
4129.000000;0.589128
4128.000000;0.593188
4127.000000;0.597431
4126.000000;0.601750
4125.000000;0.606068
4124.000000;0.610273
4123.000000;0.614330
4122.000000;0.618343
4121.000000;0.622388
4120.000000;0.626411
4119.000000;0.630368
4118.000000;0.634304
4117.000000;0.638212
4116.000000;0.641967
4115.000000;0.645568
4114.000000;0.649291
4113.000000;0.653406
4112.000000;0.657849
4111.000000;0.662326
4110.000000;0.666649
4109.000000;0.670795
4108.000000;0.674747
4107.000000;0.678480
4106.000000;0.682066
4105.000000;0.685638
4104.000000;0.689243
4103.000000;0.692847
4102.000000;0.696459
4101.000000;0.700160
4100.000000;0.703987
4099.000000;0.707872
4098.000000;0.711704
4097.000000;0.715455
4096.000000;0.719266
4095.000000;0.723326
4094.000000;0.727590
4093.000000;0.731696
4092.000000;0.735364
4091.000000;0.738792
4090.000000;0.742389
4089.000000;0.746138
4088.000000;0.749574
4087.000000;0.752481
4086.000000;0.755277
4085.000000;0.758516
4084.000000;0.762271
4083.000000;0.766186
4082.000000;0.769931
4081.000000;0.773396
4080.000000;0.776645
4079.000000;0.779843
4078.000000;0.783118
4077.000000;0.786356
4076.000000;0.789353
4075.000000;0.792226
4074.000000;0.795383
4073.000000;0.798953
4072.000000;0.802541
4071.000000;0.805789
4070.000000;0.808881
4069.000000;0.812211
4068.000000;0.815807
4067.000000;0.819379
4066.000000;0.822739
4065.000000;0.825872
4064.000000;0.828776
4063.000000;0.831528
4062.000000;0.834386
4061.000000;0.837485
4060.000000;0.840561
4059.000000;0.843234
4058.000000;0.845453
4057.000000;0.847443
4056.000000;0.849360
4055.000000;0.851273
4054.000000;0.853329
4053.000000;0.855648
4052.000000;0.858121
4051.000000;0.860568
4050.000000;0.862989
4049.000000;0.865450
4048.000000;0.867856
4047.000000;0.870094
4046.000000;0.872304
4045.000000;0.874716
4044.000000;0.877253
4043.000000;0.879513
4042.000000;0.881155
4041.000000;0.882125
4040.000000;0.882541
4039.000000;0.882546
4038.000000;0.882212
4037.000000;0.881493
4036.000000;0.880351
4035.000000;0.879093
4034.000000;0.878434
4033.000000;0.879016
4032.000000;0.880833
4031.000000;0.883175
4030.000000;0.885078
4029.000000;0.885841
4028.000000;0.885350
4027.000000;0.884122
4026.000000;0.882896
4025.000000;0.881977
4024.000000;0.881090
4023.000000;0.880043
4022.000000;0.879322
4021.000000;0.879644
4020.000000;0.880942
4019.000000;0.882153
4018.000000;0.882154
4017.000000;0.880715
4016.000000;0.878422
4015.000000;0.875942
4014.000000;0.873705
4013.000000;0.872087
4012.000000;0.871348
4011.000000;0.871213
4010.000000;0.870787
4009.000000;0.869251
4008.000000;0.866643
4007.000000;0.863680
4006.000000;0.860933
4005.000000;0.858396
4004.000000;0.855793
4003.000000;0.853110
4002.000000;0.850749
4001.000000;0.849203
4000.000000;0.848517
3999.000000;0.847957
3998.000000;0.846373
3997.000000;0.843260
3996.000000;0.839397
3995.000000;0.836027
3994.000000;0.833417
3993.000000;0.830695
3992.000000;0.827211
3991.000000;0.823523
3990.000000;0.820523
3989.000000;0.818098
3988.000000;0.815318
3987.000000;0.811814
3986.000000;0.808257
3985.000000;0.805349
3984.000000;0.802926
3983.000000;0.800335
3982.000000;0.797278
3981.000000;0.793925
3980.000000;0.790446
3979.000000;0.786865
3978.000000;0.783247
3977.000000;0.779728
3976.000000;0.776358
3975.000000;0.773084
3974.000000;0.769908
3973.000000;0.766851
3972.000000;0.763794
3971.000000;0.760540
3970.000000;0.757106
3969.000000;0.753752
3968.000000;0.750674
3967.000000;0.747748
3966.000000;0.744653
3965.000000;0.741113
3964.000000;0.737034
3963.000000;0.732550
3962.000000;0.728060
3961.000000;0.724065
3960.000000;0.720784
3959.000000;0.717930
3958.000000;0.715006
3957.000000;0.711758
3956.000000;0.708289
3955.000000;0.704780
3954.000000;0.701226
3953.000000;0.697369
3952.000000;0.692836
3951.000000;0.687508
3950.000000;0.681900
3949.000000;0.677018
3948.000000;0.673507
3947.000000;0.670978
3946.000000;0.668365
3945.000000;0.664979
3944.000000;0.661001
3943.000000;0.656981
3942.000000;0.653192
3941.000000;0.649612
3940.000000;0.646229
3939.000000;0.643053
3938.000000;0.639887
3937.000000;0.636338
3936.000000;0.632098
3935.000000;0.627145
3934.000000;0.621757
3933.000000;0.616447
3932.000000;0.611795
3931.000000;0.608117
3930.000000;0.605214
3929.000000;0.602435
3928.000000;0.599039
3927.000000;0.594680
3926.000000;0.589763
3925.000000;0.585295
3924.000000;0.582026
3923.000000;0.579571
3922.000000;0.576648
3921.000000;0.572364
3920.000000;0.567032
3919.000000;0.561585
3918.000000;0.556559
3917.000000;0.551983
3916.000000;0.547947
3915.000000;0.544691
3914.000000;0.542122
3913.000000;0.539693
3912.000000;0.536890
3911.000000;0.533577
3910.000000;0.529801
3909.000000;0.525499
3908.000000;0.520591
3907.000000;0.515219
3906.000000;0.509793
3905.000000;0.504775
3904.000000;0.500454
3903.000000;0.496791
3902.000000;0.493454
3901.000000;0.490109
3900.000000;0.486747
3899.000000;0.483683
3898.000000;0.481197
3897.000000;0.479231
3896.000000;0.477400
3895.000000;0.475213
3894.000000;0.472331
3893.000000;0.468817
3892.000000;0.465133
3891.000000;0.461786
3890.000000;0.458889
3889.000000;0.456084
3888.000000;0.453002
3887.000000;0.449733
3886.000000;0.446726
3885.000000;0.444296
3884.000000;0.442202
3883.000000;0.439789
3882.000000;0.436700
3881.000000;0.433326
3880.000000;0.430445
3879.000000;0.428412
3878.000000;0.426729
3877.000000;0.424477
3876.000000;0.421218
3875.000000;0.417384
3874.000000;0.413815
3873.000000;0.410980
3872.000000;0.408641
3871.000000;0.406248
3870.000000;0.403643
3869.000000;0.401298
3868.000000;0.399679
3867.000000;0.398537
3866.000000;0.397101
3865.000000;0.394899
3864.000000;0.392147
3863.000000;0.389383
3862.000000;0.386941
3861.000000;0.384885
3860.000000;0.383123
3859.000000;0.381435
3858.000000;0.379520
3857.000000;0.377116
3856.000000;0.374137
3855.000000;0.370644
3854.000000;0.366849
3853.000000;0.363302
3852.000000;0.360642
3851.000000;0.358962
3850.000000;0.357815
3849.000000;0.356734
3848.000000;0.355495
3847.000000;0.354016
3846.000000;0.352174
3845.000000;0.349816
3844.000000;0.346916
3843.000000;0.343760
3842.000000;0.340872
3841.000000;0.338577
3840.000000;0.336658
3839.000000;0.334650
3838.000000;0.332430
3837.000000;0.330284
3836.000000;0.328395
3835.000000;0.326542
3834.000000;0.324409
3833.000000;0.321929
3832.000000;0.319226
3831.000000;0.316496
3830.000000;0.314028
3829.000000;0.312076
3828.000000;0.310479
3827.000000;0.308668
3826.000000;0.306313
3825.000000;0.303769
3824.000000;0.301538
3823.000000;0.299525
3822.000000;0.297208
3821.000000;0.294495
3820.000000;0.291964
3819.000000;0.290061
3818.000000;0.288571
3817.000000;0.286954
3816.000000;0.284844
3815.000000;0.282235
3814.000000;0.279272
3813.000000;0.276105
3812.000000;0.272958
3811.000000;0.270093
3810.000000;0.267709
3809.000000;0.265897
3808.000000;0.264462
3807.000000;0.262871
3806.000000;0.260728
3805.000000;0.258204
3804.000000;0.255769
3803.000000;0.253517
3802.000000;0.251007
3801.000000;0.248030
3800.000000;0.245092
3799.000000;0.242715
3798.000000;0.240837
3797.000000;0.239108
3796.000000;0.237373
3795.000000;0.235611
3794.000000;0.233626
3793.000000;0.231210
3792.000000;0.228567
3791.000000;0.226188
3790.000000;0.224277
3789.000000;0.222541
3788.000000;0.220587
3787.000000;0.218311
3786.000000;0.215805
3785.000000;0.213129
3784.000000;0.210332
3783.000000;0.207593
3782.000000;0.205136
3781.000000;0.202982
3780.000000;0.200862
3779.000000;0.198448
3778.000000;0.195656
3777.000000;0.192688
3776.000000;0.189825
3775.000000;0.187258
3774.000000;0.185074
3773.000000;0.183223
3772.000000;0.181415
3771.000000;0.179225
3770.000000;0.176494
3769.000000;0.173490
3768.000000;0.170509
3767.000000;0.167547
3766.000000;0.164553
3765.000000;0.161779
3764.000000;0.159542
3763.000000;0.157687
3762.000000;0.155624
3761.000000;0.152994
3760.000000;0.149983
3759.000000;0.146921
3758.000000;0.143922
3757.000000;0.141089
3756.000000;0.138642
3755.000000;0.136503
3754.000000;0.134133
3753.000000;0.131110
3752.000000;0.127667
3751.000000;0.124315
3750.000000;0.121128
3749.000000;0.117921
3748.000000;0.114875
3747.000000;0.112413
3746.000000;0.110549
3745.000000;0.108685
3744.000000;0.106374
3743.000000;0.103820
3742.000000;0.101183
3741.000000;0.098265
3740.000000;0.094992
3739.000000;0.091595
3738.000000;0.088306
3737.000000;0.085159
3736.000000;0.082180
3735.000000;0.079490
3734.000000;0.077022
3733.000000;0.074446
3732.000000;0.071605
3731.000000;0.068841
3730.000000;0.066595
3729.000000;0.064777
3728.000000;0.062717
3727.000000;0.059811
3726.000000;0.056177
3725.000000;0.052550
3724.000000;0.049507
3723.000000;0.047000
3722.000000;0.044618
3721.000000;0.042100
3720.000000;0.039470
3719.000000;0.036776
3718.000000;0.033895
3717.000000;0.030680
3716.000000;0.027166
3715.000000;0.023547
3714.000000;0.020033
3713.000000;0.016733
3712.000000;0.013590
3711.000000;0.010416
3710.000000;0.007059
3709.000000;0.003564
3708.000000;0.000108
3707.000000;-0.003160
3706.000000;-0.006108
3705.000000;-0.008616
3704.000000;-0.010771
3703.000000;-0.012978
3702.000000;-0.015647
3701.000000;-0.018791
3700.000000;-0.022119
3699.000000;-0.025466
3698.000000;-0.028904
3697.000000;-0.032409
3696.000000;-0.035689
3695.000000;-0.038499
3694.000000;-0.040975
3693.000000;-0.043526
3692.000000;-0.046459
3691.000000;-0.049775
3690.000000;-0.053242
3689.000000;-0.056637
3688.000000;-0.059924
3687.000000;-0.063179
3686.000000;-0.066397
3685.000000;-0.069487
3684.000000;-0.072510
3683.000000;-0.075769
3682.000000;-0.079387
3681.000000;-0.083015
3680.000000;-0.086251
3679.000000;-0.089208
3678.000000;-0.092343
3677.000000;-0.095850
3676.000000;-0.099535
3675.000000;-0.103098
3674.000000;-0.106361
3673.000000;-0.109363
3672.000000;-0.112391
3671.000000;-0.115987
3670.000000;-0.120460
3669.000000;-0.125242
3668.000000;-0.129346
3667.000000;-0.132513
3666.000000;-0.135418
3665.000000;-0.138660
3664.000000;-0.142002
3663.000000;-0.144942
3662.000000;-0.147622
3661.000000;-0.150638
3660.000000;-0.154183
3659.000000;-0.157922
3658.000000;-0.161633
3657.000000;-0.165500
3656.000000;-0.169701
3655.000000;-0.174066
3654.000000;-0.178315
3653.000000;-0.182354
3652.000000;-0.186243
3651.000000;-0.190044
3650.000000;-0.193662
3649.000000;-0.196854
3648.000000;-0.199540
3647.000000;-0.201994
3646.000000;-0.204655
3645.000000;-0.207710
3644.000000;-0.210938
3643.000000;-0.214085
3642.000000;-0.217249
3641.000000;-0.220758
3640.000000;-0.224767
3639.000000;-0.229154
3638.000000;-0.233655
3637.000000;-0.237985
3636.000000;-0.241977
3635.000000;-0.245750
3634.000000;-0.249555
3633.000000;-0.253382
3632.000000;-0.256913
3631.000000;-0.259985
3630.000000;-0.262870
3629.000000;-0.265879
3628.000000;-0.268940
3627.000000;-0.271939
3626.000000;-0.275120
3625.000000;-0.278751
3624.000000;-0.282683
3623.000000;-0.286513
3622.000000;-0.290048
3621.000000;-0.293350
3620.000000;-0.296456
3619.000000;-0.299366
3618.000000;-0.302291
3617.000000;-0.305563
3616.000000;-0.309288
3615.000000;-0.313250
3614.000000;-0.317141
3613.000000;-0.320734
3612.000000;-0.323935
3611.000000;-0.326825
3610.000000;-0.329539
3609.000000;-0.331986
3608.000000;-0.333905
3607.000000;-0.335394
3606.000000;-0.337128
3605.000000;-0.339745
3604.000000;-0.343145
3603.000000;-0.346673
3602.000000;-0.349805
3601.000000;-0.352384
3600.000000;-0.354374
3599.000000;-0.355884
3598.000000;-0.357390
3597.000000;-0.359465
3596.000000;-0.362159
3595.000000;-0.364975
3594.000000;-0.367562
3593.000000;-0.370089
3592.000000;-0.372807
3591.000000;-0.375533
3590.000000;-0.377822
3589.000000;-0.379474
3588.000000;-0.380684
3587.000000;-0.381807
3586.000000;-0.383091
3585.000000;-0.384513
3584.000000;-0.385814
3583.000000;-0.386764
3582.000000;-0.387437
3581.000000;-0.388162
3580.000000;-0.389136
3579.000000;-0.390242
3578.000000;-0.391289
3577.000000;-0.392304
3576.000000;-0.393418
3575.000000;-0.394514
3574.000000;-0.395227
3573.000000;-0.395371
3572.000000;-0.395257
3571.000000;-0.395447
3570.000000;-0.396257
3569.000000;-0.397579
3568.000000;-0.399055
3567.000000;-0.400235
3566.000000;-0.400605
3565.000000;-0.399787
3564.000000;-0.397970
3563.000000;-0.396022
3562.000000;-0.394838
3561.000000;-0.394508
3560.000000;-0.394341
3559.000000;-0.393754
3558.000000;-0.392902
3557.000000;-0.392388
3556.000000;-0.392566
3555.000000;-0.393257
3554.000000;-0.393922
3553.000000;-0.393912
3552.000000;-0.392744
3551.000000;-0.390458
3550.000000;-0.387793
3549.000000;-0.385830
3548.000000;-0.385188
3547.000000;-0.385459
3546.000000;-0.385465
3545.000000;-0.384166
3544.000000;-0.381488
3543.000000;-0.378300
3542.000000;-0.375562
3541.000000;-0.373529
3540.000000;-0.371818
3539.000000;-0.370113
3538.000000;-0.368536
3537.000000;-0.367268
3536.000000;-0.366129
3535.000000;-0.364705
3534.000000;-0.362808
3533.000000;-0.360644
3532.000000;-0.358604
3531.000000;-0.356954
3530.000000;-0.355636
3529.000000;-0.354283
3528.000000;-0.352441
3527.000000;-0.349881
3526.000000;-0.346727
3525.000000;-0.343362
3524.000000;-0.340282
3523.000000;-0.337909
3522.000000;-0.336306
3521.000000;-0.335034
3520.000000;-0.333502
3519.000000;-0.331535
3518.000000;-0.329400
3517.000000;-0.327291
3516.000000;-0.325102
3515.000000;-0.322811
3514.000000;-0.320684
3513.000000;-0.318815
3512.000000;-0.316775
3511.000000;-0.314112
3510.000000;-0.311060
3509.000000;-0.308302
3508.000000;-0.306056
3507.000000;-0.303808
3506.000000;-0.301104
3505.000000;-0.298239
3504.000000;-0.295923
3503.000000;-0.294463
3502.000000;-0.293513
3501.000000;-0.292520
3500.000000;-0.291149
3499.000000;-0.289313
3498.000000;-0.287046
3497.000000;-0.284458
3496.000000;-0.281751
3495.000000;-0.279152
3494.000000;-0.276797
3493.000000;-0.274650
3492.000000;-0.272510
3491.000000;-0.270113
3490.000000;-0.267315
3489.000000;-0.264256
3488.000000;-0.261291
3487.000000;-0.258683
3486.000000;-0.256366
3485.000000;-0.254075
3484.000000;-0.251645
3483.000000;-0.249103
3482.000000;-0.246564
3481.000000;-0.244205
3480.000000;-0.242263
3479.000000;-0.240768
3478.000000;-0.239247
3477.000000;-0.237033
3476.000000;-0.234054
3475.000000;-0.231043
3474.000000;-0.228685
3473.000000;-0.226802
3472.000000;-0.224695
3471.000000;-0.222116
3470.000000;-0.219491
3469.000000;-0.217272
3468.000000;-0.215476
3467.000000;-0.213896
3466.000000;-0.212372
3465.000000;-0.210745
3464.000000;-0.208875
3463.000000;-0.206813
3462.000000;-0.204746
3461.000000;-0.202695
3460.000000;-0.200467
3459.000000;-0.197956
3458.000000;-0.195268
3457.000000;-0.192554
3456.000000;-0.189976
3455.000000;-0.187810
3454.000000;-0.186272
3453.000000;-0.185171
3452.000000;-0.184061
3451.000000;-0.182767
3450.000000;-0.181375
3449.000000;-0.179681
3448.000000;-0.177194
3447.000000;-0.173963
3446.000000;-0.170917
3445.000000;-0.168922
3444.000000;-0.167773
3443.000000;-0.166550
3442.000000;-0.164729
3441.000000;-0.162514
3440.000000;-0.160245
3439.000000;-0.157986
3438.000000;-0.155731
3437.000000;-0.153642
3436.000000;-0.151937
3435.000000;-0.150705
3434.000000;-0.149863
3433.000000;-0.149128
3432.000000;-0.148092
3431.000000;-0.146518
3430.000000;-0.144575
3429.000000;-0.142655
3428.000000;-0.140956
3427.000000;-0.139356
3426.000000;-0.137661
3425.000000;-0.135841
3424.000000;-0.134063
3423.000000;-0.132536
3422.000000;-0.131254
3421.000000;-0.129860
3420.000000;-0.127955
3419.000000;-0.125624
3418.000000;-0.123439
3417.000000;-0.121805
3416.000000;-0.120494
3415.000000;-0.119063
3414.000000;-0.117475
3413.000000;-0.116003
3412.000000;-0.114688
3411.000000;-0.113289
3410.000000;-0.111697
3409.000000;-0.110065
3408.000000;-0.108520
3407.000000;-0.107078
3406.000000;-0.105830
3405.000000;-0.104898
3404.000000;-0.104105
3403.000000;-0.102992
3402.000000;-0.101354
3401.000000;-0.099548
3400.000000;-0.098089
3399.000000;-0.097028
3398.000000;-0.095897
3397.000000;-0.094267
3396.000000;-0.092244
3395.000000;-0.090358
3394.000000;-0.088968
3393.000000;-0.087867
3392.000000;-0.086579
3391.000000;-0.085013
3390.000000;-0.083614
3389.000000;-0.082760
3388.000000;-0.082194
3387.000000;-0.081284
3386.000000;-0.079727
3385.000000;-0.077765
3384.000000;-0.075764
3383.000000;-0.073865
3382.000000;-0.072061
3381.000000;-0.070369
3380.000000;-0.068813
3379.000000;-0.067377
3378.000000;-0.066104
3377.000000;-0.065169
3376.000000;-0.064709
3375.000000;-0.064553
3374.000000;-0.064190
3373.000000;-0.063098
3372.000000;-0.061183
3371.000000;-0.058921
3370.000000;-0.056958
3369.000000;-0.055507
3368.000000;-0.054239
3367.000000;-0.052783
3366.000000;-0.051157
3365.000000;-0.049596
3364.000000;-0.048177
3363.000000;-0.046862
3362.000000;-0.045739
3361.000000;-0.044917
3360.000000;-0.044220
3359.000000;-0.043309
3358.000000;-0.042178
3357.000000;-0.041223
3356.000000;-0.040683
3355.000000;-0.040254
3354.000000;-0.039436
3353.000000;-0.038118
3352.000000;-0.036614
3351.000000;-0.035226
3350.000000;-0.034007
3349.000000;-0.032926
3348.000000;-0.032013
3347.000000;-0.031215
3346.000000;-0.030281
3345.000000;-0.028988
3344.000000;-0.027457
3343.000000;-0.026089
3342.000000;-0.025127
3341.000000;-0.024425
3340.000000;-0.023663
3339.000000;-0.022698
3338.000000;-0.021581
3337.000000;-0.020390
3336.000000;-0.019214
3335.000000;-0.018257
3334.000000;-0.017686
3333.000000;-0.017351
3332.000000;-0.016843
3331.000000;-0.015929
3330.000000;-0.014796
3329.000000;-0.013788
3328.000000;-0.013012
3327.000000;-0.012284
3326.000000;-0.011358
3325.000000;-0.010121
3324.000000;-0.008653
3323.000000;-0.007188
3322.000000;-0.005938
3321.000000;-0.004869
3320.000000;-0.003694
3319.000000;-0.002172
3318.000000;-0.000392
3317.000000;0.001271
3316.000000;0.002436
3315.000000;0.002963
3314.000000;0.003040
3313.000000;0.003080
3312.000000;0.003454
3311.000000;0.004255
3310.000000;0.005333
3309.000000;0.006520
3308.000000;0.007683
3307.000000;0.008614
3306.000000;0.009100
3305.000000;0.009229
3304.000000;0.009451
3303.000000;0.010181
3302.000000;0.011395
3301.000000;0.012747
3300.000000;0.013992
3299.000000;0.015159
3298.000000;0.016331
3297.000000;0.017413
3296.000000;0.018194
3295.000000;0.018614
3294.000000;0.018897
3293.000000;0.019365
3292.000000;0.020110
3291.000000;0.020964
3290.000000;0.021803
3289.000000;0.022690
3288.000000;0.023599
3287.000000;0.024209
3286.000000;0.024241
3285.000000;0.023950
3284.000000;0.023974
3283.000000;0.024680
3282.000000;0.025910
3281.000000;0.027358
3280.000000;0.028868
3279.000000;0.030297
3278.000000;0.031413
3277.000000;0.032112
3276.000000;0.032502
3275.000000;0.032650
3274.000000;0.032529
3273.000000;0.032320
3272.000000;0.032472
3271.000000;0.033243
3270.000000;0.034417
3269.000000;0.035672
3268.000000;0.036977
3267.000000;0.038376
3266.000000;0.039660
3265.000000;0.040579
3264.000000;0.041250
3263.000000;0.042015
3262.000000;0.042984
3261.000000;0.043979
3260.000000;0.044847
3259.000000;0.045558
3258.000000;0.046078
3257.000000;0.046391
3256.000000;0.046652
3255.000000;0.047084
3254.000000;0.047748
3253.000000;0.048569
3252.000000;0.049501
3251.000000;0.050449
3250.000000;0.051135
3249.000000;0.051319
3248.000000;0.051170
3247.000000;0.051167
3246.000000;0.051587
3245.000000;0.052272
3244.000000;0.052932
3243.000000;0.053484
3242.000000;0.054042
3241.000000;0.054711
3240.000000;0.055497
3239.000000;0.056316
3238.000000;0.057075
3237.000000;0.057788
3236.000000;0.058602
3235.000000;0.059604
3234.000000;0.060628
3233.000000;0.061355
3232.000000;0.061620
3231.000000;0.061560
3230.000000;0.061488
3229.000000;0.061701
3228.000000;0.062333
3227.000000;0.063245
3226.000000;0.064084
3225.000000;0.064597
3224.000000;0.064928
3223.000000;0.065483
3222.000000;0.066463
3221.000000;0.067586
3220.000000;0.068343
3219.000000;0.068570
3218.000000;0.068742
3217.000000;0.069563
3216.000000;0.071177
3215.000000;0.072893
3214.000000;0.073814
3213.000000;0.073715
3212.000000;0.073141
3211.000000;0.072745
3210.000000;0.072810
3209.000000;0.073356
3208.000000;0.074304
3207.000000;0.075377
3206.000000;0.076183
3205.000000;0.076626
3204.000000;0.077006
3203.000000;0.077542
3202.000000;0.078056
3201.000000;0.078353
3200.000000;0.078631
3199.000000;0.079204
3198.000000;0.079985
3197.000000;0.080590
3196.000000;0.080877
3195.000000;0.081086
3194.000000;0.081463
3193.000000;0.081995
3192.000000;0.082526
3191.000000;0.082969
3190.000000;0.083381
3189.000000;0.083932
3188.000000;0.084697
3187.000000;0.085430
3186.000000;0.085743
3185.000000;0.085652
3184.000000;0.085707
3183.000000;0.086328
3182.000000;0.087238
3181.000000;0.087852
3180.000000;0.088056
3179.000000;0.088256
3178.000000;0.088757
3177.000000;0.089484
3176.000000;0.090271
3175.000000;0.091055
3174.000000;0.091778
3173.000000;0.092401
3172.000000;0.093056
3171.000000;0.093904
3170.000000;0.094797
3169.000000;0.095382
3168.000000;0.095555
3167.000000;0.095565
3166.000000;0.095611
3165.000000;0.095667
3164.000000;0.095766
3163.000000;0.096156
3162.000000;0.096953
3161.000000;0.097849
3160.000000;0.098380
3159.000000;0.098450
3158.000000;0.098469
3157.000000;0.098998
3156.000000;0.100248
3155.000000;0.101864
3154.000000;0.103199
3153.000000;0.103899
3152.000000;0.104161
3151.000000;0.104360
3150.000000;0.104564
3149.000000;0.104639
3148.000000;0.104658
3147.000000;0.104871
3146.000000;0.105269
3145.000000;0.105550
3144.000000;0.105580
3143.000000;0.105610
3142.000000;0.105913
3141.000000;0.106483
3140.000000;0.107197
3139.000000;0.108042
3138.000000;0.109001
3137.000000;0.109906
3136.000000;0.110593
3135.000000;0.111082
3134.000000;0.111463
3133.000000;0.111738
3132.000000;0.111887
3131.000000;0.111977
3130.000000;0.112100
3129.000000;0.112276
3128.000000;0.112510
3127.000000;0.112807
3126.000000;0.113065
3125.000000;0.113114
3124.000000;0.113014
3123.000000;0.113137
3122.000000;0.113780
3121.000000;0.114780
3120.000000;0.115683
3119.000000;0.116244
3118.000000;0.116620
3117.000000;0.117078
3116.000000;0.117684
3115.000000;0.118288
3114.000000;0.118718
3113.000000;0.118966
3112.000000;0.119187
3111.000000;0.119543
3110.000000;0.120039
3109.000000;0.120537
3108.000000;0.120953
3107.000000;0.121355
3106.000000;0.121852
3105.000000;0.122461
3104.000000;0.123116
3103.000000;0.123711
3102.000000;0.124053
3101.000000;0.123926
3100.000000;0.123354
3099.000000;0.122779
3098.000000;0.122787
3097.000000;0.123594
3096.000000;0.124853
3095.000000;0.125998
3094.000000;0.126684
3093.000000;0.126917
3092.000000;0.126906
3091.000000;0.126945
3090.000000;0.127346
3089.000000;0.128249
3088.000000;0.129423
3087.000000;0.130387
3086.000000;0.130846
3085.000000;0.130952
3084.000000;0.131076
3083.000000;0.131402
3082.000000;0.131838
3081.000000;0.132223
3080.000000;0.132429
3079.000000;0.132382
3078.000000;0.132205
3077.000000;0.132323
3076.000000;0.133116
3075.000000;0.134374
3074.000000;0.135376
3073.000000;0.135683
3072.000000;0.135638
3071.000000;0.135888
3070.000000;0.136605
3069.000000;0.137400
3068.000000;0.137870
3067.000000;0.137960
3066.000000;0.137858
3065.000000;0.137817
3064.000000;0.138062
3063.000000;0.138658
3062.000000;0.139441
3061.000000;0.140209
3060.000000;0.140928
3059.000000;0.141633
3058.000000;0.142223
3057.000000;0.142612
3056.000000;0.142995
3055.000000;0.143654
3054.000000;0.144513
3053.000000;0.145164
3052.000000;0.145381
3051.000000;0.145315
3050.000000;0.145122
3049.000000;0.144750
3048.000000;0.144269
3047.000000;0.144127
3046.000000;0.144767
3045.000000;0.146111
3044.000000;0.147642
3043.000000;0.148910
3042.000000;0.149788
3041.000000;0.150296
3040.000000;0.150439
3039.000000;0.150233
3038.000000;0.149770
3037.000000;0.149222
3036.000000;0.148862
3035.000000;0.149014
3034.000000;0.149805
3033.000000;0.150930
3032.000000;0.151826
3031.000000;0.152198
3030.000000;0.152311
3029.000000;0.152663
3028.000000;0.153426
3027.000000;0.154328
3026.000000;0.155071
3025.000000;0.155682
3024.000000;0.156352
3023.000000;0.157048
3022.000000;0.157483
3021.000000;0.157494
3020.000000;0.157283
3019.000000;0.157179
3018.000000;0.157315
3017.000000;0.157628
3016.000000;0.158053
3015.000000;0.158569
3014.000000;0.159146
3013.000000;0.159809
3012.000000;0.160681
3011.000000;0.161797
3010.000000;0.162892
3009.000000;0.163591
3008.000000;0.163829
3007.000000;0.163895
3006.000000;0.163993
3005.000000;0.163976
3004.000000;0.163653
3003.000000;0.163215
3002.000000;0.163136
3001.000000;0.163664
3000.000000;0.164538
2999.000000;0.165254
2998.000000;0.165584
2997.000000;0.165789
2996.000000;0.166301
2995.000000;0.167219
2994.000000;0.168140
2993.000000;0.168584
2992.000000;0.168542
2991.000000;0.168510
2990.000000;0.168945
2989.000000;0.169800
2988.000000;0.170628
2987.000000;0.171054
2986.000000;0.171085
2985.000000;0.171013
2984.000000;0.171112
2983.000000;0.171418
2982.000000;0.171786
2981.000000;0.172132
2980.000000;0.172598
2979.000000;0.173362
2978.000000;0.174298
2977.000000;0.174968
2976.000000;0.175103
2975.000000;0.174998
2974.000000;0.175226
2973.000000;0.175934
2972.000000;0.176645
2971.000000;0.176859
2970.000000;0.176697
2969.000000;0.176762
2968.000000;0.177413
2967.000000;0.178442
2966.000000;0.179464
2965.000000;0.180370
2964.000000;0.181206
2963.000000;0.181820
2962.000000;0.181931
2961.000000;0.181582
2960.000000;0.181266
2959.000000;0.181485
2958.000000;0.182297
2957.000000;0.183331
2956.000000;0.184168
2955.000000;0.184688
2954.000000;0.185143
2953.000000;0.185884
2952.000000;0.186904
2951.000000;0.187678
2950.000000;0.187646
2949.000000;0.186908
2948.000000;0.186200
2947.000000;0.186105
2946.000000;0.186526
2945.000000;0.187039
2944.000000;0.187499
2943.000000;0.188031
2942.000000;0.188632
2941.000000;0.189140
2940.000000;0.189565
2939.000000;0.190127
2938.000000;0.190916
2937.000000;0.191720
2936.000000;0.192252
2935.000000;0.192400
2934.000000;0.192250
2933.000000;0.192006
2932.000000;0.191908
2931.000000;0.192072
2930.000000;0.192400
2929.000000;0.192803
2928.000000;0.193463
2927.000000;0.194649
2926.000000;0.196235
2925.000000;0.197650
2924.000000;0.198436
2923.000000;0.198688
2922.000000;0.198816
2921.000000;0.199024
2920.000000;0.199205
2919.000000;0.199257
2918.000000;0.199286
2917.000000;0.199487
2916.000000;0.199931
2915.000000;0.200531
2914.000000;0.201189
2913.000000;0.201919
2912.000000;0.202759
2911.000000;0.203555
2910.000000;0.203995
2909.000000;0.203987
2908.000000;0.203906
2907.000000;0.204195
2906.000000;0.204792
2905.000000;0.205232
2904.000000;0.205359
2903.000000;0.205610
2902.000000;0.206392
2901.000000;0.207446
2900.000000;0.208150
2899.000000;0.208282
2898.000000;0.208181
2897.000000;0.208212
2896.000000;0.208442
2895.000000;0.208849
2894.000000;0.209480
2893.000000;0.210235
2892.000000;0.210786
2891.000000;0.210964
2890.000000;0.211094
2889.000000;0.211657
2888.000000;0.212690
2887.000000;0.213737
2886.000000;0.214408
2885.000000;0.214794
2884.000000;0.215244
2883.000000;0.215923
2882.000000;0.216675
2881.000000;0.217248
2880.000000;0.217540
2879.000000;0.217697
2878.000000;0.218017
2877.000000;0.218709
2876.000000;0.219648
2875.000000;0.220402
2874.000000;0.220617
2873.000000;0.220357
2872.000000;0.219996
2871.000000;0.219854
2870.000000;0.220062
2869.000000;0.220658
2868.000000;0.221599
2867.000000;0.222648
2866.000000;0.223456
2865.000000;0.223865
2864.000000;0.224021
2863.000000;0.224132
2862.000000;0.224280
2861.000000;0.224570
2860.000000;0.225241
2859.000000;0.226388
2858.000000;0.227674
2857.000000;0.228548
2856.000000;0.228796
2855.000000;0.228766
2854.000000;0.229019
2853.000000;0.229786
2852.000000;0.230750
2851.000000;0.231272
2850.000000;0.230939
2849.000000;0.230004
2848.000000;0.229296
2847.000000;0.229549
2846.000000;0.230797
2845.000000;0.232424
2844.000000;0.233743
2843.000000;0.234449
2842.000000;0.234636
2841.000000;0.234624
2840.000000;0.234785
2839.000000;0.235341
2838.000000;0.236164
2837.000000;0.236891
2836.000000;0.237317
2835.000000;0.237631
2834.000000;0.238221
2833.000000;0.239281
2832.000000;0.240671
2831.000000;0.242046
2830.000000;0.243080
2829.000000;0.243602
2828.000000;0.243622
2827.000000;0.243286
2826.000000;0.242845
2825.000000;0.242617
2824.000000;0.242843
2823.000000;0.243468
2822.000000;0.244139
2821.000000;0.244563
2820.000000;0.244824
2819.000000;0.245211
2818.000000;0.245782
2817.000000;0.246295
2816.000000;0.246557
2815.000000;0.246644
2814.000000;0.246710
2813.000000;0.246795
2812.000000;0.246939
2811.000000;0.247332
2810.000000;0.248165
2809.000000;0.249392
2808.000000;0.250710
2807.000000;0.251751
2806.000000;0.252252
2805.000000;0.252196
2804.000000;0.251898
2803.000000;0.251859
2802.000000;0.252390
2801.000000;0.253413
2800.000000;0.254669
2799.000000;0.256006
2798.000000;0.257333
2797.000000;0.258451
2796.000000;0.259169
2795.000000;0.259556
2794.000000;0.259865
2793.000000;0.260195
2792.000000;0.260434
2791.000000;0.260575
2790.000000;0.260860
2789.000000;0.261477
2788.000000;0.262249
2787.000000;0.262765
2786.000000;0.262797
2785.000000;0.262523
2784.000000;0.262376
2783.000000;0.262739
2782.000000;0.263706
2781.000000;0.264993
2780.000000;0.266107
2779.000000;0.266745
2778.000000;0.267085
2777.000000;0.267599
2776.000000;0.268514
2775.000000;0.269508
2774.000000;0.270040
2773.000000;0.269960
2772.000000;0.269675
2771.000000;0.269689
2770.000000;0.270106
2769.000000;0.270672
2768.000000;0.271217
2767.000000;0.271872
2766.000000;0.272800
2765.000000;0.273872
2764.000000;0.274763
2763.000000;0.275292
2762.000000;0.275594
2761.000000;0.275928
2760.000000;0.276395
2759.000000;0.276855
2758.000000;0.277089
2757.000000;0.277023
2756.000000;0.276819
2755.000000;0.276732
2754.000000;0.276875
2753.000000;0.277201
2752.000000;0.277717
2751.000000;0.278601
2750.000000;0.280001
2749.000000;0.281741
2748.000000;0.283353
2747.000000;0.284397
2746.000000;0.284687
2745.000000;0.284283
2744.000000;0.283459
2743.000000;0.282718
2742.000000;0.282613
2741.000000;0.283344
2740.000000;0.284561
2739.000000;0.285694
2738.000000;0.286463
2737.000000;0.286996
2736.000000;0.287528
2735.000000;0.288171
2734.000000;0.288994
2733.000000;0.290045
2732.000000;0.291154
2731.000000;0.291878
2730.000000;0.291909
2729.000000;0.291531
2728.000000;0.291450
2727.000000;0.292088
2726.000000;0.293177
2725.000000;0.294140
2724.000000;0.294711
2723.000000;0.295053
2722.000000;0.295373
2721.000000;0.295680
2720.000000;0.295947
2719.000000;0.296299
2718.000000;0.296871
2717.000000;0.297584
2716.000000;0.298207
2715.000000;0.298644
2714.000000;0.299045
2713.000000;0.299624
2712.000000;0.300439
2711.000000;0.301361
2710.000000;0.302193
2709.000000;0.302824
2708.000000;0.303310
2707.000000;0.303857
2706.000000;0.304639
2705.000000;0.305606
2704.000000;0.306459
2703.000000;0.306875
2702.000000;0.306770
2701.000000;0.306365
2700.000000;0.306010
2699.000000;0.305961
2698.000000;0.306286
2697.000000;0.306931
2696.000000;0.307787
2695.000000;0.308694
2694.000000;0.309439
2693.000000;0.309858
2692.000000;0.310005
2691.000000;0.310160
2690.000000;0.310611
2689.000000;0.311392
2688.000000;0.312257
2687.000000;0.312914
2686.000000;0.313301
2685.000000;0.313616
2684.000000;0.314060
2683.000000;0.314598
2682.000000;0.315032
2681.000000;0.315316
2680.000000;0.315698
2679.000000;0.316450
2678.000000;0.317504
2677.000000;0.318527
2676.000000;0.319363
2675.000000;0.320249
2674.000000;0.321452
2673.000000;0.322809
2672.000000;0.323783
2671.000000;0.323998
2670.000000;0.323618
2669.000000;0.323156
2668.000000;0.323015
2667.000000;0.323238
2666.000000;0.323643
2665.000000;0.324126
2664.000000;0.324761
2663.000000;0.325604
2662.000000;0.326473
2661.000000;0.327072
2660.000000;0.327374
2659.000000;0.327744
2658.000000;0.328536
2657.000000;0.329637
2656.000000;0.330586
2655.000000;0.331097
2654.000000;0.331312
2653.000000;0.331528
2652.000000;0.331874
2651.000000;0.332320
2650.000000;0.332834
2649.000000;0.333387
2648.000000;0.333905
2647.000000;0.334368
2646.000000;0.334902
2645.000000;0.335656
2644.000000;0.336594
2643.000000;0.337489
2642.000000;0.338128
2641.000000;0.338473
2640.000000;0.338641
2639.000000;0.338811
2638.000000;0.339148
2637.000000;0.339741
2636.000000;0.340552
2635.000000;0.341408
2634.000000;0.342088
2633.000000;0.342474
2632.000000;0.342671
2631.000000;0.342934
2630.000000;0.343397
2629.000000;0.343925
2628.000000;0.344322
2627.000000;0.344641
2626.000000;0.345144
2625.000000;0.345928
2624.000000;0.346781
2623.000000;0.347484
2622.000000;0.348091
2621.000000;0.348727
2620.000000;0.349301
2619.000000;0.349624
2618.000000;0.349728
2617.000000;0.349845
2616.000000;0.350102
2615.000000;0.350467
2614.000000;0.350980
2613.000000;0.351763
2612.000000;0.352704
2611.000000;0.353379
2610.000000;0.353518
2609.000000;0.353413
2608.000000;0.353649
2607.000000;0.354438
2606.000000;0.355393
2605.000000;0.356004
2604.000000;0.356230
2603.000000;0.356516
2602.000000;0.357267
2601.000000;0.358392
2600.000000;0.359402
2599.000000;0.359913
2598.000000;0.360014
2597.000000;0.360112
2596.000000;0.360510
2595.000000;0.361203
2594.000000;0.362026
2593.000000;0.362888
2592.000000;0.363809
2591.000000;0.364800
2590.000000;0.365797
2589.000000;0.366726
2588.000000;0.367580
2587.000000;0.368371
2586.000000;0.368953
2585.000000;0.368999
2584.000000;0.368338
2583.000000;0.367362
2582.000000;0.366912
2581.000000;0.367567
2580.000000;0.369086
2579.000000;0.370646
2578.000000;0.371610
2577.000000;0.371952
2576.000000;0.371996
2575.000000;0.372016
2574.000000;0.372163
2573.000000;0.372566
2572.000000;0.373323
2571.000000;0.374405
2570.000000;0.375630
2569.000000;0.376716
2568.000000;0.377409
2567.000000;0.377671
2566.000000;0.377765
2565.000000;0.377989
2564.000000;0.378317
2563.000000;0.378474
2562.000000;0.378427
2561.000000;0.378560
2560.000000;0.379206
2559.000000;0.380199
2558.000000;0.381109
2557.000000;0.381785
2556.000000;0.382398
2555.000000;0.383001
2554.000000;0.383363
2553.000000;0.383325
2552.000000;0.383104
2551.000000;0.383106
2550.000000;0.383571
2549.000000;0.384492
2548.000000;0.385719
2547.000000;0.386992
2546.000000;0.387978
2545.000000;0.388462
2544.000000;0.388560
2543.000000;0.388645
2542.000000;0.389043
2541.000000;0.389806
2540.000000;0.390754
2539.000000;0.391665
2538.000000;0.392406
2537.000000;0.392924
2536.000000;0.393226
2535.000000;0.393408
2534.000000;0.393662
2533.000000;0.394145
2532.000000;0.394807
2531.000000;0.395458
2530.000000;0.396055
2529.000000;0.396819
2528.000000;0.397931
2527.000000;0.399172
2526.000000;0.400057
2525.000000;0.400344
2524.000000;0.400290
2523.000000;0.400340
2522.000000;0.400664
2521.000000;0.401071
2520.000000;0.401309
2519.000000;0.401342
2518.000000;0.401360
2517.000000;0.401590
2516.000000;0.402109
2515.000000;0.402814
2514.000000;0.403555
2513.000000;0.404291
2512.000000;0.405073
2511.000000;0.405886
2510.000000;0.406598
2509.000000;0.407107
2508.000000;0.407496
2507.000000;0.407989
2506.000000;0.408761
2505.000000;0.409795
2504.000000;0.410907
2503.000000;0.411864
2502.000000;0.412512
2501.000000;0.412841
2500.000000;0.412925
2499.000000;0.412841
2498.000000;0.412722
2497.000000;0.412857
2496.000000;0.413552
2495.000000;0.414748
2494.000000;0.415903
2493.000000;0.416434
2492.000000;0.416317
2491.000000;0.416091
2490.000000;0.416259
2489.000000;0.416866
2488.000000;0.417664
2487.000000;0.418497
2486.000000;0.419340
2485.000000;0.420073
2484.000000;0.420440
2483.000000;0.420288
2482.000000;0.419801
2481.000000;0.419460
2480.000000;0.419767
2479.000000;0.420893
2478.000000;0.422504
2477.000000;0.423980
2476.000000;0.424925
2475.000000;0.425486
2474.000000;0.426087
2473.000000;0.426931
2472.000000;0.427836
2471.000000;0.428498
2470.000000;0.428769
2469.000000;0.428731
2468.000000;0.428650
2467.000000;0.428879
2466.000000;0.429585
2465.000000;0.430513
2464.000000;0.431183
2463.000000;0.431441
2462.000000;0.431631
2461.000000;0.432123
2460.000000;0.432833
2459.000000;0.433423
2458.000000;0.433865
2457.000000;0.434506
2456.000000;0.435539
2455.000000;0.436645
2454.000000;0.437300
2453.000000;0.437365
2452.000000;0.437246
2451.000000;0.437461
2450.000000;0.438138
2449.000000;0.438957
2448.000000;0.439547
2447.000000;0.439883
2446.000000;0.440238
2445.000000;0.440798
2444.000000;0.441471
2443.000000;0.442101
2442.000000;0.442668
2441.000000;0.443178
2440.000000;0.443501
2439.000000;0.443550
2438.000000;0.443496
2437.000000;0.443595
2436.000000;0.443847
2435.000000;0.444086
2434.000000;0.444366
2433.000000;0.444966
2432.000000;0.445939
2431.000000;0.446912
2430.000000;0.447548
2429.000000;0.448007
2428.000000;0.448741
2427.000000;0.449923
2426.000000;0.451273
2425.000000;0.452390
2424.000000;0.453061
2423.000000;0.453275
2422.000000;0.453137
2421.000000;0.452864
2420.000000;0.452738
2419.000000;0.452928
2418.000000;0.453363
2417.000000;0.453835
2416.000000;0.454230
2415.000000;0.454635
2414.000000;0.455183
2413.000000;0.455857
2412.000000;0.456517
2411.000000;0.457156
2410.000000;0.457970
2409.000000;0.459050
2408.000000;0.460120
2407.000000;0.460797
2406.000000;0.461122
2405.000000;0.461548
2404.000000;0.462301
2403.000000;0.462991
2402.000000;0.463071
2401.000000;0.462524
2400.000000;0.461840
2399.000000;0.461464
2398.000000;0.461552
2397.000000;0.462201
2396.000000;0.463521
2395.000000;0.465290
2394.000000;0.466847
2393.000000;0.467599
2392.000000;0.467578
2391.000000;0.467319
2390.000000;0.467269
2389.000000;0.467502
2388.000000;0.467922
2387.000000;0.468508
2386.000000;0.469273
2385.000000;0.470135
2384.000000;0.470930
2383.000000;0.471506
2382.000000;0.471777
2381.000000;0.471796
2380.000000;0.471800
2379.000000;0.472074
2378.000000;0.472665
2377.000000;0.473321
2376.000000;0.473812
2375.000000;0.474243
2374.000000;0.474916
2373.000000;0.475905
2372.000000;0.476894
2371.000000;0.477474
2370.000000;0.477506
2369.000000;0.477209
2368.000000;0.476975
2367.000000;0.477123
2366.000000;0.477705
2365.000000;0.478499
2364.000000;0.479262
2363.000000;0.479973
2362.000000;0.480718
2361.000000;0.481406
2360.000000;0.481827
2359.000000;0.482035
2358.000000;0.482402
2357.000000;0.483151
2356.000000;0.484009
2355.000000;0.484574
2354.000000;0.484873
2353.000000;0.485304
2352.000000;0.486029
2351.000000;0.486744
2350.000000;0.487142
2349.000000;0.487311
2348.000000;0.487563
2347.000000;0.488065
2346.000000;0.488788
2345.000000;0.489589
2344.000000;0.490258
2343.000000;0.490715
2342.000000;0.491099
2341.000000;0.491531
2340.000000;0.491890
2339.000000;0.492082
2338.000000;0.492390
2337.000000;0.493210
2336.000000;0.494483
2335.000000;0.495716
2334.000000;0.496596
2333.000000;0.497254
2332.000000;0.497848
2331.000000;0.498281
2330.000000;0.498511
2329.000000;0.498820
2328.000000;0.499478
2327.000000;0.500314
2326.000000;0.500948
2325.000000;0.501254
2324.000000;0.501347
2323.000000;0.501289
2322.000000;0.501111
2321.000000;0.501072
2320.000000;0.501488
2319.000000;0.502320
2318.000000;0.503200
2317.000000;0.503957
2316.000000;0.504830
2315.000000;0.506042
2314.000000;0.507395
2313.000000;0.508464
2312.000000;0.509087
2311.000000;0.509475
2310.000000;0.509915
2309.000000;0.510479
2308.000000;0.511033
2307.000000;0.511403
2306.000000;0.511510
2305.000000;0.511422
2304.000000;0.511351
2303.000000;0.511572
2302.000000;0.512216
2301.000000;0.513095
2300.000000;0.513800
2299.000000;0.514131
2298.000000;0.514385
2297.000000;0.515019
2296.000000;0.516041
2295.000000;0.516925
2294.000000;0.517254
2293.000000;0.517215
2292.000000;0.517333
2291.000000;0.517913
2290.000000;0.518918
2289.000000;0.520187
2288.000000;0.521514
2287.000000;0.522596
2286.000000;0.523243
2285.000000;0.523630
2284.000000;0.524133
2283.000000;0.524891
2282.000000;0.525697
2281.000000;0.526281
2280.000000;0.526537
2279.000000;0.526479
2278.000000;0.526226
2277.000000;0.526022
2276.000000;0.526083
2275.000000;0.526354
2274.000000;0.526622
2273.000000;0.526865
2272.000000;0.527285
2271.000000;0.527977
2270.000000;0.528796
2269.000000;0.529596
2268.000000;0.530353
2267.000000;0.530989
2266.000000;0.531335
2265.000000;0.531465
2264.000000;0.531792
2263.000000;0.532582
2262.000000;0.533522
2261.000000;0.534059
2260.000000;0.534092
2259.000000;0.534086
2258.000000;0.534481
2257.000000;0.535233
2256.000000;0.535972
2255.000000;0.536481
2254.000000;0.536889
2253.000000;0.537457
2252.000000;0.538249
2251.000000;0.539041
2250.000000;0.539584
2249.000000;0.539912
2248.000000;0.540288
2247.000000;0.540824
2246.000000;0.541327
2245.000000;0.541624
2244.000000;0.541895
2243.000000;0.542505
2242.000000;0.543549
2241.000000;0.544695
2240.000000;0.545490
2239.000000;0.545730
2238.000000;0.545574
2237.000000;0.545434
2236.000000;0.545710
2235.000000;0.546474
2234.000000;0.547406
2233.000000;0.548141
2232.000000;0.548665
2231.000000;0.549203
2230.000000;0.549764
2229.000000;0.550038
2228.000000;0.549874
2227.000000;0.549665
2226.000000;0.550011
2225.000000;0.551082
2224.000000;0.552465
2223.000000;0.553629
2222.000000;0.554382
2221.000000;0.554857
2220.000000;0.555289
2219.000000;0.555924
2218.000000;0.556970
2217.000000;0.558398
2216.000000;0.559782
2215.000000;0.560554
2214.000000;0.560529
2213.000000;0.560052
2212.000000;0.559579
2211.000000;0.559234
2210.000000;0.558926
2209.000000;0.558765
2208.000000;0.559104
2207.000000;0.560124
2206.000000;0.561546
2205.000000;0.562870
2204.000000;0.563815
2203.000000;0.564422
2202.000000;0.564844
2201.000000;0.565202
2200.000000;0.565632
2199.000000;0.566290
2198.000000;0.567196
2197.000000;0.568139
2196.000000;0.568830
2195.000000;0.569172
2194.000000;0.569326
2193.000000;0.569519
2192.000000;0.569844
2191.000000;0.570272
2190.000000;0.570816
2189.000000;0.571568
2188.000000;0.572508
2187.000000;0.573349
2186.000000;0.573686
2185.000000;0.573354
2184.000000;0.572580
2183.000000;0.571781
2182.000000;0.571280
2181.000000;0.571228
2180.000000;0.571688
2179.000000;0.572684
2178.000000;0.574162
2177.000000;0.575939
2176.000000;0.577685
2175.000000;0.578988
2174.000000;0.579587
2173.000000;0.579616
2172.000000;0.579577
2171.000000;0.579944
2170.000000;0.580779
2169.000000;0.581759
2168.000000;0.582516
2167.000000;0.582879
2166.000000;0.582850
2165.000000;0.582513
2164.000000;0.582044
2163.000000;0.581726
2162.000000;0.581840
2161.000000;0.582521
2160.000000;0.583705
2159.000000;0.585143
2158.000000;0.586444
2157.000000;0.587226
2156.000000;0.587384
2155.000000;0.587243
2154.000000;0.587382
2153.000000;0.588202
2152.000000;0.589579
2151.000000;0.590918
2150.000000;0.591581
2149.000000;0.591393
2148.000000;0.590778
2147.000000;0.590388
2146.000000;0.590578
2145.000000;0.591228
2144.000000;0.592015
2143.000000;0.592761
2142.000000;0.593507
2141.000000;0.594329
2140.000000;0.595205
2139.000000;0.596041
2138.000000;0.596753
2137.000000;0.597287
2136.000000;0.597627
2135.000000;0.597848
2134.000000;0.598132
2133.000000;0.598645
2132.000000;0.599340
2131.000000;0.599932
2130.000000;0.600128
2129.000000;0.599954
2128.000000;0.599844
2127.000000;0.600307
2126.000000;0.601432
2125.000000;0.602741
2124.000000;0.603581
2123.000000;0.603695
2122.000000;0.603401
2121.000000;0.603232
2120.000000;0.603487
2119.000000;0.604135
2118.000000;0.605037
2117.000000;0.606163
2116.000000;0.607530
2115.000000;0.608973
2114.000000;0.610068
2113.000000;0.610405
2112.000000;0.610020
2111.000000;0.609495
2110.000000;0.609532
2109.000000;0.610372
2108.000000;0.611651
2107.000000;0.612802
2106.000000;0.613554
2105.000000;0.614031
2104.000000;0.614495
2103.000000;0.615088
2102.000000;0.615783
2101.000000;0.616453
2100.000000;0.616981
2099.000000;0.617327
2098.000000;0.617528
2097.000000;0.617611
2096.000000;0.617561
2095.000000;0.617437
2094.000000;0.617468
2093.000000;0.617932
2092.000000;0.618883
2091.000000;0.620049
2090.000000;0.621061
2089.000000;0.621772
2088.000000;0.622326
2087.000000;0.622932
2086.000000;0.623589
2085.000000;0.624074
2084.000000;0.624227
2083.000000;0.624232
2082.000000;0.624519
2081.000000;0.625317
2080.000000;0.626344
2079.000000;0.627056
2078.000000;0.627258
2077.000000;0.627354
2076.000000;0.627929
2075.000000;0.629129
2074.000000;0.630537
2073.000000;0.631592
2072.000000;0.632049
2071.000000;0.632038
2070.000000;0.631813
2069.000000;0.631580
2068.000000;0.631533
2067.000000;0.631905
2066.000000;0.632818
2065.000000;0.634086
2064.000000;0.635251
2063.000000;0.635911
2062.000000;0.636024
2061.000000;0.635928
2060.000000;0.636084
2059.000000;0.636756
2058.000000;0.637818
2057.000000;0.638792
2056.000000;0.639199
2055.000000;0.638992
2054.000000;0.638661
2053.000000;0.638811
2052.000000;0.639625
2051.000000;0.640759
2050.000000;0.641707
2049.000000;0.642214
2048.000000;0.642379
2047.000000;0.642473
2046.000000;0.642703
2045.000000;0.643130
2044.000000;0.643754
2043.000000;0.644599
2042.000000;0.645648
2041.000000;0.646681
2040.000000;0.647374
2039.000000;0.647674
2038.000000;0.647942
2037.000000;0.648519
2036.000000;0.649222
2035.000000;0.649545
2034.000000;0.649378
2033.000000;0.649247
2032.000000;0.649692
2031.000000;0.650641
2030.000000;0.651575
2029.000000;0.652152
2028.000000;0.652469
2027.000000;0.652809
2026.000000;0.653360
2025.000000;0.654157
2024.000000;0.655097
2023.000000;0.655957
2022.000000;0.656557
2021.000000;0.656936
2020.000000;0.657309
2019.000000;0.657860
2018.000000;0.658669
2017.000000;0.659759
2016.000000;0.661039
2015.000000;0.662221
2014.000000;0.662971
2013.000000;0.663253
2012.000000;0.663355
2011.000000;0.663509
2010.000000;0.663614
2009.000000;0.663476
2008.000000;0.663214
2007.000000;0.663252
2006.000000;0.663858
2005.000000;0.664799
2004.000000;0.665532
2003.000000;0.665777
2002.000000;0.665825
2001.000000;0.666229
2000.000000;0.667176
1999.000000;0.668278
1998.000000;0.669018
1997.000000;0.669341
1996.000000;0.669661
1995.000000;0.670331
1994.000000;0.671285
1993.000000;0.672219
1992.000000;0.672929
1991.000000;0.673375
1990.000000;0.673535
1989.000000;0.673395
1988.000000;0.673103
1987.000000;0.673036
1986.000000;0.673577
1985.000000;0.674772
1984.000000;0.676199
1983.000000;0.677277
1982.000000;0.677791
1981.000000;0.678049
1980.000000;0.678405
1979.000000;0.678733
1978.000000;0.678635
1977.000000;0.678175
1976.000000;0.678050
1975.000000;0.678839
1974.000000;0.680264
1973.000000;0.681475
1972.000000;0.682017
1971.000000;0.682226
1970.000000;0.682646
1969.000000;0.683361
1968.000000;0.684057
1967.000000;0.684534
1966.000000;0.684907
1965.000000;0.685347
1964.000000;0.685842
1963.000000;0.686319
1962.000000;0.686875
1961.000000;0.687703
1960.000000;0.688766
1959.000000;0.689685
1958.000000;0.690093
1957.000000;0.690082
1956.000000;0.690126
1955.000000;0.690538
1954.000000;0.691158
1953.000000;0.691694
1952.000000;0.692211
1951.000000;0.693058
1950.000000;0.694328
1949.000000;0.695628
1948.000000;0.696440
1947.000000;0.696587
1946.000000;0.696299
1945.000000;0.695971
1944.000000;0.695928
1943.000000;0.696283
1942.000000;0.696889
1941.000000;0.697516
1940.000000;0.698137
1939.000000;0.698942
1938.000000;0.699989
1937.000000;0.700975
1936.000000;0.701517
1935.000000;0.701602
1934.000000;0.701610
1933.000000;0.701918
1932.000000;0.702611
1931.000000;0.703539
1930.000000;0.704536
1929.000000;0.705557
1928.000000;0.706645
1927.000000;0.707737
1926.000000;0.708524
1925.000000;0.708664
1924.000000;0.708253
1923.000000;0.707901
1922.000000;0.708137
1921.000000;0.708827
1920.000000;0.709419
1919.000000;0.709696
1918.000000;0.710027
1917.000000;0.710821
1916.000000;0.712018
1915.000000;0.713194
1914.000000;0.713996
1913.000000;0.714368
1912.000000;0.714506
1911.000000;0.714704
1910.000000;0.715172
1909.000000;0.715880
1908.000000;0.716653
1907.000000;0.717376
1906.000000;0.717988
1905.000000;0.718332
1904.000000;0.718318
1903.000000;0.718265
1902.000000;0.718720
1901.000000;0.719767
1900.000000;0.720811
1899.000000;0.721289
1898.000000;0.721373
1897.000000;0.721685
1896.000000;0.722510
1895.000000;0.723616
1894.000000;0.724635
1893.000000;0.725234
1892.000000;0.725055
1891.000000;0.724014
1890.000000;0.722755
1889.000000;0.722300
1888.000000;0.723021
1887.000000;0.724259
1886.000000;0.725106
1885.000000;0.725450
1884.000000;0.726124
1883.000000;0.728127
1882.000000;0.731665
1881.000000;0.735663
1880.000000;0.738286
1879.000000;0.738388
1878.000000;0.736568
1877.000000;0.734562
1876.000000;0.733620
1875.000000;0.733745
1874.000000;0.734421
1873.000000;0.735453
1872.000000;0.736706
1871.000000;0.737605
1870.000000;0.737630
1869.000000;0.737112
1868.000000;0.736892
1867.000000;0.737214
1866.000000;0.737545
1865.000000;0.737525
1864.000000;0.737500
1863.000000;0.737912
1862.000000;0.738658
1861.000000;0.739385
1860.000000;0.740150
1859.000000;0.741388
1858.000000;0.743338
1857.000000;0.745717
1856.000000;0.747907
1855.000000;0.749296
1854.000000;0.749560
1853.000000;0.748898
1852.000000;0.747938
1851.000000;0.747272
1850.000000;0.747124
1849.000000;0.747467
1848.000000;0.748282
1847.000000;0.749527
1846.000000;0.750953
1845.000000;0.752178
1844.000000;0.752952
1843.000000;0.753226
1842.000000;0.752966
1841.000000;0.752136
1840.000000;0.750962
1839.000000;0.750026
1838.000000;0.749920
1837.000000;0.750785
1836.000000;0.752204
1835.000000;0.753495
1834.000000;0.754194
1833.000000;0.754423
1832.000000;0.754851
1831.000000;0.756091
1830.000000;0.758021
1829.000000;0.759749
1828.000000;0.760465
1827.000000;0.760337
1826.000000;0.760359
1825.000000;0.761280
1824.000000;0.762878
1823.000000;0.764336
1822.000000;0.765118
1821.000000;0.765267
1820.000000;0.765028
1819.000000;0.764570
1818.000000;0.764175
1817.000000;0.764378
1816.000000;0.765567
1815.000000;0.767474
1814.000000;0.769304
1813.000000;0.770452
1812.000000;0.770972
1811.000000;0.771292
1810.000000;0.771631
1809.000000;0.771873
1808.000000;0.771926
1807.000000;0.771982
1806.000000;0.772324
1805.000000;0.772986
1804.000000;0.773693
1803.000000;0.774144
1802.000000;0.774299
1801.000000;0.774378
1800.000000;0.774638
1799.000000;0.775203
1798.000000;0.776018
1797.000000;0.776831
1796.000000;0.777260
1795.000000;0.777081
1794.000000;0.776592
1793.000000;0.776515
1792.000000;0.777394
1791.000000;0.779102
1790.000000;0.781004
1789.000000;0.782549
1788.000000;0.783597
1787.000000;0.784267
1786.000000;0.784691
1785.000000;0.784960
1784.000000;0.785152
1783.000000;0.785288
1782.000000;0.785372
1781.000000;0.785544
1780.000000;0.786026
1779.000000;0.786856
1778.000000;0.787761
1777.000000;0.788447
1776.000000;0.788906
1775.000000;0.789352
1774.000000;0.789903
1773.000000;0.790474
1772.000000;0.790962
1771.000000;0.791391
1770.000000;0.791818
1769.000000;0.792234
1768.000000;0.792601
1767.000000;0.792924
1766.000000;0.793252
1765.000000;0.793650
1764.000000;0.794231
1763.000000;0.795112
1762.000000;0.796263
1761.000000;0.797442
1760.000000;0.798389
1759.000000;0.799055
1758.000000;0.799594
1757.000000;0.800154
1756.000000;0.800726
1755.000000;0.801182
1754.000000;0.801385
1753.000000;0.801291
1752.000000;0.801082
1751.000000;0.801194
1750.000000;0.802013
1749.000000;0.803381
1748.000000;0.804534
1747.000000;0.804823
1746.000000;0.804479
1745.000000;0.804406
1744.000000;0.805189
1743.000000;0.806552
1742.000000;0.807829
1741.000000;0.808726
1740.000000;0.809425
1739.000000;0.810097
1738.000000;0.810614
1737.000000;0.810773
1736.000000;0.810633
1735.000000;0.810451
1734.000000;0.810408
1733.000000;0.810606
1732.000000;0.811082
1731.000000;0.811722
1730.000000;0.812365
1729.000000;0.813008
1728.000000;0.813794
1727.000000;0.814792
1726.000000;0.815848
1725.000000;0.816699
1724.000000;0.817266
1723.000000;0.817760
1722.000000;0.818412
1721.000000;0.819108
1720.000000;0.819465
1719.000000;0.819336
1718.000000;0.819177
1717.000000;0.819731
1716.000000;0.821225
1715.000000;0.823089
1714.000000;0.824467
1713.000000;0.824897
1712.000000;0.824513
1711.000000;0.823850
1710.000000;0.823568
1709.000000;0.824107
1708.000000;0.825287
1707.000000;0.826394
1706.000000;0.826977
1705.000000;0.827406
1704.000000;0.828310
1703.000000;0.829620
1702.000000;0.830658
1701.000000;0.831001
1700.000000;0.830971
1699.000000;0.831292
1698.000000;0.832125
1697.000000;0.832925
1696.000000;0.833292
1695.000000;0.833316
1694.000000;0.833322
1693.000000;0.833552
1692.000000;0.834022
1691.000000;0.834646
1690.000000;0.835288
1689.000000;0.835837
1688.000000;0.836325
1687.000000;0.836907
1686.000000;0.837700
1685.000000;0.838606
1684.000000;0.839386
1683.000000;0.839817
1682.000000;0.839897
1681.000000;0.840000
1680.000000;0.840578
1679.000000;0.841776
1678.000000;0.843244
1677.000000;0.844431
1676.000000;0.845005
1675.000000;0.844952
1674.000000;0.844494
1673.000000;0.844018
1672.000000;0.843965
1671.000000;0.844576
1670.000000;0.845634
1669.000000;0.846647
1668.000000;0.847406
1667.000000;0.848185
1666.000000;0.849263
1665.000000;0.850475
1664.000000;0.851401
1663.000000;0.851814
1662.000000;0.851825
1661.000000;0.851705
1660.000000;0.851734
1659.000000;0.852138
1658.000000;0.852956
1657.000000;0.853926
1656.000000;0.854709
1655.000000;0.855259
1654.000000;0.855783
1653.000000;0.856433
1652.000000;0.857176
1651.000000;0.857981
1650.000000;0.858713
1649.000000;0.859153
1648.000000;0.859364
1647.000000;0.859523
1646.000000;0.859573
1645.000000;0.859376
1644.000000;0.859220
1643.000000;0.859711
1642.000000;0.861188
1641.000000;0.863319
1640.000000;0.865284
1639.000000;0.866462
1638.000000;0.866870
1637.000000;0.866938
1636.000000;0.867051
1635.000000;0.867342
1634.000000;0.867856
1633.000000;0.868648
1632.000000;0.869525
1631.000000;0.870092
1630.000000;0.870142
1629.000000;0.869893
1628.000000;0.869852
1627.000000;0.870357
1626.000000;0.871269
1625.000000;0.872155
1624.000000;0.872742
1623.000000;0.873173
1622.000000;0.873764
1621.000000;0.874552
1620.000000;0.875196
1619.000000;0.875364
1618.000000;0.875164
1617.000000;0.875114
1616.000000;0.875657
1615.000000;0.876749
1614.000000;0.877951
1613.000000;0.878867
1612.000000;0.879482
1611.000000;0.880043
1610.000000;0.880691
1609.000000;0.881340
1608.000000;0.881873
1607.000000;0.882300
1606.000000;0.882689
1605.000000;0.883048
1604.000000;0.883349
1603.000000;0.883635
1602.000000;0.883986
1601.000000;0.884400
1600.000000;0.884787
1599.000000;0.885101
1598.000000;0.885485
1597.000000;0.886227
1596.000000;0.887528
1595.000000;0.889208
1594.000000;0.890694
1593.000000;0.891450
1592.000000;0.891489
1591.000000;0.891326
1590.000000;0.891398
1589.000000;0.891714
1588.000000;0.892106
1587.000000;0.892564
1586.000000;0.893115
1585.000000;0.893624
1584.000000;0.893973
1583.000000;0.894343
1582.000000;0.895036
1581.000000;0.896047
1580.000000;0.897057
1579.000000;0.897822
1578.000000;0.898342
1577.000000;0.898631
1576.000000;0.898693
1575.000000;0.898762
1574.000000;0.899268
1573.000000;0.900303
1572.000000;0.901370
1571.000000;0.901960
1570.000000;0.902149
1569.000000;0.902439
1568.000000;0.903132
1567.000000;0.904116
1566.000000;0.905158
1565.000000;0.906125
1564.000000;0.906933
1563.000000;0.907531
1562.000000;0.907991
1561.000000;0.908547
1560.000000;0.909133
1559.000000;0.909610
1558.000000;0.910130
1557.000000;0.910742
1556.000000;0.911484
1555.000000;0.912147
1554.000000;0.912582
1553.000000;0.912958
1552.000000;0.913497
1551.000000;0.914196
1550.000000;0.914848
1549.000000;0.915293
1548.000000;0.915581
1547.000000;0.915903
1546.000000;0.916386
1545.000000;0.916978
1544.000000;0.917555
1543.000000;0.918083
1542.000000;0.918613
1541.000000;0.919171
1540.000000;0.919763
1539.000000;0.920273
1538.000000;0.920622
1537.000000;0.920987
1536.000000;0.921499
1535.000000;0.922138
1534.000000;0.922738
1533.000000;0.923066
1532.000000;0.923062
1531.000000;0.923059
1530.000000;0.923596
1529.000000;0.924866
1528.000000;0.926450
1527.000000;0.927695
1526.000000;0.928315
1525.000000;0.928573
1524.000000;0.928897
1523.000000;0.929476
1522.000000;0.930248
1521.000000;0.931057
1520.000000;0.931747
1519.000000;0.932234
1518.000000;0.932540
1517.000000;0.932875
1516.000000;0.933572
1515.000000;0.934748
1514.000000;0.936078
1513.000000;0.936954
1512.000000;0.937007
1511.000000;0.936508
1510.000000;0.936108
1509.000000;0.936205
1508.000000;0.936653
1507.000000;0.937200
1506.000000;0.937663
1505.000000;0.937961
1504.000000;0.938320
1503.000000;0.938825
1502.000000;0.939413
1501.000000;0.940020
1500.000000;0.940501
1499.000000;0.940792
1498.000000;0.941097
1497.000000;0.941685
1496.000000;0.942516
1495.000000;0.943336
1494.000000;0.944121
1493.000000;0.945128
1492.000000;0.946447
1491.000000;0.947727
1490.000000;0.948580
1489.000000;0.949090
1488.000000;0.949640
1487.000000;0.950374
1486.000000;0.951019
1485.000000;0.951257
1484.000000;0.951145
1483.000000;0.951081
1482.000000;0.951421
1481.000000;0.952150
1480.000000;0.952938
1479.000000;0.953513
1478.000000;0.953932
1477.000000;0.954431
1476.000000;0.955133
1475.000000;0.956024
1474.000000;0.957114
1473.000000;0.958376
1472.000000;0.959510
1471.000000;0.960055
1470.000000;0.959938
1469.000000;0.959639
1468.000000;0.959689
1467.000000;0.960174
1466.000000;0.960847
1465.000000;0.961565
1464.000000;0.962332
1463.000000;0.963055
1462.000000;0.963556
1461.000000;0.963808
1460.000000;0.964006
1459.000000;0.964357
1458.000000;0.964967
1457.000000;0.965861
1456.000000;0.966940
1455.000000;0.967992
1454.000000;0.968735
1453.000000;0.969091
1452.000000;0.969430
1451.000000;0.970146
1450.000000;0.971161
1449.000000;0.972007
1448.000000;0.972278
1447.000000;0.971925
1446.000000;0.971305
1445.000000;0.971027
1444.000000;0.971525
1443.000000;0.972656
1442.000000;0.973807
1441.000000;0.974560
1440.000000;0.975092
1439.000000;0.975795
1438.000000;0.976653
1437.000000;0.977255
1436.000000;0.977439
1435.000000;0.977593
1434.000000;0.978133
1433.000000;0.979021
1432.000000;0.979936
1431.000000;0.980599
1430.000000;0.980891
1429.000000;0.980903
1428.000000;0.980979
1427.000000;0.981504
1426.000000;0.982488
1425.000000;0.983471
1424.000000;0.983956
1423.000000;0.983874
1422.000000;0.983566
1421.000000;0.983434
1420.000000;0.983674
1419.000000;0.984284
1418.000000;0.985213
1417.000000;0.986363
1416.000000;0.987544
1415.000000;0.988532
1414.000000;0.989197
1413.000000;0.989613
1412.000000;0.990038
1411.000000;0.990671
1410.000000;0.991411
1409.000000;0.991984
1408.000000;0.992341
1407.000000;0.992739
1406.000000;0.993347
1405.000000;0.993992
1404.000000;0.994457
1403.000000;0.994883
1402.000000;0.995627
1401.000000;0.996757
1400.000000;0.997922
1399.000000;0.998718
1398.000000;0.999006
1397.000000;0.998882
1396.000000;0.998589
1395.000000;0.998512
1394.000000;0.998964
1393.000000;0.999863
1392.000000;1.000774
1391.000000;1.001438
1390.000000;1.002124
1389.000000;1.003212
1388.000000;1.004519
1387.000000;1.005364
1386.000000;1.005339
1385.000000;1.004761
1384.000000;1.004310
1383.000000;1.004421
1382.000000;1.005117
1381.000000;1.006185
1380.000000;1.007300
1379.000000;1.008141
1378.000000;1.008657
1377.000000;1.009203
1376.000000;1.010186
1375.000000;1.011503
1374.000000;1.012534
1373.000000;1.012804
1372.000000;1.012565
1371.000000;1.012567
1370.000000;1.013318
1369.000000;1.014684
1368.000000;1.016152
1367.000000;1.017321
1366.000000;1.018125
1365.000000;1.018691
1364.000000;1.019092
1363.000000;1.019229
1362.000000;1.018935
1361.000000;1.018220
1360.000000;1.017441
1359.000000;1.017171
1358.000000;1.017814
1357.000000;1.019286
1356.000000;1.021017
1355.000000;1.022293
1354.000000;1.022772
1353.000000;1.022760
1352.000000;1.022886
1351.000000;1.023468
1350.000000;1.024283
1349.000000;1.025026
1348.000000;1.025804
1347.000000;1.026944
1346.000000;1.028370
1345.000000;1.029504
1344.000000;1.029890
1343.000000;1.029677
1342.000000;1.029372
1341.000000;1.029325
1340.000000;1.029610
1339.000000;1.030165
1338.000000;1.030832
1337.000000;1.031399
1336.000000;1.031853
1335.000000;1.032506
1334.000000;1.033638
1333.000000;1.035053
1332.000000;1.036200
1331.000000;1.036765
1330.000000;1.036931
1329.000000;1.037101
1328.000000;1.037559
1327.000000;1.038381
1326.000000;1.039377
1325.000000;1.040098
1324.000000;1.040203
1323.000000;1.039937
1322.000000;1.039987
1321.000000;1.040696
1320.000000;1.041681
1319.000000;1.042485
1318.000000;1.043309
1317.000000;1.044617
1316.000000;1.046116
1315.000000;1.046741
1314.000000;1.045926
1313.000000;1.044511
1312.000000;1.044006
1311.000000;1.045137
1310.000000;1.047315
1309.000000;1.049344
1308.000000;1.050381
1307.000000;1.050304
1306.000000;1.049546
1305.000000;1.048763
1304.000000;1.048473
1303.000000;1.048761
1302.000000;1.049348
1301.000000;1.049984
1300.000000;1.050657
1299.000000;1.051356
1298.000000;1.051864
1297.000000;1.052018
1296.000000;1.052057
1295.000000;1.052457
1294.000000;1.053384
1293.000000;1.054473
1292.000000;1.055242
1291.000000;1.055603
1290.000000;1.055912
1289.000000;1.056560
1288.000000;1.057537
1287.000000;1.058354
1286.000000;1.058482
1285.000000;1.057965
1284.000000;1.057523
1283.000000;1.057816
1282.000000;1.058704
1281.000000;1.059488
1280.000000;1.059916
1279.000000;1.060572
1278.000000;1.062076
1277.000000;1.064196
1276.000000;1.066080
1275.000000;1.067159
1274.000000;1.067482
1273.000000;1.067303
1272.000000;1.066802
1271.000000;1.066280
1270.000000;1.066163
1269.000000;1.066604
1268.000000;1.067277
1267.000000;1.067777
1266.000000;1.068047
1265.000000;1.068272
1264.000000;1.068555
1263.000000;1.068910
1262.000000;1.069454
1261.000000;1.070333
1260.000000;1.071457
1259.000000;1.072544
1258.000000;1.073449
1257.000000;1.074244
1256.000000;1.074928
1255.000000;1.075254
1254.000000;1.075058
1253.000000;1.074681
1252.000000;1.074811
1251.000000;1.075838
1250.000000;1.077434
1249.000000;1.078847
1248.000000;1.079588
1247.000000;1.079794
1246.000000;1.079947
1245.000000;1.080367
1244.000000;1.081020
1243.000000;1.081672
1242.000000;1.082149
1241.000000;1.082432
1240.000000;1.082611
1239.000000;1.082814
1238.000000;1.083201
1237.000000;1.083908
1236.000000;1.084913
1235.000000;1.085971
1234.000000;1.086781
1233.000000;1.087276
1232.000000;1.087664
1231.000000;1.088109
1230.000000;1.088465
1229.000000;1.088455
1228.000000;1.088094
1227.000000;1.087798
1226.000000;1.088036
1225.000000;1.088953
1224.000000;1.090275
1223.000000;1.091478
1222.000000;1.092093
1221.000000;1.092060
1220.000000;1.091825
1219.000000;1.091936
1218.000000;1.092503
1217.000000;1.093195
1216.000000;1.093777
1215.000000;1.094408
1214.000000;1.095327
1213.000000;1.096471
1212.000000;1.097580
1211.000000;1.098469
1210.000000;1.099030
1209.000000;1.099193
1208.000000;1.099132
1207.000000;1.099313
1206.000000;1.100036
1205.000000;1.101018
1204.000000;1.101729
1203.000000;1.102050
1202.000000;1.102332
1201.000000;1.102830
1200.000000;1.103433
