Criado como novo conjunto de dados;"0307_DANIEL.spp","75245.7 Secs"
cm-1;Abs
10000.000000;0.551913
9999.000000;0.550805
9998.000000;0.549863
9997.000000;0.548975
9996.000000;0.548247
9995.000000;0.547876
9994.000000;0.547815
9993.000000;0.547771
9992.000000;0.547506
9991.000000;0.546993
9990.000000;0.546294
9989.000000;0.545480
9988.000000;0.544702
9987.000000;0.544107
9986.000000;0.543597
9985.000000;0.542848
9984.000000;0.541685
9983.000000;0.540320
9982.000000;0.539126
9981.000000;0.538262
9980.000000;0.537635
9979.000000;0.537073
9978.000000;0.536411
9977.000000;0.535494
9976.000000;0.534260
9975.000000;0.532840
9974.000000;0.531468
9973.000000;0.530320
9972.000000;0.529457
9971.000000;0.528869
9970.000000;0.528482
9969.000000;0.528171
9968.000000;0.527826
9967.000000;0.527384
9966.000000;0.526779
9965.000000;0.525935
9964.000000;0.524882
9963.000000;0.523804
9962.000000;0.522888
9961.000000;0.522151
9960.000000;0.521484
9959.000000;0.520787
9958.000000;0.520010
9957.000000;0.519115
9956.000000;0.518092
9955.000000;0.516992
9954.000000;0.515899
9953.000000;0.514881
9952.000000;0.513992
9951.000000;0.513236
9950.000000;0.512515
9949.000000;0.511686
9948.000000;0.510712
9947.000000;0.509698
9946.000000;0.508734
9945.000000;0.507814
9944.000000;0.506960
9943.000000;0.506289
9942.000000;0.505866
9941.000000;0.505562
9940.000000;0.505155
9939.000000;0.504526
9938.000000;0.503683
9937.000000;0.502682
9936.000000;0.501613
9935.000000;0.500578
9934.000000;0.499570
9933.000000;0.498444
9932.000000;0.497138
9931.000000;0.495866
9930.000000;0.494953
9929.000000;0.494484
9928.000000;0.494212
9927.000000;0.493793
9926.000000;0.493036
9925.000000;0.491946
9924.000000;0.490644
9923.000000;0.489284
9922.000000;0.487983
9921.000000;0.486810
9920.000000;0.485834
9919.000000;0.485131
9918.000000;0.484701
9917.000000;0.484432
9916.000000;0.484181
9915.000000;0.483814
9914.000000;0.483152
9913.000000;0.482008
9912.000000;0.480401
9911.000000;0.478634
9910.000000;0.477062
9909.000000;0.475782
9908.000000;0.474651
9907.000000;0.473513
9906.000000;0.472348
9905.000000;0.471251
9904.000000;0.470369
9903.000000;0.469796
9902.000000;0.469452
9901.000000;0.469104
9900.000000;0.468584
9899.000000;0.467896
9898.000000;0.467061
9897.000000;0.465985
9896.000000;0.464646
9895.000000;0.463290
9894.000000;0.462234
9893.000000;0.461494
9892.000000;0.460758
9891.000000;0.459726
9890.000000;0.458365
9889.000000;0.456873
9888.000000;0.455537
9887.000000;0.454573
9886.000000;0.453929
9885.000000;0.453281
9884.000000;0.452360
9883.000000;0.451265
9882.000000;0.450286
9881.000000;0.449480
9880.000000;0.448639
9879.000000;0.447649
9878.000000;0.446618
9877.000000;0.445614
9876.000000;0.444503
9875.000000;0.443195
9874.000000;0.441863
9873.000000;0.440748
9872.000000;0.439867
9871.000000;0.439012
9870.000000;0.437995
9869.000000;0.436772
9868.000000;0.435425
9867.000000;0.434093
9866.000000;0.432890
9865.000000;0.431835
9864.000000;0.430899
9863.000000;0.430105
9862.000000;0.429483
9861.000000;0.428934
9860.000000;0.428250
9859.000000;0.427303
9858.000000;0.426119
9857.000000;0.424752
9856.000000;0.423252
9855.000000;0.421785
9854.000000;0.420609
9853.000000;0.419809
9852.000000;0.419169
9851.000000;0.418411
9850.000000;0.417499
9849.000000;0.416581
9848.000000;0.415743
9847.000000;0.414902
9846.000000;0.413878
9845.000000;0.412484
9844.000000;0.410672
9843.000000;0.408695
9842.000000;0.407032
9841.000000;0.405989
9840.000000;0.405380
9839.000000;0.404739
9838.000000;0.403799
9837.000000;0.402659
9836.000000;0.401530
9835.000000;0.400487
9834.000000;0.399498
9833.000000;0.398515
9832.000000;0.397461
9831.000000;0.396218
9830.000000;0.394726
9829.000000;0.393106
9828.000000;0.391606
9827.000000;0.390406
9826.000000;0.389449
9825.000000;0.388469
9824.000000;0.387229
9823.000000;0.385782
9822.000000;0.384453
9821.000000;0.383513
9820.000000;0.382871
9819.000000;0.382139
9818.000000;0.381003
9817.000000;0.379510
9816.000000;0.378029
9815.000000;0.376961
9814.000000;0.376414
9813.000000;0.376061
9812.000000;0.375337
9811.000000;0.373890
9810.000000;0.371909
9809.000000;0.369954
9808.000000;0.368475
9807.000000;0.367490
9806.000000;0.366712
9805.000000;0.365881
9804.000000;0.364961
9803.000000;0.364045
9802.000000;0.363136
9801.000000;0.362064
9800.000000;0.360645
9799.000000;0.358927
9798.000000;0.357198
9797.000000;0.355720
9796.000000;0.354487
9795.000000;0.353334
9794.000000;0.352188
9793.000000;0.351107
9792.000000;0.350073
9791.000000;0.348904
9790.000000;0.347471
9789.000000;0.345893
9788.000000;0.344420
9787.000000;0.343145
9786.000000;0.341926
9785.000000;0.340603
9784.000000;0.339221
9783.000000;0.338001
9782.000000;0.337079
9781.000000;0.336294
9780.000000;0.335274
9779.000000;0.333787
9778.000000;0.332014
9777.000000;0.330405
9776.000000;0.329240
9775.000000;0.328377
9774.000000;0.327456
9773.000000;0.326273
9772.000000;0.324879
9771.000000;0.323401
9770.000000;0.321893
9769.000000;0.320387
9768.000000;0.318954
9767.000000;0.317650
9766.000000;0.316458
9765.000000;0.315319
9764.000000;0.314183
9763.000000;0.313011
9762.000000;0.311764
9761.000000;0.310457
9760.000000;0.309155
9759.000000;0.307891
9758.000000;0.306608
9757.000000;0.305237
9756.000000;0.303778
9755.000000;0.302245
9754.000000;0.300578
9753.000000;0.298711
9752.000000;0.296744
9751.000000;0.294943
9750.000000;0.293527
9749.000000;0.292512
9748.000000;0.291752
9747.000000;0.291038
9746.000000;0.290115
9745.000000;0.288724
9744.000000;0.286787
9743.000000;0.284561
9742.000000;0.282492
9741.000000;0.280880
9740.000000;0.279708
9739.000000;0.278763
9738.000000;0.277813
9737.000000;0.276668
9736.000000;0.275224
9735.000000;0.273528
9734.000000;0.271761
9733.000000;0.270060
9732.000000;0.268403
9731.000000;0.266730
9730.000000;0.265115
9729.000000;0.263728
9728.000000;0.262631
9727.000000;0.261714
9726.000000;0.260811
9725.000000;0.259743
9724.000000;0.258296
9723.000000;0.256368
9722.000000;0.254235
9721.000000;0.252464
9720.000000;0.251351
9719.000000;0.250535
9718.000000;0.249370
9717.000000;0.247653
9716.000000;0.245779
9715.000000;0.244154
9714.000000;0.242711
9713.000000;0.241153
9712.000000;0.239427
9711.000000;0.237759
9710.000000;0.236292
9709.000000;0.234925
9708.000000;0.233496
9707.000000;0.231943
9706.000000;0.230240
9705.000000;0.228347
9704.000000;0.226329
9703.000000;0.224402
9702.000000;0.222752
9701.000000;0.221352
9700.000000;0.220039
9699.000000;0.218723
9698.000000;0.217438
9697.000000;0.216174
9696.000000;0.214807
9695.000000;0.213230
9694.000000;0.211514
9693.000000;0.209854
9692.000000;0.208361
9691.000000;0.206940
9690.000000;0.205398
9689.000000;0.203611
9688.000000;0.201575
9687.000000;0.199381
9686.000000;0.197227
9685.000000;0.195384
9684.000000;0.193997
9683.000000;0.192885
9682.000000;0.191651
9681.000000;0.190067
9680.000000;0.188282
9679.000000;0.186584
9678.000000;0.185082
9677.000000;0.183669
9676.000000;0.182193
9675.000000;0.180514
9674.000000;0.178511
9673.000000;0.176207
9672.000000;0.173865
9671.000000;0.171781
9670.000000;0.170010
9669.000000;0.168416
9668.000000;0.166951
9667.000000;0.165653
9666.000000;0.164366
9665.000000;0.162722
9664.000000;0.160589
9663.000000;0.158320
9662.000000;0.156391
9661.000000;0.154882
9660.000000;0.153510
9659.000000;0.152053
9658.000000;0.150536
9657.000000;0.149006
9656.000000;0.147374
9655.000000;0.145546
9654.000000;0.143590
9653.000000;0.141669
9652.000000;0.139891
9651.000000;0.138246
9650.000000;0.136652
9649.000000;0.134992
9648.000000;0.133176
9647.000000;0.131194
9646.000000;0.129096
9645.000000;0.126925
9644.000000;0.124748
9643.000000;0.122737
9642.000000;0.121078
9641.000000;0.119709
9640.000000;0.118261
9639.000000;0.116376
9638.000000;0.114118
9637.000000;0.111934
9636.000000;0.110207
9635.000000;0.108886
9634.000000;0.107595
9633.000000;0.106012
9632.000000;0.104092
9631.000000;0.101971
9630.000000;0.099796
9629.000000;0.097680
9628.000000;0.095706
9627.000000;0.093882
9626.000000;0.092091
9625.000000;0.090188
9624.000000;0.088165
9623.000000;0.086159
9622.000000;0.084276
9621.000000;0.082447
9620.000000;0.080525
9619.000000;0.078481
9618.000000;0.076433
9617.000000;0.074492
9616.000000;0.072645
9615.000000;0.070813
9614.000000;0.068962
9613.000000;0.067108
9612.000000;0.065228
9611.000000;0.063266
9610.000000;0.061244
9609.000000;0.059330
9608.000000;0.057690
9607.000000;0.056301
9606.000000;0.054933
9605.000000;0.053348
9604.000000;0.051446
9603.000000;0.049240
9602.000000;0.046786
9601.000000;0.044193
9600.000000;0.041635
9599.000000;0.039240
9598.000000;0.036991
9597.000000;0.034803
9596.000000;0.032684
9595.000000;0.030750
9594.000000;0.029068
9593.000000;0.027538
9592.000000;0.025954
9591.000000;0.024135
9590.000000;0.022023
9589.000000;0.019734
9588.000000;0.017510
9587.000000;0.015526
9586.000000;0.013689
9585.000000;0.011706
9584.000000;0.009425
9583.000000;0.007052
9582.000000;0.004952
9581.000000;0.003272
9580.000000;0.001832
9579.000000;0.000359
9578.000000;-0.001259
9577.000000;-0.003002
9576.000000;-0.004893
9575.000000;-0.007041
9574.000000;-0.009468
9573.000000;-0.011988
9572.000000;-0.014351
9571.000000;-0.016497
9570.000000;-0.018566
9569.000000;-0.020629
9568.000000;-0.022531
9567.000000;-0.024127
9566.000000;-0.025581
9565.000000;-0.027257
9564.000000;-0.029319
9563.000000;-0.031586
9562.000000;-0.033818
9561.000000;-0.035976
9560.000000;-0.038094
9559.000000;-0.040091
9558.000000;-0.041887
9557.000000;-0.043619
9556.000000;-0.045529
9555.000000;-0.047653
9554.000000;-0.049790
9553.000000;-0.051811
9552.000000;-0.053811
9551.000000;-0.055879
9550.000000;-0.057878
9549.000000;-0.059626
9548.000000;-0.061221
9547.000000;-0.062982
9546.000000;-0.065027
9545.000000;-0.067050
9544.000000;-0.068665
9543.000000;-0.069909
9542.000000;-0.071276
9541.000000;-0.073226
9540.000000;-0.075713
9539.000000;-0.078266
9538.000000;-0.080489
9537.000000;-0.082403
9536.000000;-0.084306
9535.000000;-0.086375
9534.000000;-0.088458
9533.000000;-0.090270
9532.000000;-0.091751
9531.000000;-0.093161
9530.000000;-0.094787
9529.000000;-0.096605
9528.000000;-0.098338
9527.000000;-0.099863
9526.000000;-0.101416
9525.000000;-0.103297
9524.000000;-0.105456
9523.000000;-0.107523
9522.000000;-0.109243
9521.000000;-0.110737
9520.000000;-0.112320
9519.000000;-0.114155
9518.000000;-0.116143
9517.000000;-0.118048
9516.000000;-0.119702
9515.000000;-0.121142
9514.000000;-0.122610
9513.000000;-0.124295
9512.000000;-0.126068
9511.000000;-0.127588
9510.000000;-0.128736
9509.000000;-0.129796
9508.000000;-0.131102
9507.000000;-0.132634
9506.000000;-0.134126
9505.000000;-0.135488
9504.000000;-0.136898
9503.000000;-0.138477
9502.000000;-0.140107
9501.000000;-0.141606
9500.000000;-0.142958
9499.000000;-0.144259
9498.000000;-0.145562
9497.000000;-0.146859
9496.000000;-0.148173
9495.000000;-0.149547
9494.000000;-0.150966
9493.000000;-0.152333
9492.000000;-0.153534
9491.000000;-0.154526
9490.000000;-0.155375
9489.000000;-0.156218
9488.000000;-0.157141
9487.000000;-0.158099
9486.000000;-0.158993
9485.000000;-0.159815
9484.000000;-0.160664
9483.000000;-0.161602
9482.000000;-0.162546
9481.000000;-0.163356
9480.000000;-0.163971
9479.000000;-0.164451
9478.000000;-0.164914
9477.000000;-0.165457
9476.000000;-0.166106
9475.000000;-0.166839
9474.000000;-0.167646
9473.000000;-0.168551
9472.000000;-0.169535
9471.000000;-0.170478
9470.000000;-0.171253
9469.000000;-0.171894
9468.000000;-0.172553
9467.000000;-0.173291
9466.000000;-0.173972
9465.000000;-0.174431
9464.000000;-0.174681
9463.000000;-0.174913
9462.000000;-0.175308
9461.000000;-0.175857
9460.000000;-0.176347
9459.000000;-0.176522
9458.000000;-0.176350
9457.000000;-0.176124
9456.000000;-0.176208
9455.000000;-0.176631
9454.000000;-0.177028
9453.000000;-0.177066
9452.000000;-0.176835
9451.000000;-0.176728
9450.000000;-0.177012
9449.000000;-0.177597
9448.000000;-0.178177
9447.000000;-0.178469
9446.000000;-0.178355
9445.000000;-0.177949
9444.000000;-0.177551
9443.000000;-0.177437
9442.000000;-0.177616
9441.000000;-0.177828
9440.000000;-0.177776
9439.000000;-0.177352
9438.000000;-0.176681
9437.000000;-0.176032
9436.000000;-0.175667
9435.000000;-0.175653
9434.000000;-0.175772
9433.000000;-0.175669
9432.000000;-0.175156
9431.000000;-0.174348
9430.000000;-0.173494
9429.000000;-0.172731
9428.000000;-0.172021
9427.000000;-0.171288
9426.000000;-0.170533
9425.000000;-0.169807
9424.000000;-0.169101
9423.000000;-0.168286
9422.000000;-0.167218
9421.000000;-0.165907
9420.000000;-0.164585
9419.000000;-0.163532
9418.000000;-0.162831
9417.000000;-0.162322
9416.000000;-0.161808
9415.000000;-0.161233
9414.000000;-0.160636
9413.000000;-0.159986
9412.000000;-0.159152
9411.000000;-0.158053
9410.000000;-0.156794
9409.000000;-0.155633
9408.000000;-0.154760
9407.000000;-0.154107
9406.000000;-0.153393
9405.000000;-0.152401
9404.000000;-0.151205
9403.000000;-0.150069
9402.000000;-0.149138
9401.000000;-0.148288
9400.000000;-0.147301
9399.000000;-0.146112
9398.000000;-0.144836
9397.000000;-0.143601
9396.000000;-0.142420
9395.000000;-0.141224
9394.000000;-0.139974
9393.000000;-0.138714
9392.000000;-0.137547
9391.000000;-0.136526
9390.000000;-0.135574
9389.000000;-0.134532
9388.000000;-0.133307
9387.000000;-0.131937
9386.000000;-0.130488
9385.000000;-0.128958
9384.000000;-0.127364
9383.000000;-0.125873
9382.000000;-0.124704
9381.000000;-0.123865
9380.000000;-0.123059
9379.000000;-0.121939
9378.000000;-0.120408
9377.000000;-0.118689
9376.000000;-0.117133
9375.000000;-0.115964
9374.000000;-0.115105
9373.000000;-0.114186
9372.000000;-0.112811
9371.000000;-0.110922
9370.000000;-0.108871
9369.000000;-0.107091
9368.000000;-0.105707
9367.000000;-0.104561
9366.000000;-0.103488
9365.000000;-0.102432
9364.000000;-0.101312
9363.000000;-0.099978
9362.000000;-0.098414
9361.000000;-0.096824
9360.000000;-0.095411
9359.000000;-0.094121
9358.000000;-0.092729
9357.000000;-0.091135
9356.000000;-0.089448
9355.000000;-0.087790
9354.000000;-0.086141
9353.000000;-0.084441
9352.000000;-0.082749
9351.000000;-0.081245
9350.000000;-0.080059
9349.000000;-0.079135
9348.000000;-0.078231
9347.000000;-0.077064
9346.000000;-0.075506
9345.000000;-0.073659
9344.000000;-0.071751
9343.000000;-0.069935
9342.000000;-0.068217
9341.000000;-0.066574
9340.000000;-0.065073
9339.000000;-0.063811
9338.000000;-0.062765
9337.000000;-0.061732
9336.000000;-0.060479
9335.000000;-0.058933
9334.000000;-0.057210
9333.000000;-0.055469
9332.000000;-0.053788
9331.000000;-0.052215
9330.000000;-0.050864
9329.000000;-0.049862
9328.000000;-0.049175
9327.000000;-0.048565
9326.000000;-0.047786
9325.000000;-0.046763
9324.000000;-0.045540
9323.000000;-0.044107
9322.000000;-0.042403
9321.000000;-0.040485
9320.000000;-0.038560
9319.000000;-0.036810
9318.000000;-0.035246
9317.000000;-0.033806
9316.000000;-0.032500
9315.000000;-0.031388
9314.000000;-0.030416
9313.000000;-0.029383
9312.000000;-0.028110
9311.000000;-0.026613
9310.000000;-0.025088
9309.000000;-0.023712
9308.000000;-0.022472
9307.000000;-0.021204
9306.000000;-0.019785
9305.000000;-0.018257
9304.000000;-0.016735
9303.000000;-0.015255
9302.000000;-0.013781
9301.000000;-0.012348
9300.000000;-0.011060
9299.000000;-0.009926
9298.000000;-0.008790
9297.000000;-0.007525
9296.000000;-0.006199
9295.000000;-0.004944
9294.000000;-0.003712
9293.000000;-0.002328
9292.000000;-0.000781
9291.000000;0.000710
9290.000000;0.001986
9289.000000;0.003148
9288.000000;0.004356
9287.000000;0.005565
9286.000000;0.006631
9285.000000;0.007635
9284.000000;0.008877
9283.000000;0.010510
9282.000000;0.012316
9281.000000;0.013946
9280.000000;0.015271
9279.000000;0.016421
9278.000000;0.017558
9277.000000;0.018742
9276.000000;0.019979
9275.000000;0.021284
9274.000000;0.022653
9273.000000;0.024037
9272.000000;0.025366
9271.000000;0.026592
9270.000000;0.027704
9269.000000;0.028767
9268.000000;0.029905
9267.000000;0.031192
9266.000000;0.032549
9265.000000;0.033814
9264.000000;0.034933
9263.000000;0.036034
9262.000000;0.037274
9261.000000;0.038651
9260.000000;0.039984
9259.000000;0.041050
9258.000000;0.041751
9257.000000;0.042201
9256.000000;0.042696
9255.000000;0.043553
9254.000000;0.044884
9253.000000;0.046527
9252.000000;0.048193
9251.000000;0.049684
9250.000000;0.050970
9249.000000;0.052118
9248.000000;0.053210
9247.000000;0.054304
9246.000000;0.055416
9245.000000;0.056529
9244.000000;0.057630
9243.000000;0.058736
9242.000000;0.059872
9241.000000;0.061033
9240.000000;0.062199
9239.000000;0.063351
9238.000000;0.064433
9237.000000;0.065372
9236.000000;0.066194
9235.000000;0.067084
9234.000000;0.068208
9233.000000;0.069475
9232.000000;0.070594
9231.000000;0.071421
9230.000000;0.072152
9229.000000;0.073087
9228.000000;0.074271
9227.000000;0.075480
9226.000000;0.076519
9225.000000;0.077426
9224.000000;0.078357
9223.000000;0.079380
9222.000000;0.080416
9221.000000;0.081370
9220.000000;0.082264
9219.000000;0.083237
9218.000000;0.084404
9217.000000;0.085696
9216.000000;0.086893
9215.000000;0.087850
9214.000000;0.088674
9213.000000;0.089569
9212.000000;0.090550
9211.000000;0.091423
9210.000000;0.092074
9209.000000;0.092676
9208.000000;0.093527
9207.000000;0.094761
9206.000000;0.096247
9205.000000;0.097702
9204.000000;0.098835
9203.000000;0.099501
9202.000000;0.099843
9201.000000;0.100240
9200.000000;0.100986
9199.000000;0.102042
9198.000000;0.103159
9197.000000;0.104202
9196.000000;0.105221
9195.000000;0.106266
9194.000000;0.107280
9193.000000;0.108227
9192.000000;0.109166
9191.000000;0.110161
9190.000000;0.111194
9189.000000;0.112210
9188.000000;0.113164
9187.000000;0.114002
9186.000000;0.114704
9185.000000;0.115396
9184.000000;0.116273
9183.000000;0.117339
9182.000000;0.118332
9181.000000;0.119019
9180.000000;0.119473
9179.000000;0.119974
9178.000000;0.120698
9177.000000;0.121616
9176.000000;0.122614
9175.000000;0.123598
9174.000000;0.124490
9173.000000;0.125273
9172.000000;0.126029
9171.000000;0.126849
9170.000000;0.127701
9169.000000;0.128490
9168.000000;0.129222
9167.000000;0.129994
9166.000000;0.130829
9165.000000;0.131628
9164.000000;0.132335
9163.000000;0.133063
9162.000000;0.133965
9161.000000;0.135041
9160.000000;0.136118
9159.000000;0.136995
9158.000000;0.137579
9157.000000;0.137917
9156.000000;0.138151
9155.000000;0.138435
9154.000000;0.138851
9153.000000;0.139405
9152.000000;0.140097
9151.000000;0.140963
9150.000000;0.142024
9149.000000;0.143194
9148.000000;0.144293
9147.000000;0.145161
9146.000000;0.145796
9145.000000;0.146361
9144.000000;0.147054
9143.000000;0.147926
9142.000000;0.148850
9141.000000;0.149668
9140.000000;0.150377
9139.000000;0.151121
9138.000000;0.151995
9137.000000;0.152872
9136.000000;0.153487
9135.000000;0.153735
9134.000000;0.153849
9133.000000;0.154235
9132.000000;0.155080
9131.000000;0.156200
9130.000000;0.157274
9129.000000;0.158163
9128.000000;0.158899
9127.000000;0.159459
9126.000000;0.159744
9125.000000;0.159828
9124.000000;0.160045
9123.000000;0.160692
9122.000000;0.161709
9121.000000;0.162745
9120.000000;0.163486
9119.000000;0.163862
9118.000000;0.163989
9117.000000;0.164063
9116.000000;0.164310
9115.000000;0.164904
9114.000000;0.165858
9113.000000;0.167002
9112.000000;0.168076
9111.000000;0.168869
9110.000000;0.169338
9109.000000;0.169628
9108.000000;0.169982
9107.000000;0.170568
9106.000000;0.171364
9105.000000;0.172201
9104.000000;0.172887
9103.000000;0.173327
9102.000000;0.173576
9101.000000;0.173802
9100.000000;0.174145
9099.000000;0.174606
9098.000000;0.175110
9097.000000;0.175674
9096.000000;0.176401
9095.000000;0.177302
9094.000000;0.178233
9093.000000;0.179073
9092.000000;0.179861
9091.000000;0.180696
9090.000000;0.181575
9089.000000;0.182401
9088.000000;0.183077
9087.000000;0.183539
9086.000000;0.183792
9085.000000;0.184002
9084.000000;0.184436
9083.000000;0.185179
9082.000000;0.185977
9081.000000;0.186466
9080.000000;0.186511
9079.000000;0.186268
9078.000000;0.186035
9077.000000;0.186149
9076.000000;0.186872
9075.000000;0.188154
9074.000000;0.189556
9073.000000;0.190582
9072.000000;0.191103
9071.000000;0.191335
9070.000000;0.191486
9069.000000;0.191641
9068.000000;0.191912
9067.000000;0.192427
9066.000000;0.193102
9065.000000;0.193653
9064.000000;0.193938
9063.000000;0.194121
9062.000000;0.194422
9061.000000;0.194855
9060.000000;0.195311
9059.000000;0.195753
9058.000000;0.196198
9057.000000;0.196596
9056.000000;0.196875
9055.000000;0.197080
9054.000000;0.197379
9053.000000;0.197896
9052.000000;0.198589
9051.000000;0.199265
9050.000000;0.199719
9049.000000;0.199919
9048.000000;0.200056
9047.000000;0.200378
9046.000000;0.200956
9045.000000;0.201675
9044.000000;0.202408
9043.000000;0.203085
9042.000000;0.203612
9041.000000;0.203885
9040.000000;0.203949
9039.000000;0.204010
9038.000000;0.204217
9037.000000;0.204516
9036.000000;0.204772
9035.000000;0.204965
9034.000000;0.205175
9033.000000;0.205471
9032.000000;0.205882
9031.000000;0.206421
9030.000000;0.207040
9029.000000;0.207626
9028.000000;0.208104
9027.000000;0.208529
9026.000000;0.208976
9025.000000;0.209393
9024.000000;0.209651
9023.000000;0.209750
9022.000000;0.209874
9021.000000;0.210195
9020.000000;0.210659
9019.000000;0.211031
9018.000000;0.211180
9017.000000;0.211282
9016.000000;0.211687
9015.000000;0.212523
9014.000000;0.213495
9013.000000;0.214137
9012.000000;0.214271
9011.000000;0.214156
9010.000000;0.214189
9009.000000;0.214512
9008.000000;0.214932
9007.000000;0.215165
9006.000000;0.215152
9005.000000;0.215143
9004.000000;0.215454
9003.000000;0.216107
9002.000000;0.216771
9001.000000;0.217108
9000.000000;0.217139
8999.000000;0.217164
8998.000000;0.217382
8997.000000;0.217725
8996.000000;0.218054
8995.000000;0.218358
8994.000000;0.218696
8993.000000;0.219047
8992.000000;0.219321
8991.000000;0.219458
8990.000000;0.219468
8989.000000;0.219399
8988.000000;0.219321
8987.000000;0.219301
8986.000000;0.219385
8985.000000;0.219613
8984.000000;0.220026
8983.000000;0.220586
8982.000000;0.221126
8981.000000;0.221477
8980.000000;0.221663
8979.000000;0.221861
8978.000000;0.222167
8977.000000;0.222508
8976.000000;0.222803
8975.000000;0.223078
8974.000000;0.223377
8973.000000;0.223663
8972.000000;0.223898
8971.000000;0.224121
8970.000000;0.224355
8969.000000;0.224524
8968.000000;0.224549
8967.000000;0.224507
8966.000000;0.224563
8965.000000;0.224765
8964.000000;0.224984
8963.000000;0.225084
8962.000000;0.225104
8961.000000;0.225226
8960.000000;0.225560
8959.000000;0.225994
8958.000000;0.226291
8957.000000;0.226335
8956.000000;0.226237
8955.000000;0.226164
8954.000000;0.226171
8953.000000;0.226268
8952.000000;0.226565
8951.000000;0.227164
8950.000000;0.227923
8949.000000;0.228511
8948.000000;0.228765
8947.000000;0.228863
8946.000000;0.229069
8945.000000;0.229402
8944.000000;0.229678
8943.000000;0.229774
8942.000000;0.229743
8941.000000;0.229686
8940.000000;0.229613
8939.000000;0.229472
8938.000000;0.229276
8937.000000;0.229170
8936.000000;0.229336
8935.000000;0.229812
8934.000000;0.230436
8933.000000;0.230980
8932.000000;0.231344
8931.000000;0.231553
8930.000000;0.231675
8929.000000;0.231808
8928.000000;0.232096
8927.000000;0.232570
8926.000000;0.232992
8925.000000;0.233042
8924.000000;0.232707
8923.000000;0.232356
8922.000000;0.232346
8921.000000;0.232678
8920.000000;0.233107
8919.000000;0.233443
8918.000000;0.233620
8917.000000;0.233616
8916.000000;0.233462
8915.000000;0.233304
8914.000000;0.233311
8913.000000;0.233517
8912.000000;0.233785
8911.000000;0.233930
8910.000000;0.233839
8909.000000;0.233553
8908.000000;0.233291
8907.000000;0.233328
8906.000000;0.233757
8905.000000;0.234368
8904.000000;0.234808
8903.000000;0.234851
8902.000000;0.234545
8901.000000;0.234140
8900.000000;0.233920
8899.000000;0.233995
8898.000000;0.234192
8897.000000;0.234212
8896.000000;0.233948
8895.000000;0.233604
8894.000000;0.233444
8893.000000;0.233499
8892.000000;0.233601
8891.000000;0.233634
8890.000000;0.233670
8889.000000;0.233865
8888.000000;0.234298
8887.000000;0.234877
8886.000000;0.235364
8885.000000;0.235550
8884.000000;0.235468
8883.000000;0.235366
8882.000000;0.235404
8881.000000;0.235447
8880.000000;0.235276
8879.000000;0.234934
8878.000000;0.234721
8877.000000;0.234836
8876.000000;0.235172
8875.000000;0.235507
8874.000000;0.235750
8873.000000;0.235925
8872.000000;0.236006
8871.000000;0.235915
8870.000000;0.235676
8869.000000;0.235451
8868.000000;0.235382
8867.000000;0.235447
8866.000000;0.235534
8865.000000;0.235625
8864.000000;0.235787
8863.000000;0.236002
8862.000000;0.236099
8861.000000;0.235935
8860.000000;0.235580
8859.000000;0.235208
8858.000000;0.234888
8857.000000;0.234596
8856.000000;0.234403
8855.000000;0.234468
8854.000000;0.234802
8853.000000;0.235184
8852.000000;0.235395
8851.000000;0.235452
8850.000000;0.235505
8849.000000;0.235610
8848.000000;0.235680
8847.000000;0.235614
8846.000000;0.235375
8845.000000;0.234992
8844.000000;0.234574
8843.000000;0.234308
8842.000000;0.234326
8841.000000;0.234574
8840.000000;0.234839
8839.000000;0.234931
8838.000000;0.234818
8837.000000;0.234616
8836.000000;0.234502
8835.000000;0.234583
8834.000000;0.234822
8833.000000;0.235093
8832.000000;0.235328
8831.000000;0.235562
8830.000000;0.235807
8829.000000;0.235938
8828.000000;0.235806
8827.000000;0.235423
8826.000000;0.234966
8825.000000;0.234623
8824.000000;0.234473
8823.000000;0.234487
8822.000000;0.234573
8821.000000;0.234614
8820.000000;0.234544
8819.000000;0.234409
8818.000000;0.234329
8817.000000;0.234403
8816.000000;0.234663
8815.000000;0.235071
8814.000000;0.235503
8813.000000;0.235763
8812.000000;0.235690
8811.000000;0.235310
8810.000000;0.234825
8809.000000;0.234431
8808.000000;0.234154
8807.000000;0.233888
8806.000000;0.233599
8805.000000;0.233428
8804.000000;0.233559
8803.000000;0.233960
8802.000000;0.234340
8801.000000;0.234419
8800.000000;0.234216
8799.000000;0.233970
8798.000000;0.233799
8797.000000;0.233588
8796.000000;0.233214
8795.000000;0.232793
8794.000000;0.232554
8793.000000;0.232554
8792.000000;0.232606
8791.000000;0.232508
8790.000000;0.232253
8789.000000;0.232014
8788.000000;0.231962
8787.000000;0.232129
8786.000000;0.232424
8785.000000;0.232748
8784.000000;0.233053
8783.000000;0.233274
8782.000000;0.233262
8781.000000;0.232893
8780.000000;0.232265
8779.000000;0.231664
8778.000000;0.231295
8777.000000;0.231088
8776.000000;0.230863
8775.000000;0.230584
8774.000000;0.230369
8773.000000;0.230280
8772.000000;0.230232
8771.000000;0.230113
8770.000000;0.229928
8769.000000;0.229784
8768.000000;0.229799
8767.000000;0.230012
8766.000000;0.230314
8765.000000;0.230472
8764.000000;0.230291
8763.000000;0.229815
8762.000000;0.229297
8761.000000;0.228930
8760.000000;0.228669
8759.000000;0.228381
8758.000000;0.228119
8757.000000;0.228103
8756.000000;0.228413
8755.000000;0.228795
8754.000000;0.228875
8753.000000;0.228539
8752.000000;0.228008
8751.000000;0.227557
8750.000000;0.227261
8749.000000;0.227042
8748.000000;0.226851
8747.000000;0.226712
8746.000000;0.226640
8745.000000;0.226586
8744.000000;0.226484
8743.000000;0.226311
8742.000000;0.226118
8741.000000;0.226019
8740.000000;0.226095
8739.000000;0.226261
8738.000000;0.226304
8737.000000;0.226112
8736.000000;0.225812
8735.000000;0.225594
8734.000000;0.225471
8733.000000;0.225325
8732.000000;0.225142
8731.000000;0.225025
8730.000000;0.224963
8729.000000;0.224790
8728.000000;0.224436
8727.000000;0.224094
8726.000000;0.224006
8725.000000;0.224175
8724.000000;0.224378
8723.000000;0.224409
8722.000000;0.224228
8721.000000;0.223921
8720.000000;0.223590
8719.000000;0.223258
8718.000000;0.222833
8717.000000;0.222218
8716.000000;0.221500
8715.000000;0.220956
8714.000000;0.220798
8713.000000;0.220954
8712.000000;0.221158
8711.000000;0.221181
8710.000000;0.220934
8709.000000;0.220447
8708.000000;0.219876
8707.000000;0.219473
8706.000000;0.219394
8705.000000;0.219508
8704.000000;0.219501
8703.000000;0.219208
8702.000000;0.218755
8701.000000;0.218374
8700.000000;0.218177
8699.000000;0.218135
8698.000000;0.218180
8697.000000;0.218244
8696.000000;0.218246
8695.000000;0.218131
8694.000000;0.217908
8693.000000;0.217629
8692.000000;0.217316
8691.000000;0.216978
8690.000000;0.216648
8689.000000;0.216392
8688.000000;0.216239
8687.000000;0.216147
8686.000000;0.216029
8685.000000;0.215836
8684.000000;0.215598
8683.000000;0.215417
8682.000000;0.215400
8681.000000;0.215565
8680.000000;0.215778
8679.000000;0.215812
8678.000000;0.215489
8677.000000;0.214811
8676.000000;0.213965
8675.000000;0.213192
8674.000000;0.212635
8673.000000;0.212287
8672.000000;0.212058
8671.000000;0.211884
8670.000000;0.211766
8669.000000;0.211710
8668.000000;0.211672
8667.000000;0.211608
8666.000000;0.211569
8665.000000;0.211657
8664.000000;0.211843
8663.000000;0.211905
8662.000000;0.211632
8661.000000;0.211080
8660.000000;0.210511
8659.000000;0.210096
8658.000000;0.209767
8657.000000;0.209385
8656.000000;0.208941
8655.000000;0.208514
8654.000000;0.208140
8653.000000;0.207825
8652.000000;0.207634
8651.000000;0.207643
8650.000000;0.207802
8649.000000;0.207934
8648.000000;0.207870
8647.000000;0.207568
8646.000000;0.207120
8645.000000;0.206690
8644.000000;0.206424
8643.000000;0.206337
8642.000000;0.206304
8641.000000;0.206171
8640.000000;0.205900
8639.000000;0.205551
8638.000000;0.205169
8637.000000;0.204736
8636.000000;0.204238
8635.000000;0.203740
8634.000000;0.203375
8633.000000;0.203265
8632.000000;0.203399
8631.000000;0.203579
8630.000000;0.203552
8629.000000;0.203262
8628.000000;0.202891
8627.000000;0.202625
8626.000000;0.202447
8625.000000;0.202221
8624.000000;0.201900
8623.000000;0.201533
8622.000000;0.201164
8621.000000;0.200830
8620.000000;0.200584
8619.000000;0.200399
8618.000000;0.200104
8617.000000;0.199584
8616.000000;0.199000
8615.000000;0.198643
8614.000000;0.198566
8613.000000;0.198544
8612.000000;0.198403
8611.000000;0.198199
8610.000000;0.198013
8609.000000;0.197741
8608.000000;0.197255
8607.000000;0.196670
8606.000000;0.196307
8605.000000;0.196385
8604.000000;0.196784
8603.000000;0.197088
8602.000000;0.196884
8601.000000;0.196103
8600.000000;0.195118
8599.000000;0.194408
8598.000000;0.194122
8597.000000;0.194000
8596.000000;0.193735
8595.000000;0.193307
8594.000000;0.192929
8593.000000;0.192768
8592.000000;0.192789
8591.000000;0.192816
8590.000000;0.192684
8589.000000;0.192388
8588.000000;0.192089
8587.000000;0.191929
8586.000000;0.191826
8585.000000;0.191560
8584.000000;0.191054
8583.000000;0.190465
8582.000000;0.189974
8581.000000;0.189601
8580.000000;0.189299
8579.000000;0.189087
8578.000000;0.189005
8577.000000;0.188994
8576.000000;0.188941
8575.000000;0.188801
8574.000000;0.188596
8573.000000;0.188340
8572.000000;0.188004
8571.000000;0.187556
8570.000000;0.186999
8569.000000;0.186409
8568.000000;0.185940
8567.000000;0.185726
8566.000000;0.185723
8565.000000;0.185725
8564.000000;0.185566
8563.000000;0.185248
8562.000000;0.184869
8561.000000;0.184509
8560.000000;0.184209
8559.000000;0.183967
8558.000000;0.183700
8557.000000;0.183328
8556.000000;0.182929
8555.000000;0.182680
8554.000000;0.182560
8553.000000;0.182294
8552.000000;0.181715
8551.000000;0.181049
8550.000000;0.180658
8549.000000;0.180593
8548.000000;0.180586
8547.000000;0.180429
8546.000000;0.180162
8545.000000;0.179897
8544.000000;0.179640
8543.000000;0.179349
8542.000000;0.179017
8541.000000;0.178663
8540.000000;0.178325
8539.000000;0.178084
8538.000000;0.177998
8537.000000;0.177962
8536.000000;0.177771
8535.000000;0.177347
8534.000000;0.176828
8533.000000;0.176375
8532.000000;0.176015
8531.000000;0.175718
8530.000000;0.175511
8529.000000;0.175410
8528.000000;0.175315
8527.000000;0.175079
8526.000000;0.174688
8525.000000;0.174277
8524.000000;0.173969
8523.000000;0.173759
8522.000000;0.173544
8521.000000;0.173215
8520.000000;0.172714
8519.000000;0.172078
8518.000000;0.171447
8517.000000;0.170972
8516.000000;0.170686
8515.000000;0.170467
8514.000000;0.170165
8513.000000;0.169755
8512.000000;0.169345
8511.000000;0.169070
8510.000000;0.168990
8509.000000;0.169052
8508.000000;0.169107
8507.000000;0.168977
8506.000000;0.168588
8505.000000;0.168058
8504.000000;0.167621
8503.000000;0.167405
8502.000000;0.167325
8501.000000;0.167180
8500.000000;0.166855
8499.000000;0.166395
8498.000000;0.165935
8497.000000;0.165587
8496.000000;0.165378
8495.000000;0.165241
8494.000000;0.165066
8493.000000;0.164801
8492.000000;0.164482
8491.000000;0.164149
8490.000000;0.163756
8489.000000;0.163234
8488.000000;0.162608
8487.000000;0.162015
8486.000000;0.161590
8485.000000;0.161384
8484.000000;0.161348
8483.000000;0.161374
8482.000000;0.161322
8481.000000;0.161101
8480.000000;0.160738
8479.000000;0.160332
8478.000000;0.159956
8477.000000;0.159615
8476.000000;0.159294
8475.000000;0.158977
8474.000000;0.158644
8473.000000;0.158286
8472.000000;0.157956
8471.000000;0.157731
8470.000000;0.157615
8469.000000;0.157525
8468.000000;0.157389
8467.000000;0.157194
8466.000000;0.156941
8465.000000;0.156609
8464.000000;0.156205
8463.000000;0.155793
8462.000000;0.155446
8461.000000;0.155198
8460.000000;0.155034
8459.000000;0.154913
8458.000000;0.154771
8457.000000;0.154553
8456.000000;0.154253
8455.000000;0.153903
8454.000000;0.153542
8453.000000;0.153212
8452.000000;0.152957
8451.000000;0.152766
8450.000000;0.152532
8449.000000;0.152156
8448.000000;0.151673
8447.000000;0.151211
8446.000000;0.150840
8445.000000;0.150533
8444.000000;0.150290
8443.000000;0.150152
8442.000000;0.150081
8441.000000;0.149944
8440.000000;0.149678
8439.000000;0.149386
8438.000000;0.149177
8437.000000;0.148996
8436.000000;0.148698
8435.000000;0.148242
8434.000000;0.147747
8433.000000;0.147369
8432.000000;0.147211
8431.000000;0.147275
8430.000000;0.147418
8429.000000;0.147384
8428.000000;0.146980
8427.000000;0.146242
8426.000000;0.145398
8425.000000;0.144654
8424.000000;0.144082
8423.000000;0.143679
8422.000000;0.143462
8421.000000;0.143464
8420.000000;0.143665
8419.000000;0.143921
8418.000000;0.143983
8417.000000;0.143636
8416.000000;0.142890
8415.000000;0.142018
8414.000000;0.141362
8413.000000;0.141085
8412.000000;0.141107
8411.000000;0.141259
8410.000000;0.141417
8409.000000;0.141515
8408.000000;0.141483
8407.000000;0.141256
8406.000000;0.140851
8405.000000;0.140412
8404.000000;0.140128
8403.000000;0.140044
8402.000000;0.139984
8401.000000;0.139712
8400.000000;0.139192
8399.000000;0.138623
8398.000000;0.138198
8397.000000;0.137893
8396.000000;0.137543
8395.000000;0.137086
8394.000000;0.136634
8393.000000;0.136318
8392.000000;0.136143
8391.000000;0.136015
8390.000000;0.135844
8389.000000;0.135597
8388.000000;0.135292
8387.000000;0.134985
8386.000000;0.134732
8385.000000;0.134530
8384.000000;0.134291
8383.000000;0.133939
8382.000000;0.133514
8381.000000;0.133145
8380.000000;0.132905
8379.000000;0.132730
8378.000000;0.132514
8377.000000;0.132228
8376.000000;0.131913
8375.000000;0.131596
8374.000000;0.131278
8373.000000;0.131013
8372.000000;0.130887
8371.000000;0.130908
8370.000000;0.130960
8369.000000;0.130919
8368.000000;0.130746
8367.000000;0.130471
8366.000000;0.130128
8365.000000;0.129768
8364.000000;0.129448
8363.000000;0.129162
8362.000000;0.128831
8361.000000;0.128433
8360.000000;0.128091
8359.000000;0.127932
8358.000000;0.127907
8357.000000;0.127844
8356.000000;0.127644
8355.000000;0.127332
8354.000000;0.126954
8353.000000;0.126535
8352.000000;0.126135
8351.000000;0.125820
8350.000000;0.125562
8349.000000;0.125265
8348.000000;0.124928
8347.000000;0.124649
8346.000000;0.124459
8345.000000;0.124255
8344.000000;0.123955
8343.000000;0.123628
8342.000000;0.123388
8341.000000;0.123254
8340.000000;0.123166
8339.000000;0.123074
8338.000000;0.122942
8337.000000;0.122722
8336.000000;0.122415
8335.000000;0.122089
8334.000000;0.121778
8333.000000;0.121425
8332.000000;0.121006
8331.000000;0.120644
8330.000000;0.120497
8329.000000;0.120547
8328.000000;0.120614
8327.000000;0.120566
8326.000000;0.120409
8325.000000;0.120180
8324.000000;0.119866
8323.000000;0.119481
8322.000000;0.119130
8321.000000;0.118904
8320.000000;0.118773
8319.000000;0.118649
8318.000000;0.118511
8317.000000;0.118399
8316.000000;0.118290
8315.000000;0.118094
8314.000000;0.117796
8313.000000;0.117515
8312.000000;0.117362
8311.000000;0.117287
8310.000000;0.117162
8309.000000;0.116977
8308.000000;0.116844
8307.000000;0.116791
8306.000000;0.116648
8305.000000;0.116259
8304.000000;0.115704
8303.000000;0.115237
8302.000000;0.114990
8301.000000;0.114852
8300.000000;0.114652
8299.000000;0.114381
8298.000000;0.114179
8297.000000;0.114128
8296.000000;0.114132
8295.000000;0.114006
8294.000000;0.113686
8293.000000;0.113310
8292.000000;0.113077
8291.000000;0.113030
8290.000000;0.113028
8289.000000;0.112913
8288.000000;0.112673
8287.000000;0.112396
8286.000000;0.112141
8285.000000;0.111907
8284.000000;0.111660
8283.000000;0.111360
8282.000000;0.110986
8281.000000;0.110615
8280.000000;0.110413
8279.000000;0.110468
8278.000000;0.110661
8277.000000;0.110774
8276.000000;0.110689
8275.000000;0.110406
8274.000000;0.109938
8273.000000;0.109327
8272.000000;0.108757
8271.000000;0.108493
8270.000000;0.108617
8269.000000;0.108918
8268.000000;0.109083
8267.000000;0.108962
8266.000000;0.108646
8265.000000;0.108356
8264.000000;0.108282
8263.000000;0.108440
8262.000000;0.108623
8261.000000;0.108545
8260.000000;0.108115
8259.000000;0.107522
8258.000000;0.107055
8257.000000;0.106864
8256.000000;0.106898
8255.000000;0.107002
8254.000000;0.107028
8253.000000;0.106898
8252.000000;0.106632
8251.000000;0.106298
8250.000000;0.105940
8249.000000;0.105583
8248.000000;0.105285
8247.000000;0.105116
8246.000000;0.105053
8245.000000;0.104969
8244.000000;0.104765
8243.000000;0.104471
8242.000000;0.104187
8241.000000;0.103975
8240.000000;0.103842
8239.000000;0.103774
8238.000000;0.103749
8237.000000;0.103729
8236.000000;0.103697
8235.000000;0.103660
8234.000000;0.103626
8233.000000;0.103574
8232.000000;0.103465
8231.000000;0.103270
8230.000000;0.102988
8229.000000;0.102677
8228.000000;0.102431
8227.000000;0.102286
8226.000000;0.102173
8225.000000;0.102023
8224.000000;0.101888
8223.000000;0.101857
8222.000000;0.101879
8221.000000;0.101797
8220.000000;0.101560
8219.000000;0.101295
8218.000000;0.101125
8217.000000;0.101036
8216.000000;0.100969
8215.000000;0.100936
8214.000000;0.100953
8213.000000;0.100937
8212.000000;0.100775
8211.000000;0.100467
8210.000000;0.100109
8209.000000;0.099788
8208.000000;0.099549
8207.000000;0.099430
8206.000000;0.099432
8205.000000;0.099468
8204.000000;0.099414
8203.000000;0.099221
8202.000000;0.098943
8201.000000;0.098650
8200.000000;0.098358
8199.000000;0.098050
8198.000000;0.097745
8197.000000;0.097523
8196.000000;0.097469
8195.000000;0.097575
8194.000000;0.097714
8193.000000;0.097755
8192.000000;0.097683
8191.000000;0.097558
8190.000000;0.097388
8189.000000;0.097136
8188.000000;0.096836
8187.000000;0.096587
8186.000000;0.096423
8185.000000;0.096292
8184.000000;0.096185
8183.000000;0.096176
8182.000000;0.096271
8181.000000;0.096331
8180.000000;0.096235
8179.000000;0.096038
8178.000000;0.095856
8177.000000;0.095690
8176.000000;0.095479
8175.000000;0.095271
8174.000000;0.095192
8173.000000;0.095249
8172.000000;0.095287
8171.000000;0.095176
8170.000000;0.094967
8169.000000;0.094818
8168.000000;0.094826
8167.000000;0.094958
8166.000000;0.095111
8165.000000;0.095192
8164.000000;0.095158
8163.000000;0.094997
8162.000000;0.094693
8161.000000;0.094248
8160.000000;0.093744
8159.000000;0.093333
8158.000000;0.093127
8157.000000;0.093118
8156.000000;0.093218
8155.000000;0.093344
8154.000000;0.093440
8153.000000;0.093467
8152.000000;0.093432
8151.000000;0.093389
8150.000000;0.093365
8149.000000;0.093311
8148.000000;0.093179
8147.000000;0.093020
8146.000000;0.092928
8145.000000;0.092918
8144.000000;0.092894
8143.000000;0.092757
8142.000000;0.092495
8141.000000;0.092160
8140.000000;0.091817
8139.000000;0.091523
8138.000000;0.091317
8137.000000;0.091209
8136.000000;0.091188
8135.000000;0.091233
8134.000000;0.091321
8133.000000;0.091425
8132.000000;0.091512
8131.000000;0.091535
8130.000000;0.091450
8129.000000;0.091246
8128.000000;0.090973
8127.000000;0.090717
8126.000000;0.090532
8125.000000;0.090430
8124.000000;0.090424
8123.000000;0.090519
8122.000000;0.090646
8121.000000;0.090675
8120.000000;0.090534
8119.000000;0.090287
8118.000000;0.090072
8117.000000;0.089979
8116.000000;0.090002
8115.000000;0.090059
8114.000000;0.090034
8113.000000;0.089857
8112.000000;0.089594
8111.000000;0.089415
8110.000000;0.089413
8109.000000;0.089496
8108.000000;0.089493
8107.000000;0.089349
8106.000000;0.089165
8105.000000;0.089064
8104.000000;0.089077
8103.000000;0.089134
8102.000000;0.089133
8101.000000;0.089020
8100.000000;0.088848
8099.000000;0.088743
8098.000000;0.088792
8097.000000;0.088928
8096.000000;0.088972
8095.000000;0.088789
8094.000000;0.088405
8093.000000;0.088003
8092.000000;0.087783
8091.000000;0.087812
8090.000000;0.087961
8089.000000;0.088032
8088.000000;0.087950
8087.000000;0.087818
8086.000000;0.087779
8085.000000;0.087866
8084.000000;0.088011
8083.000000;0.088135
8082.000000;0.088193
8081.000000;0.088167
8080.000000;0.088071
8079.000000;0.087957
8078.000000;0.087854
8077.000000;0.087725
8076.000000;0.087524
8075.000000;0.087296
8074.000000;0.087163
8073.000000;0.087196
8072.000000;0.087315
8071.000000;0.087355
8070.000000;0.087230
8069.000000;0.087033
8068.000000;0.086943
8067.000000;0.087019
8066.000000;0.087119
8065.000000;0.087059
8064.000000;0.086835
8063.000000;0.086616
8062.000000;0.086532
8061.000000;0.086544
8060.000000;0.086561
8059.000000;0.086571
8058.000000;0.086600
8057.000000;0.086613
8056.000000;0.086560
8055.000000;0.086487
8054.000000;0.086495
8053.000000;0.086595
8052.000000;0.086681
8051.000000;0.086656
8050.000000;0.086520
8049.000000;0.086324
8048.000000;0.086089
8047.000000;0.085822
8046.000000;0.085556
8045.000000;0.085358
8044.000000;0.085277
8043.000000;0.085321
8042.000000;0.085462
8041.000000;0.085651
8040.000000;0.085839
8039.000000;0.085974
8038.000000;0.086000
8037.000000;0.085887
8036.000000;0.085668
8035.000000;0.085421
8034.000000;0.085214
8033.000000;0.085070
8032.000000;0.084993
8031.000000;0.084994
8030.000000;0.085084
8029.000000;0.085246
8028.000000;0.085441
8027.000000;0.085600
8026.000000;0.085639
8025.000000;0.085518
8024.000000;0.085304
8023.000000;0.085138
8022.000000;0.085113
8021.000000;0.085200
8020.000000;0.085304
8019.000000;0.085343
8018.000000;0.085269
8017.000000;0.085093
8016.000000;0.084896
8015.000000;0.084781
8014.000000;0.084776
8013.000000;0.084810
8012.000000;0.084823
8011.000000;0.084821
8010.000000;0.084815
8009.000000;0.084775
8008.000000;0.084696
8007.000000;0.084647
8006.000000;0.084675
8005.000000;0.084707
8004.000000;0.084633
8003.000000;0.084450
8002.000000;0.084247
8001.000000;0.084069
8000.000000;0.083895
7999.000000;0.083741
7998.000000;0.083677
7997.000000;0.083735
7996.000000;0.083835
7995.000000;0.083879
7994.000000;0.083851
7993.000000;0.083823
7992.000000;0.083860
7991.000000;0.083958
7990.000000;0.084040
7989.000000;0.084022
7988.000000;0.083895
7987.000000;0.083745
7986.000000;0.083668
7985.000000;0.083662
7984.000000;0.083640
7983.000000;0.083545
7982.000000;0.083414
7981.000000;0.083329
7980.000000;0.083320
7979.000000;0.083348
7978.000000;0.083352
7977.000000;0.083310
7976.000000;0.083236
7975.000000;0.083148
7974.000000;0.083035
7973.000000;0.082889
7972.000000;0.082747
7971.000000;0.082702
7970.000000;0.082817
7969.000000;0.083057
7968.000000;0.083302
7967.000000;0.083431
7966.000000;0.083401
7965.000000;0.083263
7964.000000;0.083120
7963.000000;0.083040
7962.000000;0.083014
7961.000000;0.082992
7960.000000;0.082962
7959.000000;0.082941
7958.000000;0.082913
7957.000000;0.082826
7956.000000;0.082680
7955.000000;0.082559
7954.000000;0.082532
7953.000000;0.082561
7952.000000;0.082583
7951.000000;0.082607
7950.000000;0.082700
7949.000000;0.082865
7948.000000;0.083026
7947.000000;0.083097
7946.000000;0.083032
7945.000000;0.082819
7944.000000;0.082505
7943.000000;0.082227
7942.000000;0.082124
7941.000000;0.082189
7940.000000;0.082273
7939.000000;0.082260
7938.000000;0.082194
7937.000000;0.082189
7936.000000;0.082258
7935.000000;0.082304
7934.000000;0.082260
7933.000000;0.082168
7932.000000;0.082114
7931.000000;0.082135
7930.000000;0.082201
7929.000000;0.082265
7928.000000;0.082291
7927.000000;0.082260
7926.000000;0.082185
7925.000000;0.082111
7924.000000;0.082072
7923.000000;0.082039
7922.000000;0.081954
7921.000000;0.081815
7920.000000;0.081700
7919.000000;0.081660
7918.000000;0.081642
7917.000000;0.081560
7916.000000;0.081425
7915.000000;0.081332
7914.000000;0.081334
7913.000000;0.081373
7912.000000;0.081381
7911.000000;0.081360
7910.000000;0.081354
7909.000000;0.081370
7908.000000;0.081381
7907.000000;0.081377
7906.000000;0.081379
7905.000000;0.081416
7904.000000;0.081507
7903.000000;0.081643
7902.000000;0.081766
7901.000000;0.081791
7900.000000;0.081695
7899.000000;0.081560
7898.000000;0.081486
7897.000000;0.081468
7896.000000;0.081421
7895.000000;0.081305
7894.000000;0.081191
7893.000000;0.081179
7892.000000;0.081279
7891.000000;0.081396
7890.000000;0.081431
7889.000000;0.081379
7888.000000;0.081311
7887.000000;0.081272
7886.000000;0.081211
7885.000000;0.081054
7884.000000;0.080825
7883.000000;0.080660
7882.000000;0.080673
7881.000000;0.080835
7880.000000;0.081006
7879.000000;0.081060
7878.000000;0.080992
7877.000000;0.080894
7876.000000;0.080863
7875.000000;0.080897
7874.000000;0.080905
7873.000000;0.080805
7872.000000;0.080624
7871.000000;0.080460
7870.000000;0.080368
7869.000000;0.080325
7868.000000;0.080308
7867.000000;0.080340
7866.000000;0.080438
7865.000000;0.080546
7864.000000;0.080574
7863.000000;0.080475
7862.000000;0.080278
7861.000000;0.080077
7860.000000;0.080001
7859.000000;0.080127
7858.000000;0.080385
7857.000000;0.080600
7856.000000;0.080658
7855.000000;0.080597
7854.000000;0.080508
7853.000000;0.080404
7852.000000;0.080256
7851.000000;0.080104
7850.000000;0.080027
7849.000000;0.080032
7848.000000;0.080042
7847.000000;0.080011
7846.000000;0.079974
7845.000000;0.079974
7844.000000;0.079993
7843.000000;0.079989
7842.000000;0.079954
7841.000000;0.079914
7840.000000;0.079879
7839.000000;0.079836
7838.000000;0.079769
7837.000000;0.079704
7836.000000;0.079706
7835.000000;0.079828
7834.000000;0.080030
7833.000000;0.080189
7832.000000;0.080213
7831.000000;0.080128
7830.000000;0.080027
7829.000000;0.079959
7828.000000;0.079909
7827.000000;0.079859
7826.000000;0.079820
7825.000000;0.079794
7824.000000;0.079756
7823.000000;0.079701
7822.000000;0.079650
7821.000000;0.079617
7820.000000;0.079579
7819.000000;0.079506
7818.000000;0.079395
7817.000000;0.079276
7816.000000;0.079196
7815.000000;0.079195
7814.000000;0.079259
7813.000000;0.079318
7812.000000;0.079297
7811.000000;0.079189
7810.000000;0.079046
7809.000000;0.078922
7808.000000;0.078840
7807.000000;0.078807
7806.000000;0.078811
7805.000000;0.078826
7804.000000;0.078839
7803.000000;0.078883
7802.000000;0.078995
7801.000000;0.079131
7800.000000;0.079182
7799.000000;0.079089
7798.000000;0.078912
7797.000000;0.078766
7796.000000;0.078702
7795.000000;0.078697
7794.000000;0.078710
7793.000000;0.078732
7792.000000;0.078776
7791.000000;0.078856
7790.000000;0.078970
7789.000000;0.079068
7788.000000;0.079064
7787.000000;0.078907
7786.000000;0.078648
7785.000000;0.078408
7784.000000;0.078283
7783.000000;0.078276
7782.000000;0.078337
7781.000000;0.078423
7780.000000;0.078499
7779.000000;0.078507
7778.000000;0.078392
7777.000000;0.078181
7776.000000;0.077996
7775.000000;0.077957
7774.000000;0.078084
7773.000000;0.078296
7772.000000;0.078488
7771.000000;0.078583
7770.000000;0.078551
7769.000000;0.078422
7768.000000;0.078278
7767.000000;0.078205
7766.000000;0.078234
7765.000000;0.078337
7764.000000;0.078456
7763.000000;0.078528
7762.000000;0.078494
7761.000000;0.078349
7760.000000;0.078184
7759.000000;0.078116
7758.000000;0.078181
7757.000000;0.078308
7756.000000;0.078415
7755.000000;0.078466
7754.000000;0.078454
7753.000000;0.078377
7752.000000;0.078274
7751.000000;0.078206
7750.000000;0.078172
7749.000000;0.078100
7748.000000;0.077966
7747.000000;0.077854
7746.000000;0.077854
7745.000000;0.077917
7744.000000;0.077907
7743.000000;0.077767
7742.000000;0.077574
7741.000000;0.077426
7740.000000;0.077348
7739.000000;0.077335
7738.000000;0.077388
7737.000000;0.077489
7736.000000;0.077568
7735.000000;0.077561
7734.000000;0.077499
7733.000000;0.077485
7732.000000;0.077571
7731.000000;0.077702
7730.000000;0.077783
7729.000000;0.077785
7728.000000;0.077754
7727.000000;0.077718
7726.000000;0.077649
7725.000000;0.077529
7724.000000;0.077395
7723.000000;0.077283
7722.000000;0.077162
7721.000000;0.077001
7720.000000;0.076871
7719.000000;0.076886
7718.000000;0.077044
7717.000000;0.077203
7716.000000;0.077251
7715.000000;0.077218
7714.000000;0.077177
7713.000000;0.077123
7712.000000;0.077012
7711.000000;0.076885
7710.000000;0.076840
7709.000000;0.076911
7708.000000;0.077043
7707.000000;0.077166
7706.000000;0.077246
7705.000000;0.077265
7704.000000;0.077229
7703.000000;0.077180
7702.000000;0.077153
7701.000000;0.077117
7700.000000;0.077005
7699.000000;0.076827
7698.000000;0.076687
7697.000000;0.076667
7696.000000;0.076732
7695.000000;0.076792
7694.000000;0.076810
7693.000000;0.076825
7692.000000;0.076880
7691.000000;0.076949
7690.000000;0.076954
7689.000000;0.076838
7688.000000;0.076628
7687.000000;0.076417
7686.000000;0.076298
7685.000000;0.076298
7684.000000;0.076385
7683.000000;0.076496
7682.000000;0.076568
7681.000000;0.076557
7680.000000;0.076474
7679.000000;0.076378
7678.000000;0.076312
7677.000000;0.076266
7676.000000;0.076208
7675.000000;0.076140
7674.000000;0.076112
7673.000000;0.076167
7672.000000;0.076293
7671.000000;0.076421
7670.000000;0.076470
7669.000000;0.076425
7668.000000;0.076349
7667.000000;0.076310
7666.000000;0.076291
7665.000000;0.076233
7664.000000;0.076156
7663.000000;0.076159
7662.000000;0.076265
7661.000000;0.076347
7660.000000;0.076284
7659.000000;0.076121
7658.000000;0.076007
7657.000000;0.076005
7656.000000;0.076056
7655.000000;0.076101
7654.000000;0.076136
7653.000000;0.076163
7652.000000;0.076165
7651.000000;0.076143
7650.000000;0.076105
7649.000000;0.076021
7648.000000;0.075860
7647.000000;0.075694
7646.000000;0.075666
7645.000000;0.075820
7644.000000;0.076036
7643.000000;0.076148
7642.000000;0.076113
7641.000000;0.075997
7640.000000;0.075871
7639.000000;0.075756
7638.000000;0.075636
7637.000000;0.075488
7636.000000;0.075313
7635.000000;0.075162
7634.000000;0.075112
7633.000000;0.075187
7632.000000;0.075321
7631.000000;0.075430
7630.000000;0.075490
7629.000000;0.075526
7628.000000;0.075536
7627.000000;0.075481
7626.000000;0.075343
7625.000000;0.075177
7624.000000;0.075081
7623.000000;0.075117
7622.000000;0.075255
7621.000000;0.075391
7620.000000;0.075436
7619.000000;0.075378
7618.000000;0.075279
7617.000000;0.075209
7616.000000;0.075195
7615.000000;0.075222
7614.000000;0.075251
7613.000000;0.075235
7612.000000;0.075166
7611.000000;0.075092
7610.000000;0.075072
7609.000000;0.075111
7608.000000;0.075142
7607.000000;0.075096
7606.000000;0.074972
7605.000000;0.074836
7604.000000;0.074769
7603.000000;0.074804
7602.000000;0.074901
7601.000000;0.074975
7600.000000;0.074978
7599.000000;0.074940
7598.000000;0.074919
7597.000000;0.074930
7596.000000;0.074923
7595.000000;0.074846
7594.000000;0.074695
7593.000000;0.074527
7592.000000;0.074428
7591.000000;0.074459
7590.000000;0.074598
7589.000000;0.074737
7588.000000;0.074779
7587.000000;0.074740
7586.000000;0.074721
7585.000000;0.074772
7584.000000;0.074824
7583.000000;0.074773
7582.000000;0.074590
7581.000000;0.074344
7580.000000;0.074128
7579.000000;0.074003
7578.000000;0.073988
7577.000000;0.074055
7576.000000;0.074155
7575.000000;0.074252
7574.000000;0.074347
7573.000000;0.074456
7572.000000;0.074555
7571.000000;0.074579
7570.000000;0.074487
7569.000000;0.074324
7568.000000;0.074197
7567.000000;0.074164
7566.000000;0.074179
7565.000000;0.074154
7564.000000;0.074066
7563.000000;0.073977
7562.000000;0.073939
7561.000000;0.073930
7560.000000;0.073893
7559.000000;0.073801
7558.000000;0.073675
7557.000000;0.073556
7556.000000;0.073485
7555.000000;0.073480
7554.000000;0.073511
7553.000000;0.073535
7552.000000;0.073545
7551.000000;0.073580
7550.000000;0.073641
7549.000000;0.073665
7548.000000;0.073606
7547.000000;0.073499
7546.000000;0.073422
7545.000000;0.073406
7544.000000;0.073441
7543.000000;0.073508
7542.000000;0.073571
7541.000000;0.073567
7540.000000;0.073465
7539.000000;0.073334
7538.000000;0.073270
7537.000000;0.073299
7536.000000;0.073375
7535.000000;0.073471
7534.000000;0.073591
7533.000000;0.073700
7532.000000;0.073725
7531.000000;0.073629
7530.000000;0.073452
7529.000000;0.073249
7528.000000;0.073062
7527.000000;0.072934
7526.000000;0.072923
7525.000000;0.073036
7524.000000;0.073203
7523.000000;0.073321
7522.000000;0.073321
7521.000000;0.073212
7520.000000;0.073073
7519.000000;0.072994
7518.000000;0.072969
7517.000000;0.072900
7516.000000;0.072716
7515.000000;0.072496
7514.000000;0.072388
7513.000000;0.072438
7512.000000;0.072556
7511.000000;0.072647
7510.000000;0.072699
7509.000000;0.072733
7508.000000;0.072734
7507.000000;0.072679
7506.000000;0.072582
7505.000000;0.072493
7504.000000;0.072462
7503.000000;0.072526
7502.000000;0.072667
7501.000000;0.072797
7500.000000;0.072818
7499.000000;0.072721
7498.000000;0.072589
7497.000000;0.072452
7496.000000;0.072415
7495.000000;0.072416
7494.000000;0.072432
7493.000000;0.072426
7492.000000;0.072362
7491.000000;0.072249
7490.000000;0.072141
7489.000000;0.072082
7488.000000;0.072067
7487.000000;0.072068
7486.000000;0.072057
7485.000000;0.072004
7484.000000;0.071908
7483.000000;0.071812
7482.000000;0.071773
7481.000000;0.071797
7480.000000;0.071842
7479.000000;0.071875
7478.000000;0.071880
7477.000000;0.071834
7476.000000;0.071735
7475.000000;0.071649
7474.000000;0.071656
7473.000000;0.071753
7472.000000;0.071857
7471.000000;0.071902
7470.000000;0.071881
7469.000000;0.071813
7468.000000;0.071735
7467.000000;0.071715
7466.000000;0.071791
7465.000000;0.071885
7464.000000;0.071857
7463.000000;0.071670
7462.000000;0.071426
7461.000000;0.071233
7460.000000;0.071106
7459.000000;0.071019
7458.000000;0.070964
7457.000000;0.070938
7456.000000;0.070923
7455.000000;0.070922
7454.000000;0.070956
7453.000000;0.071005
7452.000000;0.071014
7451.000000;0.070970
7450.000000;0.070920
7449.000000;0.070900
7448.000000;0.070904
7447.000000;0.070919
7446.000000;0.070942
7445.000000;0.070943
7444.000000;0.070874
7443.000000;0.070761
7442.000000;0.070699
7441.000000;0.070735
7440.000000;0.070823
7439.000000;0.070909
7438.000000;0.070982
7437.000000;0.071020
7436.000000;0.070970
7435.000000;0.070829
7434.000000;0.070690
7433.000000;0.070642
7432.000000;0.070661
7431.000000;0.070648
7430.000000;0.070548
7429.000000;0.070407
7428.000000;0.070324
7427.000000;0.070360
7426.000000;0.070462
7425.000000;0.070496
7424.000000;0.070401
7423.000000;0.070308
7422.000000;0.070407
7421.000000;0.070687
7420.000000;0.070905
7419.000000;0.070867
7418.000000;0.070628
7417.000000;0.070385
7416.000000;0.070247
7415.000000;0.070186
7414.000000;0.070131
7413.000000;0.070056
7412.000000;0.069999
7411.000000;0.070004
7410.000000;0.070034
7409.000000;0.069985
7408.000000;0.069836
7407.000000;0.069729
7406.000000;0.069795
7405.000000;0.069958
7404.000000;0.070036
7403.000000;0.069984
7402.000000;0.069913
7401.000000;0.069903
7400.000000;0.069941
7399.000000;0.069961
7398.000000;0.069879
7397.000000;0.069664
7396.000000;0.069441
7395.000000;0.069382
7394.000000;0.069426
7393.000000;0.069285
7392.000000;0.068861
7391.000000;0.068451
7390.000000;0.068362
7389.000000;0.068514
7388.000000;0.068670
7387.000000;0.068855
7386.000000;0.069200
7385.000000;0.069522
7384.000000;0.069531
7383.000000;0.069404
7382.000000;0.069619
7381.000000;0.070114
7380.000000;0.070187
7379.000000;0.069552
7378.000000;0.068941
7377.000000;0.069153
7376.000000;0.069973
7375.000000;0.070489
7374.000000;0.070237
7373.000000;0.069553
7372.000000;0.068980
7371.000000;0.068783
7370.000000;0.068937
7369.000000;0.069181
7368.000000;0.069170
7367.000000;0.068847
7366.000000;0.068560
7365.000000;0.068568
7364.000000;0.068689
7363.000000;0.068699
7362.000000;0.068730
7361.000000;0.068887
7360.000000;0.068808
7359.000000;0.068239
7358.000000;0.067709
7357.000000;0.067898
7356.000000;0.068599
7355.000000;0.068977
7354.000000;0.068746
7353.000000;0.068354
7352.000000;0.068163
7351.000000;0.068175
7350.000000;0.068417
7349.000000;0.068843
7348.000000;0.068964
7347.000000;0.068415
7346.000000;0.067701
7345.000000;0.067581
7344.000000;0.067911
7343.000000;0.068063
7342.000000;0.068253
7341.000000;0.069239
7340.000000;0.070650
7339.000000;0.070982
7338.000000;0.069767
7337.000000;0.068353
7336.000000;0.068006
7335.000000;0.068452
7334.000000;0.068797
7333.000000;0.068756
7332.000000;0.068408
7331.000000;0.067806
7330.000000;0.067415
7329.000000;0.067901
7328.000000;0.068912
7327.000000;0.069115
7326.000000;0.068108
7325.000000;0.067180
7324.000000;0.067401
7323.000000;0.068106
7322.000000;0.068093
7321.000000;0.067440
7320.000000;0.067162
7319.000000;0.067596
7318.000000;0.068216
7317.000000;0.068603
7316.000000;0.068663
7315.000000;0.068276
7314.000000;0.067647
7313.000000;0.067577
7312.000000;0.068416
7311.000000;0.069182
7310.000000;0.068821
7309.000000;0.067868
7308.000000;0.067647
7307.000000;0.068245
7306.000000;0.068481
7305.000000;0.067809
7304.000000;0.066996
7303.000000;0.066712
7302.000000;0.066740
7301.000000;0.066796
7300.000000;0.067004
7299.000000;0.067206
7298.000000;0.066833
7297.000000;0.066050
7296.000000;0.065935
7295.000000;0.066915
7294.000000;0.067922
7293.000000;0.067822
7292.000000;0.067048
7291.000000;0.066895
7290.000000;0.067771
7289.000000;0.068935
7288.000000;0.069555
7287.000000;0.069422
7286.000000;0.068778
7285.000000;0.068012
7284.000000;0.067529
7283.000000;0.067498
7282.000000;0.067680
7281.000000;0.067733
7280.000000;0.067623
7279.000000;0.067556
7278.000000;0.067593
7277.000000;0.067657
7276.000000;0.067767
7275.000000;0.068018
7274.000000;0.068346
7273.000000;0.068520
7272.000000;0.068401
7271.000000;0.068105
7270.000000;0.067910
7269.000000;0.068012
7268.000000;0.068341
7267.000000;0.068586
7266.000000;0.068545
7265.000000;0.068447
7264.000000;0.068731
7263.000000;0.069422
7262.000000;0.069967
7261.000000;0.069876
7260.000000;0.069326
7259.000000;0.068881
7258.000000;0.068774
7257.000000;0.068807
7256.000000;0.068864
7255.000000;0.069130
7254.000000;0.069675
7253.000000;0.070193
7252.000000;0.070280
7251.000000;0.069916
7250.000000;0.069543
7249.000000;0.069583
7248.000000;0.069904
7247.000000;0.069922
7246.000000;0.069473
7245.000000;0.069264
7244.000000;0.070021
7243.000000;0.071359
7242.000000;0.072041
7241.000000;0.071511
7240.000000;0.070602
7239.000000;0.070369
7238.000000;0.070756
7237.000000;0.070868
7236.000000;0.070336
7235.000000;0.069879
7234.000000;0.070381
7233.000000;0.071723
7232.000000;0.072704
7231.000000;0.072261
7230.000000;0.070707
7229.000000;0.069471
7228.000000;0.069561
7227.000000;0.070578
7226.000000;0.071345
7225.000000;0.071168
7224.000000;0.070308
7223.000000;0.069498
7222.000000;0.069268
7221.000000;0.069603
7220.000000;0.070003
7219.000000;0.069915
7218.000000;0.069295
7217.000000;0.068666
7216.000000;0.068524
7215.000000;0.068778
7214.000000;0.068935
7213.000000;0.068782
7212.000000;0.068598
7211.000000;0.068656
7210.000000;0.068826
7209.000000;0.068876
7208.000000;0.068909
7207.000000;0.069225
7206.000000;0.069882
7205.000000;0.070559
7204.000000;0.070825
7203.000000;0.070518
7202.000000;0.069881
7201.000000;0.069327
7200.000000;0.069056
7199.000000;0.068901
7198.000000;0.068619
7197.000000;0.068264
7196.000000;0.068105
7195.000000;0.068162
7194.000000;0.068114
7193.000000;0.067808
7192.000000;0.067538
7191.000000;0.067592
7190.000000;0.067784
7189.000000;0.067780
7188.000000;0.067639
7187.000000;0.067578
7186.000000;0.067428
7185.000000;0.066886
7184.000000;0.066239
7183.000000;0.066169
7182.000000;0.066744
7181.000000;0.067204
7180.000000;0.067006
7179.000000;0.066562
7178.000000;0.066552
7177.000000;0.066968
7176.000000;0.067300
7175.000000;0.067286
7174.000000;0.067055
7173.000000;0.066777
7172.000000;0.066597
7171.000000;0.066776
7170.000000;0.067402
7169.000000;0.068108
7168.000000;0.068433
7167.000000;0.068285
7166.000000;0.067771
7165.000000;0.066882
7164.000000;0.065808
7163.000000;0.065176
7162.000000;0.065399
7161.000000;0.066003
7160.000000;0.066145
7159.000000;0.065770
7158.000000;0.065629
7157.000000;0.066083
7156.000000;0.066598
7155.000000;0.066572
7154.000000;0.066112
7153.000000;0.065724
7152.000000;0.065630
7151.000000;0.065678
7150.000000;0.065654
7149.000000;0.065488
7148.000000;0.065259
7147.000000;0.065147
7146.000000;0.065315
7145.000000;0.065694
7144.000000;0.065947
7143.000000;0.065840
7142.000000;0.065622
7141.000000;0.065736
7140.000000;0.066143
7139.000000;0.066257
7138.000000;0.065757
7137.000000;0.065108
7136.000000;0.064970
7135.000000;0.065318
7134.000000;0.065548
7133.000000;0.065328
7132.000000;0.064947
7131.000000;0.064765
7130.000000;0.064740
7129.000000;0.064670
7128.000000;0.064576
7127.000000;0.064546
7126.000000;0.064483
7125.000000;0.064331
7124.000000;0.064301
7123.000000;0.064505
7122.000000;0.064593
7121.000000;0.064194
7120.000000;0.063586
7119.000000;0.063412
7118.000000;0.063736
7117.000000;0.063898
7116.000000;0.063513
7115.000000;0.063090
7114.000000;0.063262
7113.000000;0.063877
7112.000000;0.064283
7111.000000;0.064234
7110.000000;0.064060
7109.000000;0.064051
7108.000000;0.064148
7107.000000;0.064218
7106.000000;0.064218
7105.000000;0.064082
7104.000000;0.063759
7103.000000;0.063415
7102.000000;0.063322
7101.000000;0.063506
7100.000000;0.063650
7099.000000;0.063449
7098.000000;0.062996
7097.000000;0.062676
7096.000000;0.062684
7095.000000;0.062826
7094.000000;0.062832
7093.000000;0.062709
7092.000000;0.062660
7091.000000;0.062752
7090.000000;0.062821
7089.000000;0.062732
7088.000000;0.062568
7087.000000;0.062498
7086.000000;0.062529
7085.000000;0.062514
7084.000000;0.062386
7083.000000;0.062249
7082.000000;0.062215
7081.000000;0.062236
7080.000000;0.062158
7079.000000;0.061944
7078.000000;0.061762
7077.000000;0.061772
7076.000000;0.061878
7075.000000;0.061841
7074.000000;0.061617
7073.000000;0.061413
7072.000000;0.061389
7071.000000;0.061462
7070.000000;0.061484
7069.000000;0.061463
7068.000000;0.061497
7067.000000;0.061571
7066.000000;0.061568
7065.000000;0.061456
7064.000000;0.061337
7063.000000;0.061282
7062.000000;0.061245
7061.000000;0.061181
7060.000000;0.061111
7059.000000;0.061023
7058.000000;0.060860
7057.000000;0.060635
7056.000000;0.060470
7055.000000;0.060451
7054.000000;0.060530
7053.000000;0.060576
7052.000000;0.060505
7051.000000;0.060348
7050.000000;0.060202
7049.000000;0.060144
7048.000000;0.060173
7047.000000;0.060213
7046.000000;0.060199
7045.000000;0.060155
7044.000000;0.060137
7043.000000;0.060108
7042.000000;0.059973
7041.000000;0.059740
7040.000000;0.059554
7039.000000;0.059511
7038.000000;0.059535
7037.000000;0.059505
7036.000000;0.059407
7035.000000;0.059298
7034.000000;0.059193
7033.000000;0.059071
7032.000000;0.058946
7031.000000;0.058871
7030.000000;0.058855
7029.000000;0.058851
7028.000000;0.058805
7027.000000;0.058698
7026.000000;0.058571
7025.000000;0.058511
7024.000000;0.058575
7023.000000;0.058685
7022.000000;0.058685
7021.000000;0.058514
7020.000000;0.058282
7019.000000;0.058117
7018.000000;0.058016
7017.000000;0.057904
7016.000000;0.057781
7015.000000;0.057712
7014.000000;0.057707
7013.000000;0.057702
7012.000000;0.057650
7011.000000;0.057552
7010.000000;0.057430
7009.000000;0.057320
7008.000000;0.057276
7007.000000;0.057299
7006.000000;0.057311
7005.000000;0.057251
7004.000000;0.057165
7003.000000;0.057129
7002.000000;0.057119
7001.000000;0.057054
7000.000000;0.056932
6999.000000;0.056833
6998.000000;0.056788
6997.000000;0.056742
6996.000000;0.056666
6995.000000;0.056595
6994.000000;0.056553
6993.000000;0.056496
6992.000000;0.056387
6991.000000;0.056248
6990.000000;0.056135
6989.000000;0.056079
6988.000000;0.056087
6987.000000;0.056136
6986.000000;0.056145
6985.000000;0.056037
6984.000000;0.055861
6983.000000;0.055772
6982.000000;0.055840
6981.000000;0.055948
6980.000000;0.055915
6979.000000;0.055705
6978.000000;0.055441
6977.000000;0.055237
6976.000000;0.055087
6975.000000;0.054939
6974.000000;0.054829
6973.000000;0.054844
6972.000000;0.054978
6971.000000;0.055096
6970.000000;0.055078
6969.000000;0.054942
6968.000000;0.054788
6967.000000;0.054669
6966.000000;0.054563
6965.000000;0.054448
6964.000000;0.054339
6963.000000;0.054231
6962.000000;0.054099
6961.000000;0.053969
6960.000000;0.053914
6959.000000;0.053955
6958.000000;0.054029
6957.000000;0.054083
6956.000000;0.054114
6955.000000;0.054108
6954.000000;0.054022
6953.000000;0.053863
6952.000000;0.053705
6951.000000;0.053596
6950.000000;0.053494
6949.000000;0.053364
6948.000000;0.053253
6947.000000;0.053215
6946.000000;0.053206
6945.000000;0.053151
6944.000000;0.053059
6943.000000;0.052987
6942.000000;0.052928
6941.000000;0.052839
6940.000000;0.052756
6939.000000;0.052753
6938.000000;0.052806
6937.000000;0.052790
6936.000000;0.052640
6935.000000;0.052429
6934.000000;0.052271
6933.000000;0.052209
6932.000000;0.052205
6931.000000;0.052180
6930.000000;0.052056
6929.000000;0.051819
6928.000000;0.051562
6927.000000;0.051420
6926.000000;0.051432
6925.000000;0.051514
6924.000000;0.051580
6923.000000;0.051614
6922.000000;0.051613
6921.000000;0.051549
6920.000000;0.051449
6919.000000;0.051412
6918.000000;0.051497
6917.000000;0.051634
6916.000000;0.051697
6915.000000;0.051631
6914.000000;0.051475
6913.000000;0.051285
6912.000000;0.051089
6911.000000;0.050895
6910.000000;0.050704
6909.000000;0.050531
6908.000000;0.050404
6907.000000;0.050345
6906.000000;0.050328
6905.000000;0.050294
6904.000000;0.050208
6903.000000;0.050102
6902.000000;0.050013
6901.000000;0.049940
6900.000000;0.049880
6899.000000;0.049845
6898.000000;0.049844
6897.000000;0.049862
6896.000000;0.049893
6895.000000;0.049945
6894.000000;0.050000
6893.000000;0.050007
6892.000000;0.049933
6891.000000;0.049799
6890.000000;0.049644
6889.000000;0.049499
6888.000000;0.049384
6887.000000;0.049301
6886.000000;0.049220
6885.000000;0.049108
6884.000000;0.048973
6883.000000;0.048864
6882.000000;0.048803
6881.000000;0.048761
6880.000000;0.048705
6879.000000;0.048642
6878.000000;0.048581
6877.000000;0.048513
6876.000000;0.048420
6875.000000;0.048311
6874.000000;0.048222
6873.000000;0.048175
6872.000000;0.048155
6871.000000;0.048120
6870.000000;0.048053
6869.000000;0.047987
6868.000000;0.047966
6867.000000;0.047976
6866.000000;0.047949
6865.000000;0.047850
6864.000000;0.047726
6863.000000;0.047649
6862.000000;0.047622
6861.000000;0.047591
6860.000000;0.047527
6859.000000;0.047445
6858.000000;0.047366
6857.000000;0.047291
6856.000000;0.047216
6855.000000;0.047148
6854.000000;0.047079
6853.000000;0.046988
6852.000000;0.046875
6851.000000;0.046783
6850.000000;0.046753
6849.000000;0.046775
6848.000000;0.046797
6847.000000;0.046778
6846.000000;0.046721
6845.000000;0.046647
6844.000000;0.046574
6843.000000;0.046506
6842.000000;0.046446
6841.000000;0.046399
6840.000000;0.046360
6839.000000;0.046304
6838.000000;0.046219
6837.000000;0.046143
6836.000000;0.046135
6835.000000;0.046189
6834.000000;0.046213
6833.000000;0.046139
6832.000000;0.046009
6831.000000;0.045916
6830.000000;0.045878
6829.000000;0.045831
6828.000000;0.045746
6827.000000;0.045665
6826.000000;0.045614
6825.000000;0.045546
6824.000000;0.045410
6823.000000;0.045239
6822.000000;0.045104
6821.000000;0.045037
6820.000000;0.045018
6819.000000;0.045024
6818.000000;0.045027
6817.000000;0.044979
6816.000000;0.044845
6815.000000;0.044659
6814.000000;0.044501
6813.000000;0.044416
6812.000000;0.044382
6811.000000;0.044356
6810.000000;0.044310
6809.000000;0.044233
6808.000000;0.044138
6807.000000;0.044085
6806.000000;0.044129
6805.000000;0.044244
6804.000000;0.044331
6803.000000;0.044324
6802.000000;0.044262
6801.000000;0.044215
6800.000000;0.044185
6799.000000;0.044118
6798.000000;0.043997
6797.000000;0.043862
6796.000000;0.043744
6795.000000;0.043632
6794.000000;0.043527
6793.000000;0.043465
6792.000000;0.043455
6791.000000;0.043441
6790.000000;0.043361
6789.000000;0.043239
6788.000000;0.043162
6787.000000;0.043178
6786.000000;0.043234
6785.000000;0.043237
6784.000000;0.043143
6783.000000;0.042969
6782.000000;0.042768
6781.000000;0.042595
6780.000000;0.042494
6779.000000;0.042471
6778.000000;0.042490
6777.000000;0.042493
6776.000000;0.042430
6775.000000;0.042293
6774.000000;0.042123
6773.000000;0.041989
6772.000000;0.041935
6771.000000;0.041936
6770.000000;0.041941
6769.000000;0.041934
6768.000000;0.041930
6767.000000;0.041915
6766.000000;0.041847
6765.000000;0.041729
6764.000000;0.041625
6763.000000;0.041582
6762.000000;0.041574
6761.000000;0.041550
6760.000000;0.041500
6759.000000;0.041443
6758.000000;0.041388
6757.000000;0.041350
6756.000000;0.041357
6755.000000;0.041397
6754.000000;0.041391
6753.000000;0.041278
6752.000000;0.041104
6751.000000;0.040975
6750.000000;0.040933
6749.000000;0.040921
6748.000000;0.040878
6747.000000;0.040805
6746.000000;0.040736
6745.000000;0.040685
6744.000000;0.040645
6743.000000;0.040600
6742.000000;0.040536
6741.000000;0.040459
6740.000000;0.040405
6739.000000;0.040416
6738.000000;0.040485
6737.000000;0.040538
6736.000000;0.040497
6735.000000;0.040355
6734.000000;0.040175
6733.000000;0.040040
6732.000000;0.039983
6731.000000;0.039973
6730.000000;0.039959
6729.000000;0.039919
6728.000000;0.039856
6727.000000;0.039759
6726.000000;0.039610
6725.000000;0.039444
6724.000000;0.039352
6723.000000;0.039393
6722.000000;0.039515
6721.000000;0.039609
6720.000000;0.039615
6719.000000;0.039541
6718.000000;0.039413
6717.000000;0.039249
6716.000000;0.039096
6715.000000;0.039023
6714.000000;0.039049
6713.000000;0.039131
6712.000000;0.039185
6711.000000;0.039176
6710.000000;0.039114
6709.000000;0.039005
6708.000000;0.038872
6707.000000;0.038761
6706.000000;0.038695
6705.000000;0.038653
6704.000000;0.038623
6703.000000;0.038695
6702.000000;0.038644
6701.000000;0.038573
6700.000000;0.038503
6699.000000;0.038454
6698.000000;0.038435
6697.000000;0.038439
6696.000000;0.038459
6695.000000;0.038481
6694.000000;0.038471
6693.000000;0.038398
6692.000000;0.038272
6691.000000;0.038148
6690.000000;0.038071
6689.000000;0.038038
6688.000000;0.038001
6687.000000;0.037921
6686.000000;0.037800
6685.000000;0.037686
6684.000000;0.037630
6683.000000;0.037634
6682.000000;0.037646
6681.000000;0.037617
6680.000000;0.037559
6679.000000;0.037522
6678.000000;0.037528
6677.000000;0.037538
6676.000000;0.037492
6675.000000;0.037364
6674.000000;0.037188
6673.000000;0.037031
6672.000000;0.036949
6671.000000;0.036947
6670.000000;0.036983
6669.000000;0.037009
6668.000000;0.037007
6667.000000;0.036973
6666.000000;0.036907
6665.000000;0.036820
6664.000000;0.036739
6663.000000;0.036684
6662.000000;0.036645
6661.000000;0.036604
6660.000000;0.036568
6659.000000;0.036557
6658.000000;0.036573
6657.000000;0.036593
6656.000000;0.036588
6655.000000;0.036534
6654.000000;0.036424
6653.000000;0.036276
6652.000000;0.036118
6651.000000;0.035964
6650.000000;0.035815
6649.000000;0.035696
6648.000000;0.035662
6647.000000;0.035732
6646.000000;0.035842
6645.000000;0.035903
6644.000000;0.035883
6643.000000;0.035822
6642.000000;0.035775
6641.000000;0.035762
6640.000000;0.035769
6639.000000;0.035758
6638.000000;0.035688
6637.000000;0.035559
6636.000000;0.035425
6635.000000;0.035359
6634.000000;0.035382
6633.000000;0.035455
6632.000000;0.035528
6631.000000;0.035564
6630.000000;0.035543
6629.000000;0.035455
6628.000000;0.035321
6627.000000;0.035179
6626.000000;0.035073
6625.000000;0.035032
6624.000000;0.035058
6623.000000;0.035113
6622.000000;0.035137
6621.000000;0.035099
6620.000000;0.035014
6619.000000;0.034907
6618.000000;0.034784
6617.000000;0.034661
6616.000000;0.034583
6615.000000;0.034583
6614.000000;0.034632
6613.000000;0.034663
6612.000000;0.034646
6611.000000;0.034593
6610.000000;0.034519
6609.000000;0.034427
6608.000000;0.034337
6607.000000;0.034272
6606.000000;0.034228
6605.000000;0.034172
6604.000000;0.034091
6603.000000;0.034004
6602.000000;0.033936
6601.000000;0.033890
6600.000000;0.033864
6599.000000;0.033856
6598.000000;0.033855
6597.000000;0.033852
6596.000000;0.033853
6595.000000;0.033870
6594.000000;0.033884
6593.000000;0.033864
6592.000000;0.033809
6591.000000;0.033752
6590.000000;0.033721
6589.000000;0.033719
6588.000000;0.033739
6587.000000;0.033774
6586.000000;0.033806
6585.000000;0.033806
6584.000000;0.033765
6583.000000;0.033700
6582.000000;0.033621
6581.000000;0.033520
6580.000000;0.033402
6579.000000;0.033294
6578.000000;0.033229
6577.000000;0.033202
6576.000000;0.033183
6575.000000;0.033145
6574.000000;0.033083
6573.000000;0.033015
6572.000000;0.032968
6571.000000;0.032958
6570.000000;0.032974
6569.000000;0.032981
6568.000000;0.032948
6567.000000;0.032873
6566.000000;0.032782
6565.000000;0.032710
6564.000000;0.032672
6563.000000;0.032653
6562.000000;0.032620
6561.000000;0.032558
6560.000000;0.032486
6559.000000;0.032430
6558.000000;0.032392
6557.000000;0.032369
6556.000000;0.032363
6555.000000;0.032385
6554.000000;0.032426
6553.000000;0.032462
6552.000000;0.032475
6551.000000;0.032457
6550.000000;0.032400
6549.000000;0.032308
6548.000000;0.032202
6547.000000;0.032119
6546.000000;0.032086
6545.000000;0.032104
6544.000000;0.032148
6543.000000;0.032177
6542.000000;0.032161
6541.000000;0.032103
6540.000000;0.032028
6539.000000;0.031954
6538.000000;0.031881
6537.000000;0.031814
6536.000000;0.031773
6535.000000;0.031761
6534.000000;0.031749
6533.000000;0.031709
6532.000000;0.031644
6531.000000;0.031580
6530.000000;0.031524
6529.000000;0.031464
6528.000000;0.031389
6527.000000;0.031305
6526.000000;0.031235
6525.000000;0.031204
6524.000000;0.031220
6523.000000;0.031244
6522.000000;0.031222
6521.000000;0.031141
6520.000000;0.031056
6519.000000;0.031022
6518.000000;0.031034
6517.000000;0.031042
6516.000000;0.031019
6515.000000;0.030972
6514.000000;0.030919
6513.000000;0.030873
6512.000000;0.030835
6511.000000;0.030795
6510.000000;0.030729
6509.000000;0.030636
6508.000000;0.030558
6507.000000;0.030544
6506.000000;0.030595
6505.000000;0.030670
6504.000000;0.030729
6503.000000;0.030749
6502.000000;0.030723
6501.000000;0.030667
6500.000000;0.030614
6499.000000;0.030583
6498.000000;0.030555
6497.000000;0.030513
6496.000000;0.030479
6495.000000;0.030484
6494.000000;0.030514
6493.000000;0.030530
6492.000000;0.030516
6491.000000;0.030484
6490.000000;0.030432
6489.000000;0.030345
6488.000000;0.030238
6487.000000;0.030157
6486.000000;0.030119
6485.000000;0.030102
6484.000000;0.030079
6483.000000;0.030060
6482.000000;0.030061
6481.000000;0.030076
6480.000000;0.030081
6479.000000;0.030063
6478.000000;0.030018
6477.000000;0.029951
6476.000000;0.029873
6475.000000;0.029806
6474.000000;0.029767
6473.000000;0.029752
6472.000000;0.029747
6471.000000;0.029737
6470.000000;0.029721
6469.000000;0.029713
6468.000000;0.029727
6467.000000;0.029743
6466.000000;0.029720
6465.000000;0.029642
6464.000000;0.029546
6463.000000;0.029485
6462.000000;0.029479
6461.000000;0.029509
6460.000000;0.029546
6459.000000;0.029565
6458.000000;0.029545
6457.000000;0.029480
6456.000000;0.029385
6455.000000;0.029287
6454.000000;0.029207
6453.000000;0.029156
6452.000000;0.029144
6451.000000;0.029163
6450.000000;0.029178
6449.000000;0.029154
6448.000000;0.029093
6447.000000;0.029020
6446.000000;0.028950
6445.000000;0.028887
6444.000000;0.028839
6443.000000;0.028815
6442.000000;0.028806
6441.000000;0.028798
6440.000000;0.028792
6439.000000;0.028797
6438.000000;0.028809
6437.000000;0.028816
6436.000000;0.028816
6435.000000;0.028815
6434.000000;0.028811
6433.000000;0.028792
6432.000000;0.028756
6431.000000;0.028717
6430.000000;0.028689
6429.000000;0.028683
6428.000000;0.028704
6427.000000;0.028734
6426.000000;0.028747
6425.000000;0.028731
6424.000000;0.028707
6423.000000;0.028700
6422.000000;0.028703
6421.000000;0.028697
6420.000000;0.028677
6419.000000;0.028650
6418.000000;0.028613
6417.000000;0.028561
6416.000000;0.028517
6415.000000;0.028500
6414.000000;0.028502
6413.000000;0.028487
6412.000000;0.028436
6411.000000;0.028363
6410.000000;0.028293
6409.000000;0.028243
6408.000000;0.028223
6407.000000;0.028239
6406.000000;0.028281
6405.000000;0.028329
6404.000000;0.028356
6403.000000;0.028327
6402.000000;0.028232
6401.000000;0.028108
6400.000000;0.028027
6399.000000;0.028010
6398.000000;0.028008
6397.000000;0.027970
6396.000000;0.027919
6395.000000;0.027915
6394.000000;0.027970
6393.000000;0.028040
6392.000000;0.028084
6391.000000;0.028094
6390.000000;0.028068
6389.000000;0.028010
6388.000000;0.027948
6387.000000;0.027921
6386.000000;0.027930
6385.000000;0.027936
6384.000000;0.027907
6383.000000;0.027851
6382.000000;0.027799
6381.000000;0.027774
6380.000000;0.027780
6379.000000;0.027805
6378.000000;0.027824
6377.000000;0.027818
6376.000000;0.027785
6375.000000;0.027740
6374.000000;0.027699
6373.000000;0.027675
6372.000000;0.027677
6371.000000;0.027695
6370.000000;0.027695
6369.000000;0.027660
6368.000000;0.027607
6367.000000;0.027559
6366.000000;0.027516
6365.000000;0.027464
6364.000000;0.027408
6363.000000;0.027371
6362.000000;0.027360
6361.000000;0.027359
6360.000000;0.027356
6359.000000;0.027340
6358.000000;0.027298
6357.000000;0.027240
6356.000000;0.027204
6355.000000;0.027218
6354.000000;0.027259
6353.000000;0.027275
6352.000000;0.027248
6351.000000;0.027203
6350.000000;0.027167
6349.000000;0.027138
6348.000000;0.027111
6347.000000;0.027096
6346.000000;0.027105
6345.000000;0.027134
6344.000000;0.027169
6343.000000;0.027200
6342.000000;0.027232
6341.000000;0.027273
6340.000000;0.027315
6339.000000;0.027332
6338.000000;0.027292
6337.000000;0.027197
6336.000000;0.027084
6335.000000;0.026987
6334.000000;0.026910
6333.000000;0.026850
6332.000000;0.026815
6331.000000;0.026808
6330.000000;0.026807
6329.000000;0.026789
6328.000000;0.026760
6327.000000;0.026738
6326.000000;0.026734
6325.000000;0.026749
6324.000000;0.026782
6323.000000;0.026820
6322.000000;0.026833
6321.000000;0.026802
6320.000000;0.026736
6319.000000;0.026654
6318.000000;0.026568
6317.000000;0.026489
6316.000000;0.026440
6315.000000;0.026432
6314.000000;0.026452
6313.000000;0.026486
6312.000000;0.026540
6311.000000;0.026603
6310.000000;0.026633
6309.000000;0.026596
6308.000000;0.026512
6307.000000;0.026427
6306.000000;0.026360
6305.000000;0.026305
6304.000000;0.026270
6303.000000;0.026267
6302.000000;0.026283
6301.000000;0.026292
6300.000000;0.026293
6299.000000;0.026304
6298.000000;0.026325
6297.000000;0.026331
6296.000000;0.026310
6295.000000;0.026274
6294.000000;0.026241
6293.000000;0.026226
6292.000000;0.026236
6291.000000;0.026255
6290.000000;0.026246
6289.000000;0.026183
6288.000000;0.026085
6287.000000;0.025987
6286.000000;0.025918
6285.000000;0.025894
6284.000000;0.025934
6283.000000;0.026021
6282.000000;0.026088
6281.000000;0.026090
6280.000000;0.026058
6279.000000;0.026061
6278.000000;0.026109
6277.000000;0.026148
6276.000000;0.026130
6275.000000;0.026072
6274.000000;0.026018
6273.000000;0.025991
6272.000000;0.025982
6271.000000;0.025963
6270.000000;0.025918
6269.000000;0.025857
6268.000000;0.025817
6267.000000;0.025809
6266.000000;0.025798
6265.000000;0.025756
6264.000000;0.025706
6263.000000;0.025693
6262.000000;0.025723
6261.000000;0.025767
6260.000000;0.025805
6259.000000;0.025830
6258.000000;0.025822
6257.000000;0.025763
6256.000000;0.025675
6255.000000;0.025608
6254.000000;0.025586
6253.000000;0.025591
6252.000000;0.025599
6251.000000;0.025600
6250.000000;0.025595
6249.000000;0.025587
6248.000000;0.025594
6247.000000;0.025628
6246.000000;0.025657
6245.000000;0.025638
6244.000000;0.025571
6243.000000;0.025503
6242.000000;0.025475
6241.000000;0.025484
6240.000000;0.025512
6239.000000;0.025542
6238.000000;0.025558
6237.000000;0.025543
6236.000000;0.025498
6235.000000;0.025442
6234.000000;0.025391
6233.000000;0.025344
6232.000000;0.025298
6231.000000;0.025255
6230.000000;0.025225
6229.000000;0.025227
6228.000000;0.025264
6227.000000;0.025316
6226.000000;0.025340
6225.000000;0.025326
6224.000000;0.025301
6223.000000;0.025288
6222.000000;0.025275
6221.000000;0.025246
6220.000000;0.025224
6219.000000;0.025224
6218.000000;0.025217
6217.000000;0.025162
6216.000000;0.025077
6215.000000;0.025017
6214.000000;0.025002
6213.000000;0.025009
6212.000000;0.025019
6211.000000;0.025035
6210.000000;0.025049
6209.000000;0.025042
6208.000000;0.025020
6207.000000;0.025003
6206.000000;0.024987
6205.000000;0.024952
6204.000000;0.024898
6203.000000;0.024848
6202.000000;0.024802
6201.000000;0.024740
6200.000000;0.024666
6199.000000;0.024615
6198.000000;0.024607
6197.000000;0.024625
6196.000000;0.024644
6195.000000;0.024659
6194.000000;0.024664
6193.000000;0.024655
6192.000000;0.024640
6191.000000;0.024628
6190.000000;0.024597
6189.000000;0.024521
6188.000000;0.024426
6187.000000;0.024378
6186.000000;0.024410
6185.000000;0.024487
6184.000000;0.024558
6183.000000;0.024607
6182.000000;0.024636
6181.000000;0.024637
6180.000000;0.024597
6179.000000;0.024530
6178.000000;0.024463
6177.000000;0.024417
6176.000000;0.024395
6175.000000;0.024383
6174.000000;0.024362
6173.000000;0.024324
6172.000000;0.024286
6171.000000;0.024265
6170.000000;0.024261
6169.000000;0.024260
6168.000000;0.024256
6167.000000;0.024246
6166.000000;0.024215
6165.000000;0.024158
6164.000000;0.024097
6163.000000;0.024065
6162.000000;0.024062
6161.000000;0.024058
6160.000000;0.024037
6159.000000;0.024010
6158.000000;0.023990
6157.000000;0.023975
6156.000000;0.023971
6155.000000;0.023985
6154.000000;0.024012
6153.000000;0.024022
6152.000000;0.024001
6151.000000;0.023961
6150.000000;0.023913
6149.000000;0.023860
6148.000000;0.023806
6147.000000;0.023765
6146.000000;0.023748
6145.000000;0.023755
6144.000000;0.023779
6143.000000;0.023811
6142.000000;0.023831
6141.000000;0.023827
6140.000000;0.023800
6139.000000;0.023757
6138.000000;0.023705
6137.000000;0.023652
6136.000000;0.023619
6135.000000;0.023614
6134.000000;0.023624
6133.000000;0.023636
6132.000000;0.023652
6131.000000;0.023673
6130.000000;0.023665
6129.000000;0.023596
6128.000000;0.023484
6127.000000;0.023385
6126.000000;0.023325
6125.000000;0.023286
6124.000000;0.023243
6123.000000;0.023198
6122.000000;0.023167
6121.000000;0.023161
6120.000000;0.023182
6119.000000;0.023218
6118.000000;0.023243
6117.000000;0.023240
6116.000000;0.023222
6115.000000;0.023206
6114.000000;0.023180
6113.000000;0.023128
6112.000000;0.023068
6111.000000;0.023034
6110.000000;0.023034
6109.000000;0.023042
6108.000000;0.023049
6107.000000;0.023065
6106.000000;0.023085
6105.000000;0.023077
6104.000000;0.023023
6103.000000;0.022949
6102.000000;0.022895
6101.000000;0.022881
6100.000000;0.022904
6099.000000;0.022945
6098.000000;0.022976
6097.000000;0.022979
6096.000000;0.022951
6095.000000;0.022897
6094.000000;0.022820
6093.000000;0.022733
6092.000000;0.022666
6091.000000;0.022635
6090.000000;0.022623
6089.000000;0.022599
6088.000000;0.022557
6087.000000;0.022514
6086.000000;0.022476
6085.000000;0.022434
6084.000000;0.022385
6083.000000;0.022334
6082.000000;0.022289
6081.000000;0.022267
6080.000000;0.022280
6079.000000;0.022313
6078.000000;0.022313
6077.000000;0.022249
6076.000000;0.022153
6075.000000;0.022078
6074.000000;0.022037
6073.000000;0.022010
6072.000000;0.021988
6071.000000;0.021976
6070.000000;0.021958
6069.000000;0.021912
6068.000000;0.021863
6067.000000;0.021858
6066.000000;0.021897
6065.000000;0.021925
6064.000000;0.021904
6063.000000;0.021854
6062.000000;0.021809
6061.000000;0.021785
6060.000000;0.021788
6059.000000;0.021824
6058.000000;0.021880
6057.000000;0.021910
6056.000000;0.021878
6055.000000;0.021785
6054.000000;0.021658
6053.000000;0.021528
6052.000000;0.021419
6051.000000;0.021345
6050.000000;0.021311
6049.000000;0.021307
6048.000000;0.021320
6047.000000;0.021330
6046.000000;0.021314
6045.000000;0.021262
6044.000000;0.021195
6043.000000;0.021139
6042.000000;0.021102
6041.000000;0.021080
6040.000000;0.021081
6039.000000;0.021108
6038.000000;0.021130
6037.000000;0.021106
6036.000000;0.021026
6035.000000;0.020919
6034.000000;0.020812
6033.000000;0.020726
6032.000000;0.020686
6031.000000;0.020706
6030.000000;0.020759
6029.000000;0.020799
6028.000000;0.020812
6027.000000;0.020814
6026.000000;0.020810
6025.000000;0.020782
6024.000000;0.020714
6023.000000;0.020613
6022.000000;0.020500
6021.000000;0.020402
6020.000000;0.020350
6019.000000;0.020342
6018.000000;0.020337
6017.000000;0.020298
6016.000000;0.020249
6015.000000;0.020242
6014.000000;0.020281
6013.000000;0.020315
6012.000000;0.020301
6011.000000;0.020250
6010.000000;0.020188
6009.000000;0.020131
6008.000000;0.020089
6007.000000;0.020073
6006.000000;0.020070
6005.000000;0.020058
6004.000000;0.020034
6003.000000;0.020007
6002.000000;0.019962
6001.000000;0.019872
6000.000000;0.019743
5999.000000;0.019625
5998.000000;0.019561
5997.000000;0.019543
5996.000000;0.019541
5995.000000;0.019530
5994.000000;0.019505
5993.000000;0.019477
5992.000000;0.019467
5991.000000;0.019481
5990.000000;0.019496
5989.000000;0.019480
5988.000000;0.019433
5987.000000;0.019384
5986.000000;0.019347
5985.000000;0.019313
5984.000000;0.019273
5983.000000;0.019228
5982.000000;0.019168
5981.000000;0.019088
5980.000000;0.019008
5979.000000;0.018957
5978.000000;0.018930
5977.000000;0.018896
5976.000000;0.018852
5975.000000;0.018828
5974.000000;0.018839
5973.000000;0.018853
5972.000000;0.018828
5971.000000;0.018749
5970.000000;0.018631
5969.000000;0.018506
5968.000000;0.018404
5967.000000;0.018348
5966.000000;0.018332
5965.000000;0.018327
5964.000000;0.018306
5963.000000;0.018251
5962.000000;0.018152
5961.000000;0.018029
5960.000000;0.017931
5959.000000;0.017903
5958.000000;0.017936
5957.000000;0.017986
5956.000000;0.018028
5955.000000;0.018066
5954.000000;0.018091
5953.000000;0.018076
5952.000000;0.018012
5951.000000;0.017923
5950.000000;0.017834
5949.000000;0.017748
5948.000000;0.017660
5947.000000;0.017573
5946.000000;0.017497
5945.000000;0.017438
5944.000000;0.017405
5943.000000;0.017399
5942.000000;0.017403
5941.000000;0.017394
5940.000000;0.017364
5939.000000;0.017324
5938.000000;0.017276
5937.000000;0.017206
5936.000000;0.017107
5935.000000;0.016995
5934.000000;0.016890
5933.000000;0.016809
5932.000000;0.016766
5931.000000;0.016763
5930.000000;0.016777
5929.000000;0.016777
5928.000000;0.016751
5927.000000;0.016706
5926.000000;0.016646
5925.000000;0.016570
5924.000000;0.016496
5923.000000;0.016447
5922.000000;0.016429
5921.000000;0.016430
5920.000000;0.016440
5919.000000;0.016444
5918.000000;0.016409
5917.000000;0.016313
5916.000000;0.016184
5915.000000;0.016084
5914.000000;0.016042
5913.000000;0.016035
5912.000000;0.016024
5911.000000;0.015991
5910.000000;0.015931
5909.000000;0.015850
5908.000000;0.015762
5907.000000;0.015694
5906.000000;0.015649
5905.000000;0.015606
5904.000000;0.015547
5903.000000;0.015468
5902.000000;0.015374
5901.000000;0.015274
5900.000000;0.015189
5899.000000;0.015133
5898.000000;0.015092
5897.000000;0.015032
5896.000000;0.014940
5895.000000;0.014835
5894.000000;0.014746
5893.000000;0.014688
5892.000000;0.014659
5891.000000;0.014646
5890.000000;0.014626
5889.000000;0.014591
5888.000000;0.014553
5887.000000;0.014525
5886.000000;0.014503
5885.000000;0.014467
5884.000000;0.014407
5883.000000;0.014331
5882.000000;0.014255
5881.000000;0.014196
5880.000000;0.014162
5879.000000;0.014133
5878.000000;0.014078
5877.000000;0.014002
5876.000000;0.013944
5875.000000;0.013928
5874.000000;0.013917
5873.000000;0.013865
5872.000000;0.013766
5871.000000;0.013656
5870.000000;0.013559
5869.000000;0.013478
5868.000000;0.013420
5867.000000;0.013385
5866.000000;0.013358
5865.000000;0.013315
5864.000000;0.013255
5863.000000;0.013186
5862.000000;0.013107
5861.000000;0.013033
5860.000000;0.013001
5859.000000;0.013024
5858.000000;0.013056
5857.000000;0.013040
5856.000000;0.012973
5855.000000;0.012897
5854.000000;0.012832
5853.000000;0.012760
5852.000000;0.012669
5851.000000;0.012574
5850.000000;0.012492
5849.000000;0.012431
5848.000000;0.012393
5847.000000;0.012374
5846.000000;0.012349
5845.000000;0.012299
5844.000000;0.012230
5843.000000;0.012155
5842.000000;0.012060
5841.000000;0.011925
5840.000000;0.011771
5839.000000;0.011646
5838.000000;0.011572
5837.000000;0.011532
5836.000000;0.011494
5835.000000;0.011441
5834.000000;0.011357
5833.000000;0.011235
5832.000000;0.011099
5831.000000;0.010975
5830.000000;0.010864
5829.000000;0.010754
5828.000000;0.010657
5827.000000;0.010589
5826.000000;0.010537
5825.000000;0.010477
5824.000000;0.010414
5823.000000;0.010372
5822.000000;0.010347
5821.000000;0.010309
5820.000000;0.010245
5819.000000;0.010168
5818.000000;0.010088
5817.000000;0.010006
5816.000000;0.009932
5815.000000;0.009887
5814.000000;0.009874
5813.000000;0.009878
5812.000000;0.009882
5811.000000;0.009871
5810.000000;0.009832
5809.000000;0.009765
5808.000000;0.009691
5807.000000;0.009622
5806.000000;0.009526
5805.000000;0.009374
5804.000000;0.009189
5803.000000;0.009034
5802.000000;0.008943
5801.000000;0.008899
5800.000000;0.008873
5799.000000;0.008840
5798.000000;0.008777
5797.000000;0.008673
5796.000000;0.008553
5795.000000;0.008453
5794.000000;0.008373
5793.000000;0.008292
5792.000000;0.008210
5791.000000;0.008134
5790.000000;0.008052
5789.000000;0.007943
5788.000000;0.007823
5787.000000;0.007734
5786.000000;0.007684
5785.000000;0.007644
5784.000000;0.007586
5783.000000;0.007510
5782.000000;0.007416
5781.000000;0.007305
5780.000000;0.007195
5779.000000;0.007103
5778.000000;0.007012
5777.000000;0.006887
5776.000000;0.006737
5775.000000;0.006613
5774.000000;0.006549
5773.000000;0.006524
5772.000000;0.006492
5771.000000;0.006425
5770.000000;0.006320
5769.000000;0.006194
5768.000000;0.006070
5767.000000;0.005959
5766.000000;0.005848
5765.000000;0.005723
5764.000000;0.005592
5763.000000;0.005469
5762.000000;0.005352
5761.000000;0.005233
5760.000000;0.005125
5759.000000;0.005034
5758.000000;0.004945
5757.000000;0.004846
5756.000000;0.004759
5755.000000;0.004708
5754.000000;0.004668
5753.000000;0.004598
5752.000000;0.004492
5751.000000;0.004380
5750.000000;0.004276
5749.000000;0.004176
5748.000000;0.004090
5747.000000;0.004037
5746.000000;0.004003
5745.000000;0.003952
5744.000000;0.003870
5743.000000;0.003768
5742.000000;0.003652
5741.000000;0.003516
5740.000000;0.003373
5739.000000;0.003247
5738.000000;0.003141
5737.000000;0.003042
5736.000000;0.002951
5735.000000;0.002871
5734.000000;0.002785
5733.000000;0.002671
5732.000000;0.002546
5731.000000;0.002441
5730.000000;0.002349
5729.000000;0.002231
5728.000000;0.002078
5727.000000;0.001923
5726.000000;0.001799
5725.000000;0.001704
5724.000000;0.001621
5723.000000;0.001532
5722.000000;0.001427
5721.000000;0.001313
5720.000000;0.001223
5719.000000;0.001172
5718.000000;0.001130
5717.000000;0.001056
5716.000000;0.000955
5715.000000;0.000858
5714.000000;0.000769
5713.000000;0.000660
5712.000000;0.000528
5711.000000;0.000402
5710.000000;0.000301
5709.000000;0.000221
5708.000000;0.000150
5707.000000;0.000078
5706.000000;-0.000017
5705.000000;-0.000152
5704.000000;-0.000310
5703.000000;-0.000463
5702.000000;-0.000604
5701.000000;-0.000740
5700.000000;-0.000861
5699.000000;-0.000951
5698.000000;-0.001061
5697.000000;-0.001172
5696.000000;-0.001306
5695.000000;-0.001444
5694.000000;-0.001584
5693.000000;-0.001738
5692.000000;-0.001897
5691.000000;-0.002032
5690.000000;-0.002134
5689.000000;-0.002213
5688.000000;-0.002277
5687.000000;-0.002333
5686.000000;-0.002408
5685.000000;-0.002517
5684.000000;-0.002636
5683.000000;-0.002737
5682.000000;-0.002837
5681.000000;-0.002969
5680.000000;-0.003123
5679.000000;-0.003269
5678.000000;-0.003402
5677.000000;-0.003546
5676.000000;-0.003695
5675.000000;-0.003829
5674.000000;-0.003951
5673.000000;-0.004084
5672.000000;-0.004221
5671.000000;-0.004330
5670.000000;-0.004411
5669.000000;-0.004495
5668.000000;-0.004600
5667.000000;-0.004716
5666.000000;-0.004835
5665.000000;-0.004965
5664.000000;-0.005100
5663.000000;-0.005234
5662.000000;-0.005375
5661.000000;-0.005526
5660.000000;-0.005658
5659.000000;-0.005750
5658.000000;-0.005830
5657.000000;-0.005936
5656.000000;-0.006056
5655.000000;-0.006144
5654.000000;-0.006197
5653.000000;-0.006258
5652.000000;-0.006351
5651.000000;-0.006466
5650.000000;-0.006585
5649.000000;-0.006703
5648.000000;-0.006813
5647.000000;-0.006920
5646.000000;-0.007048
5645.000000;-0.007211
5644.000000;-0.007374
5643.000000;-0.007493
5642.000000;-0.007570
5641.000000;-0.007648
5640.000000;-0.007739
5639.000000;-0.007830
5638.000000;-0.007923
5637.000000;-0.008038
5636.000000;-0.008178
5635.000000;-0.008336
5634.000000;-0.008518
5633.000000;-0.008728
5632.000000;-0.008939
5631.000000;-0.009119
5630.000000;-0.009280
5629.000000;-0.009450
5628.000000;-0.009610
5627.000000;-0.009717
5626.000000;-0.009771
5625.000000;-0.009808
5624.000000;-0.009856
5623.000000;-0.009924
5622.000000;-0.010031
5621.000000;-0.010181
5620.000000;-0.010337
5619.000000;-0.010461
5618.000000;-0.010580
5617.000000;-0.010742
5616.000000;-0.010939
5615.000000;-0.011122
5614.000000;-0.011271
5613.000000;-0.011396
5612.000000;-0.011483
5611.000000;-0.011511
5610.000000;-0.011512
5609.000000;-0.011560
5608.000000;-0.011691
5607.000000;-0.011884
5606.000000;-0.012099
5605.000000;-0.012293
5604.000000;-0.012423
5603.000000;-0.012484
5602.000000;-0.012541
5601.000000;-0.012668
5600.000000;-0.012859
5599.000000;-0.013050
5598.000000;-0.013209
5597.000000;-0.013343
5596.000000;-0.013458
5595.000000;-0.013550
5594.000000;-0.013643
5593.000000;-0.013755
5592.000000;-0.013865
5591.000000;-0.013946
5590.000000;-0.014037
5589.000000;-0.014191
5588.000000;-0.014390
5587.000000;-0.014574
5586.000000;-0.014720
5585.000000;-0.014848
5584.000000;-0.014960
5583.000000;-0.015051
5582.000000;-0.015156
5581.000000;-0.015306
5580.000000;-0.015459
5579.000000;-0.015552
5578.000000;-0.015610
5577.000000;-0.015711
5576.000000;-0.015871
5575.000000;-0.016039
5574.000000;-0.016192
5573.000000;-0.016352
5572.000000;-0.016513
5571.000000;-0.016653
5570.000000;-0.016796
5569.000000;-0.016984
5568.000000;-0.017175
5567.000000;-0.017288
5566.000000;-0.017333
5565.000000;-0.017409
5564.000000;-0.017556
5563.000000;-0.017715
5562.000000;-0.017851
5561.000000;-0.018000
5560.000000;-0.018186
5559.000000;-0.018366
5558.000000;-0.018514
5557.000000;-0.018678
5556.000000;-0.018889
5555.000000;-0.019104
5554.000000;-0.019270
5553.000000;-0.019391
5552.000000;-0.019499
5551.000000;-0.019605
5550.000000;-0.019707
5549.000000;-0.019816
5548.000000;-0.019929
5547.000000;-0.020041
5546.000000;-0.020171
5545.000000;-0.020335
5544.000000;-0.020498
5543.000000;-0.020599
5542.000000;-0.020646
5541.000000;-0.020712
5540.000000;-0.020831
5539.000000;-0.020962
5538.000000;-0.021086
5537.000000;-0.021237
5536.000000;-0.021429
5535.000000;-0.021608
5534.000000;-0.021734
5533.000000;-0.021847
5532.000000;-0.022004
5531.000000;-0.022203
5530.000000;-0.022399
5529.000000;-0.022560
5528.000000;-0.022674
5527.000000;-0.022766
5526.000000;-0.022894
5525.000000;-0.023084
5524.000000;-0.023285
5523.000000;-0.023430
5522.000000;-0.023537
5521.000000;-0.023691
5520.000000;-0.023899
5519.000000;-0.024073
5518.000000;-0.024184
5517.000000;-0.024313
5516.000000;-0.024523
5515.000000;-0.024758
5514.000000;-0.024917
5513.000000;-0.025007
5512.000000;-0.025129
5511.000000;-0.025328
5510.000000;-0.025532
5509.000000;-0.025671
5508.000000;-0.025772
5507.000000;-0.025934
5506.000000;-0.026183
5505.000000;-0.026404
5504.000000;-0.026517
5503.000000;-0.026613
5502.000000;-0.026824
5501.000000;-0.027128
5500.000000;-0.027322
5499.000000;-0.027308
5498.000000;-0.027292
5497.000000;-0.027498
5496.000000;-0.027807
5495.000000;-0.027918
5494.000000;-0.027804
5493.000000;-0.027785
5492.000000;-0.028077
5491.000000;-0.028453
5490.000000;-0.028592
5489.000000;-0.028533
5488.000000;-0.028578
5487.000000;-0.028848
5486.000000;-0.029180
5485.000000;-0.029388
5484.000000;-0.029514
5483.000000;-0.029691
5482.000000;-0.029863
5481.000000;-0.029945
5480.000000;-0.030065
5479.000000;-0.030382
5478.000000;-0.030769
5477.000000;-0.030898
5476.000000;-0.030695
5475.000000;-0.030563
5474.000000;-0.030839
5473.000000;-0.031289
5472.000000;-0.031486
5471.000000;-0.031439
5470.000000;-0.031505
5469.000000;-0.031834
5468.000000;-0.032173
5467.000000;-0.032287
5466.000000;-0.032326
5465.000000;-0.032520
5464.000000;-0.032809
5463.000000;-0.033014
5462.000000;-0.033110
5461.000000;-0.033211
5460.000000;-0.033395
5459.000000;-0.033620
5458.000000;-0.033795
5457.000000;-0.033869
5456.000000;-0.033864
5455.000000;-0.033938
5454.000000;-0.034274
5453.000000;-0.034741
5452.000000;-0.034959
5451.000000;-0.034836
5450.000000;-0.034758
5449.000000;-0.035057
5448.000000;-0.035464
5447.000000;-0.035489
5446.000000;-0.035276
5445.000000;-0.035415
5444.000000;-0.035980
5443.000000;-0.036410
5442.000000;-0.036333
5441.000000;-0.036052
5440.000000;-0.036147
5439.000000;-0.036697
5438.000000;-0.037207
5437.000000;-0.037286
5436.000000;-0.037025
5435.000000;-0.036840
5434.000000;-0.037112
5433.000000;-0.037765
5432.000000;-0.038309
5431.000000;-0.038401
5430.000000;-0.038208
5429.000000;-0.038186
5428.000000;-0.038552
5427.000000;-0.039066
5426.000000;-0.039401
5425.000000;-0.039509
5424.000000;-0.039574
5423.000000;-0.039790
5422.000000;-0.040189
5421.000000;-0.040519
5420.000000;-0.040527
5419.000000;-0.040385
5418.000000;-0.040470
5417.000000;-0.040768
5416.000000;-0.040846
5415.000000;-0.040526
5414.000000;-0.040279
5413.000000;-0.040564
5412.000000;-0.041097
5411.000000;-0.041315
5410.000000;-0.041266
5409.000000;-0.041460
5408.000000;-0.042013
5407.000000;-0.042527
5406.000000;-0.042753
5405.000000;-0.042921
5404.000000;-0.043254
5403.000000;-0.043569
5402.000000;-0.043735
5401.000000;-0.043896
5400.000000;-0.044043
5399.000000;-0.044043
5398.000000;-0.043992
5397.000000;-0.044135
5396.000000;-0.044442
5395.000000;-0.044577
5394.000000;-0.044510
5393.000000;-0.044623
5392.000000;-0.045023
5391.000000;-0.045357
5390.000000;-0.045446
5389.000000;-0.045552
5388.000000;-0.045870
5387.000000;-0.046169
5386.000000;-0.046231
5385.000000;-0.046321
5384.000000;-0.046644
5383.000000;-0.046836
5382.000000;-0.046689
5381.000000;-0.046639
5380.000000;-0.047011
5379.000000;-0.047439
5378.000000;-0.047449
5377.000000;-0.047277
5376.000000;-0.047488
5375.000000;-0.047995
5374.000000;-0.048270
5373.000000;-0.048280
5372.000000;-0.048449
5371.000000;-0.048878
5370.000000;-0.049219
5369.000000;-0.049336
5368.000000;-0.049526
5367.000000;-0.049903
5366.000000;-0.050174
5365.000000;-0.050229
5364.000000;-0.050338
5363.000000;-0.050623
5362.000000;-0.050898
5361.000000;-0.050996
5360.000000;-0.050986
5359.000000;-0.051008
5358.000000;-0.051137
5357.000000;-0.051409
5356.000000;-0.051757
5355.000000;-0.051923
5354.000000;-0.051784
5353.000000;-0.051704
5352.000000;-0.052019
5351.000000;-0.052339
5350.000000;-0.052153
5349.000000;-0.051796
5348.000000;-0.051981
5347.000000;-0.052613
5346.000000;-0.052844
5345.000000;-0.052399
5344.000000;-0.052110
5343.000000;-0.052595
5342.000000;-0.053231
5341.000000;-0.053214
5340.000000;-0.052757
5339.000000;-0.052604
5338.000000;-0.052986
5337.000000;-0.053523
5336.000000;-0.053933
5335.000000;-0.054222
5334.000000;-0.054313
5333.000000;-0.054213
5332.000000;-0.054307
5331.000000;-0.054828
5330.000000;-0.055395
5329.000000;-0.055513
5328.000000;-0.055283
5327.000000;-0.055273
5326.000000;-0.055676
5325.000000;-0.056081
5324.000000;-0.056209
5323.000000;-0.056269
5322.000000;-0.056489
5321.000000;-0.056816
5320.000000;-0.057121
5319.000000;-0.057375
5318.000000;-0.057572
5317.000000;-0.057664
5316.000000;-0.057683
5315.000000;-0.057750
5314.000000;-0.057856
5313.000000;-0.057911
5312.000000;-0.057997
5311.000000;-0.058243
5310.000000;-0.058535
5309.000000;-0.058623
5308.000000;-0.058526
5307.000000;-0.058546
5306.000000;-0.058800
5305.000000;-0.059062
5304.000000;-0.059159
5303.000000;-0.059235
5302.000000;-0.059463
5301.000000;-0.059751
5300.000000;-0.059904
5299.000000;-0.059938
5298.000000;-0.060021
5297.000000;-0.060141
5296.000000;-0.060172
5295.000000;-0.060199
5294.000000;-0.060403
5293.000000;-0.060720
5292.000000;-0.060864
5291.000000;-0.060733
5290.000000;-0.060621
5289.000000;-0.060806
5288.000000;-0.061130
5287.000000;-0.061237
5286.000000;-0.061094
5285.000000;-0.061044
5284.000000;-0.061301
5283.000000;-0.061661
5282.000000;-0.061838
5281.000000;-0.061875
5280.000000;-0.061999
5279.000000;-0.062247
5278.000000;-0.062473
5277.000000;-0.062612
5276.000000;-0.062713
5275.000000;-0.062813
5274.000000;-0.062892
5273.000000;-0.062959
5272.000000;-0.063058
5271.000000;-0.063104
5270.000000;-0.062964
5269.000000;-0.062766
5268.000000;-0.062770
5267.000000;-0.062934
5266.000000;-0.062959
5265.000000;-0.062775
5264.000000;-0.062697
5263.000000;-0.062975
5262.000000;-0.063395
5261.000000;-0.063589
5260.000000;-0.063597
5259.000000;-0.063751
5258.000000;-0.064095
5257.000000;-0.064345
5256.000000;-0.064336
5255.000000;-0.064254
5254.000000;-0.064344
5253.000000;-0.064594
5252.000000;-0.064834
5251.000000;-0.064913
5250.000000;-0.064768
5249.000000;-0.064571
5248.000000;-0.064617
5247.000000;-0.064944
5246.000000;-0.065229
5245.000000;-0.065194
5244.000000;-0.065043
5243.000000;-0.065255
5242.000000;-0.065882
5241.000000;-0.066410
5240.000000;-0.066492
5239.000000;-0.066406
5238.000000;-0.066519
5237.000000;-0.066724
5236.000000;-0.066755
5235.000000;-0.066688
5234.000000;-0.066765
5233.000000;-0.066939
5232.000000;-0.066947
5231.000000;-0.066813
5230.000000;-0.066871
5229.000000;-0.067189
5228.000000;-0.067398
5227.000000;-0.067259
5226.000000;-0.067028
5225.000000;-0.067069
5224.000000;-0.067367
5223.000000;-0.067656
5222.000000;-0.067835
5221.000000;-0.067983
5220.000000;-0.068136
5219.000000;-0.068288
5218.000000;-0.068462
5217.000000;-0.068681
5216.000000;-0.068871
5215.000000;-0.068930
5214.000000;-0.068931
5213.000000;-0.069007
5212.000000;-0.069122
5211.000000;-0.069174
5210.000000;-0.069171
5209.000000;-0.069154
5208.000000;-0.069079
5207.000000;-0.068943
5206.000000;-0.068934
5205.000000;-0.069209
5204.000000;-0.069602
5203.000000;-0.069794
5202.000000;-0.069786
5201.000000;-0.069866
5200.000000;-0.070128
5199.000000;-0.070315
5198.000000;-0.070243
5197.000000;-0.070145
5196.000000;-0.070297
5195.000000;-0.070580
5194.000000;-0.070731
5193.000000;-0.070752
5192.000000;-0.070809
5191.000000;-0.070925
5190.000000;-0.071012
5189.000000;-0.071102
5188.000000;-0.071276
5187.000000;-0.071410
5186.000000;-0.071326
5185.000000;-0.071149
5184.000000;-0.071208
5183.000000;-0.071528
5182.000000;-0.071795
5181.000000;-0.071841
5180.000000;-0.071858
5179.000000;-0.072030
5178.000000;-0.072246
5177.000000;-0.072340
5176.000000;-0.072381
5175.000000;-0.072518
5174.000000;-0.072708
5173.000000;-0.072813
5172.000000;-0.072831
5171.000000;-0.072854
5170.000000;-0.072911
5169.000000;-0.073001
5168.000000;-0.073164
5167.000000;-0.073396
5166.000000;-0.073568
5165.000000;-0.073592
5164.000000;-0.073556
5163.000000;-0.073582
5162.000000;-0.073640
5161.000000;-0.073639
5160.000000;-0.073617
5159.000000;-0.073669
5158.000000;-0.073763
5157.000000;-0.073788
5156.000000;-0.073753
5155.000000;-0.073778
5154.000000;-0.073891
5153.000000;-0.074006
5152.000000;-0.074096
5151.000000;-0.074231
5150.000000;-0.074429
5149.000000;-0.074598
5148.000000;-0.074661
5147.000000;-0.074656
5146.000000;-0.074668
5145.000000;-0.074737
5144.000000;-0.074842
5143.000000;-0.074947
5142.000000;-0.075032
5141.000000;-0.075108
5140.000000;-0.075208
5139.000000;-0.075342
5138.000000;-0.075483
5137.000000;-0.075622
5136.000000;-0.075781
5135.000000;-0.075958
5134.000000;-0.076091
5133.000000;-0.076138
5132.000000;-0.076139
5131.000000;-0.076148
5130.000000;-0.076169
5129.000000;-0.076187
5128.000000;-0.076224
5127.000000;-0.076297
5126.000000;-0.076352
5125.000000;-0.076336
5124.000000;-0.076295
5123.000000;-0.076323
5122.000000;-0.076441
5121.000000;-0.076601
5120.000000;-0.076765
5119.000000;-0.076925
5118.000000;-0.077054
5117.000000;-0.077132
5116.000000;-0.077189
5115.000000;-0.077272
5114.000000;-0.077385
5113.000000;-0.077499
5112.000000;-0.077614
5111.000000;-0.077736
5110.000000;-0.077840
5109.000000;-0.077899
5108.000000;-0.077940
5107.000000;-0.078021
5106.000000;-0.078145
5105.000000;-0.078276
5104.000000;-0.078394
5103.000000;-0.078500
5102.000000;-0.078576
5101.000000;-0.078614
5100.000000;-0.078654
5099.000000;-0.078743
5098.000000;-0.078861
5097.000000;-0.078949
5096.000000;-0.078990
5095.000000;-0.079014
5094.000000;-0.079037
5093.000000;-0.079050
5092.000000;-0.079060
5091.000000;-0.079091
5090.000000;-0.079140
5089.000000;-0.079187
5088.000000;-0.079232
5087.000000;-0.079278
5086.000000;-0.079308
5085.000000;-0.079309
5084.000000;-0.079321
5083.000000;-0.079399
5082.000000;-0.079543
5081.000000;-0.079698
5080.000000;-0.079825
5079.000000;-0.079923
5078.000000;-0.079997
5077.000000;-0.080066
5076.000000;-0.080161
5075.000000;-0.080300
5074.000000;-0.080445
5073.000000;-0.080541
5072.000000;-0.080587
5071.000000;-0.080621
5070.000000;-0.080665
5069.000000;-0.080720
5068.000000;-0.080796
5067.000000;-0.080901
5066.000000;-0.081010
5065.000000;-0.081083
5064.000000;-0.081114
5063.000000;-0.081127
5062.000000;-0.081138
5061.000000;-0.081152
5060.000000;-0.081194
5059.000000;-0.081284
5058.000000;-0.081397
5057.000000;-0.081487
5056.000000;-0.081539
5055.000000;-0.081571
5054.000000;-0.081593
5053.000000;-0.081612
5052.000000;-0.081660
5051.000000;-0.081758
5050.000000;-0.081878
5049.000000;-0.081972
5048.000000;-0.082039
5047.000000;-0.082116
5046.000000;-0.082217
5045.000000;-0.082322
5044.000000;-0.082425
5043.000000;-0.082532
5042.000000;-0.082631
5041.000000;-0.082693
5040.000000;-0.082721
5039.000000;-0.082754
5038.000000;-0.082817
5037.000000;-0.082902
5036.000000;-0.082995
5035.000000;-0.083088
5034.000000;-0.083166
5033.000000;-0.083222
5032.000000;-0.083275
5031.000000;-0.083355
5030.000000;-0.083464
5029.000000;-0.083583
5028.000000;-0.083700
5027.000000;-0.083805
5026.000000;-0.083874
5025.000000;-0.083891
5024.000000;-0.083869
5023.000000;-0.083848
5022.000000;-0.083855
5021.000000;-0.083907
5020.000000;-0.084017
5019.000000;-0.084171
5018.000000;-0.084313
5017.000000;-0.084393
5016.000000;-0.084417
5015.000000;-0.084441
5014.000000;-0.084502
5013.000000;-0.084604
5012.000000;-0.084733
5011.000000;-0.084865
5010.000000;-0.084964
5009.000000;-0.085006
5008.000000;-0.085009
5007.000000;-0.085012
5006.000000;-0.085041
5005.000000;-0.085100
5004.000000;-0.085188
5003.000000;-0.085292
5002.000000;-0.085357
5001.000000;-0.085412
5000.000000;-0.085447
4999.000000;-0.085487
4998.000000;-0.085538
4997.000000;-0.085597
4996.000000;-0.085671
4995.000000;-0.085755
4994.000000;-0.085810
4993.000000;-0.085817
4992.000000;-0.085817
4991.000000;-0.085870
4990.000000;-0.085978
4989.000000;-0.086097
4988.000000;-0.086206
4987.000000;-0.086322
4986.000000;-0.086456
4985.000000;-0.086590
4984.000000;-0.086711
4983.000000;-0.086823
4982.000000;-0.086923
4981.000000;-0.087003
4980.000000;-0.087068
4979.000000;-0.087140
4978.000000;-0.087226
4977.000000;-0.087321
4976.000000;-0.087421
4975.000000;-0.087527
4974.000000;-0.087627
4973.000000;-0.087700
4972.000000;-0.087740
4971.000000;-0.087755
4970.000000;-0.087761
4969.000000;-0.087782
4968.000000;-0.087849
4967.000000;-0.087963
4966.000000;-0.088085
4965.000000;-0.088175
4964.000000;-0.088234
4963.000000;-0.088293
4962.000000;-0.088370
4961.000000;-0.088469
4960.000000;-0.088590
4959.000000;-0.088721
4958.000000;-0.088835
4957.000000;-0.088908
4956.000000;-0.088959
4955.000000;-0.089017
4954.000000;-0.089092
4953.000000;-0.089186
4952.000000;-0.089306
4951.000000;-0.089444
4950.000000;-0.089554
4949.000000;-0.089590
4948.000000;-0.089556
4947.000000;-0.089510
4946.000000;-0.089510
4945.000000;-0.089586
4944.000000;-0.089734
4943.000000;-0.089919
4942.000000;-0.090090
4941.000000;-0.090220
4940.000000;-0.090326
4939.000000;-0.090434
4938.000000;-0.090544
4937.000000;-0.090646
4936.000000;-0.090743
4935.000000;-0.090836
4934.000000;-0.090910
4933.000000;-0.090964
4932.000000;-0.091026
4931.000000;-0.091118
4930.000000;-0.091228
4929.000000;-0.091336
4928.000000;-0.091449
4927.000000;-0.091570
4926.000000;-0.091677
4925.000000;-0.091757
4924.000000;-0.091841
4923.000000;-0.091968
4922.000000;-0.092127
4921.000000;-0.092272
4920.000000;-0.092384
4919.000000;-0.092473
4918.000000;-0.092545
4917.000000;-0.092604
4916.000000;-0.092674
4915.000000;-0.092775
4914.000000;-0.092897
4913.000000;-0.093013
4912.000000;-0.093111
4911.000000;-0.093189
4910.000000;-0.093239
4909.000000;-0.093275
4908.000000;-0.093349
4907.000000;-0.093497
4906.000000;-0.093685
4905.000000;-0.093849
4904.000000;-0.093970
4903.000000;-0.094070
4902.000000;-0.094161
4901.000000;-0.094248
4900.000000;-0.094354
4899.000000;-0.094504
4898.000000;-0.094674
4897.000000;-0.094815
4896.000000;-0.094918
4895.000000;-0.095010
4894.000000;-0.095105
4893.000000;-0.095187
4892.000000;-0.095262
4891.000000;-0.095360
4890.000000;-0.095496
4889.000000;-0.095645
4888.000000;-0.095783
4887.000000;-0.095911
4886.000000;-0.096026
4885.000000;-0.096121
4884.000000;-0.096200
4883.000000;-0.096285
4882.000000;-0.096382
4881.000000;-0.096477
4880.000000;-0.096559
4879.000000;-0.096626
4878.000000;-0.096678
4877.000000;-0.096722
4876.000000;-0.096782
4875.000000;-0.096886
4874.000000;-0.097026
4873.000000;-0.097160
4872.000000;-0.097260
4871.000000;-0.097326
4870.000000;-0.097380
4869.000000;-0.097456
4868.000000;-0.097585
4867.000000;-0.097763
4866.000000;-0.097939
4865.000000;-0.098064
4864.000000;-0.098144
4863.000000;-0.098223
4862.000000;-0.098326
4861.000000;-0.098440
4860.000000;-0.098547
4859.000000;-0.098644
4858.000000;-0.098733
4857.000000;-0.098820
4856.000000;-0.098923
4855.000000;-0.099056
4854.000000;-0.099209
4853.000000;-0.099359
4852.000000;-0.099498
4851.000000;-0.099624
4850.000000;-0.099723
4849.000000;-0.099780
4848.000000;-0.099811
4847.000000;-0.099848
4846.000000;-0.099906
4845.000000;-0.099990
4844.000000;-0.100101
4843.000000;-0.100226
4842.000000;-0.100321
4841.000000;-0.100353
4840.000000;-0.100351
4839.000000;-0.100390
4838.000000;-0.100514
4837.000000;-0.100706
4836.000000;-0.100917
4835.000000;-0.101103
4834.000000;-0.101227
4833.000000;-0.101288
4832.000000;-0.101323
4831.000000;-0.101379
4830.000000;-0.101471
4829.000000;-0.101583
4828.000000;-0.101708
4827.000000;-0.101844
4826.000000;-0.101978
4825.000000;-0.102092
4824.000000;-0.102207
4823.000000;-0.102356
4822.000000;-0.102530
4821.000000;-0.102679
4820.000000;-0.102766
4819.000000;-0.102796
4818.000000;-0.102799
4817.000000;-0.102806
4816.000000;-0.102853
4815.000000;-0.102963
4814.000000;-0.103118
4813.000000;-0.103270
4812.000000;-0.103383
4811.000000;-0.103459
4810.000000;-0.103511
4809.000000;-0.103560
4808.000000;-0.103636
4807.000000;-0.103761
4806.000000;-0.103910
4805.000000;-0.104030
4804.000000;-0.104092
4803.000000;-0.104115
4802.000000;-0.104133
4801.000000;-0.104170
4800.000000;-0.104245
4799.000000;-0.104376
4798.000000;-0.104556
4797.000000;-0.104737
4796.000000;-0.104876
4795.000000;-0.104967
4794.000000;-0.105042
4793.000000;-0.105136
4792.000000;-0.105261
4791.000000;-0.105394
4790.000000;-0.105493
4789.000000;-0.105540
4788.000000;-0.105563
4787.000000;-0.105613
4786.000000;-0.105725
4785.000000;-0.105891
4784.000000;-0.106071
4783.000000;-0.106209
4782.000000;-0.106266
4781.000000;-0.106253
4780.000000;-0.106228
4779.000000;-0.106244
4778.000000;-0.106309
4777.000000;-0.106402
4776.000000;-0.106519
4775.000000;-0.106653
4774.000000;-0.106772
4773.000000;-0.106833
4772.000000;-0.106842
4771.000000;-0.106847
4770.000000;-0.106886
4769.000000;-0.106963
4768.000000;-0.107062
4767.000000;-0.107166
4766.000000;-0.107255
4765.000000;-0.107310
4764.000000;-0.107336
4763.000000;-0.107363
4762.000000;-0.107415
4761.000000;-0.107499
4760.000000;-0.107617
4759.000000;-0.107764
4758.000000;-0.107911
4757.000000;-0.108027
4756.000000;-0.108103
4755.000000;-0.108160
4754.000000;-0.108213
4753.000000;-0.108267
4752.000000;-0.108328
4751.000000;-0.108401
4750.000000;-0.108482
4749.000000;-0.108552
4748.000000;-0.108604
4747.000000;-0.108655
4746.000000;-0.108733
4745.000000;-0.108863
4744.000000;-0.109048
4743.000000;-0.109250
4742.000000;-0.109406
4741.000000;-0.109476
4740.000000;-0.109480
4739.000000;-0.109479
4738.000000;-0.109519
4737.000000;-0.109602
4736.000000;-0.109704
4735.000000;-0.109799
4734.000000;-0.109870
4733.000000;-0.109925
4732.000000;-0.109987
4731.000000;-0.110072
4730.000000;-0.110173
4729.000000;-0.110273
4728.000000;-0.110366
4727.000000;-0.110453
4726.000000;-0.110538
4725.000000;-0.110633
4724.000000;-0.110758
4723.000000;-0.110915
4722.000000;-0.111065
4721.000000;-0.111166
4720.000000;-0.111207
4719.000000;-0.111201
4718.000000;-0.111167
4717.000000;-0.111140
4716.000000;-0.111178
4715.000000;-0.111310
4714.000000;-0.111498
4713.000000;-0.111667
4712.000000;-0.111771
4711.000000;-0.111800
4710.000000;-0.111755
4709.000000;-0.111659
4708.000000;-0.111581
4707.000000;-0.111599
4706.000000;-0.111718
4705.000000;-0.111861
4704.000000;-0.111946
4703.000000;-0.111952
4702.000000;-0.111912
4701.000000;-0.111889
4700.000000;-0.111943
4699.000000;-0.112093
4698.000000;-0.112290
4697.000000;-0.112451
4696.000000;-0.112535
4695.000000;-0.112567
4694.000000;-0.112593
4693.000000;-0.112636
4692.000000;-0.112691
4691.000000;-0.112750
4690.000000;-0.112809
4689.000000;-0.112865
4688.000000;-0.112918
4687.000000;-0.112967
4686.000000;-0.113011
4685.000000;-0.113054
4684.000000;-0.113120
4683.000000;-0.113213
4682.000000;-0.113293
4681.000000;-0.113299
4680.000000;-0.113217
4679.000000;-0.113101
4678.000000;-0.113032
4677.000000;-0.113055
4676.000000;-0.113159
4675.000000;-0.113282
4674.000000;-0.113363
4673.000000;-0.113390
4672.000000;-0.113407
4671.000000;-0.113461
4670.000000;-0.113546
4669.000000;-0.113621
4668.000000;-0.113672
4667.000000;-0.113723
4666.000000;-0.113783
4665.000000;-0.113834
4664.000000;-0.113855
4663.000000;-0.113848
4662.000000;-0.113827
4661.000000;-0.113800
4660.000000;-0.113780
4659.000000;-0.113780
4658.000000;-0.113792
4657.000000;-0.113793
4656.000000;-0.113779
4655.000000;-0.113769
4654.000000;-0.113777
4653.000000;-0.113796
4652.000000;-0.113816
4651.000000;-0.113835
4650.000000;-0.113848
4649.000000;-0.113843
4648.000000;-0.113822
4647.000000;-0.113812
4646.000000;-0.113828
4645.000000;-0.113859
4644.000000;-0.113877
4643.000000;-0.113850
4642.000000;-0.113760
4641.000000;-0.113609
4640.000000;-0.113435
4639.000000;-0.113299
4638.000000;-0.113244
4637.000000;-0.113268
4636.000000;-0.113339
4635.000000;-0.113422
4634.000000;-0.113489
4633.000000;-0.113528
4632.000000;-0.113540
4631.000000;-0.113540
4630.000000;-0.113538
4629.000000;-0.113538
4628.000000;-0.113536
4627.000000;-0.113521
4626.000000;-0.113479
4625.000000;-0.113404
4624.000000;-0.113312
4623.000000;-0.113227
4622.000000;-0.113165
4621.000000;-0.113122
4620.000000;-0.113098
4619.000000;-0.113089
4618.000000;-0.113077
4617.000000;-0.113036
4616.000000;-0.112956
4615.000000;-0.112853
4614.000000;-0.112761
4613.000000;-0.112713
4612.000000;-0.112708
4611.000000;-0.112704
4610.000000;-0.112635
4609.000000;-0.112476
4608.000000;-0.112274
4607.000000;-0.112102
4606.000000;-0.111990
4605.000000;-0.111912
4604.000000;-0.111832
4603.000000;-0.111743
4602.000000;-0.111650
4601.000000;-0.111552
4600.000000;-0.111437
4599.000000;-0.111299
4598.000000;-0.111139
4597.000000;-0.110968
4596.000000;-0.110800
4595.000000;-0.110639
4594.000000;-0.110480
4593.000000;-0.110317
4592.000000;-0.110163
4591.000000;-0.110035
4590.000000;-0.109934
4589.000000;-0.109843
4588.000000;-0.109744
4587.000000;-0.109632
4586.000000;-0.109508
4585.000000;-0.109380
4584.000000;-0.109256
4583.000000;-0.109132
4582.000000;-0.108976
4581.000000;-0.108759
4580.000000;-0.108474
4579.000000;-0.108139
4578.000000;-0.107788
4577.000000;-0.107460
4576.000000;-0.107192
4575.000000;-0.106983
4574.000000;-0.106786
4573.000000;-0.106538
4572.000000;-0.106219
4571.000000;-0.105858
4570.000000;-0.105486
4569.000000;-0.105111
4568.000000;-0.104729
4567.000000;-0.104344
4566.000000;-0.103974
4565.000000;-0.103631
4564.000000;-0.103304
4563.000000;-0.102962
4562.000000;-0.102578
4561.000000;-0.102160
4560.000000;-0.101741
4559.000000;-0.101337
4558.000000;-0.100924
4557.000000;-0.100471
4556.000000;-0.099989
4555.000000;-0.099517
4554.000000;-0.099085
4553.000000;-0.098690
4552.000000;-0.098303
4551.000000;-0.097880
4550.000000;-0.097383
4549.000000;-0.096803
4548.000000;-0.096175
4547.000000;-0.095543
4546.000000;-0.094937
4545.000000;-0.094367
4544.000000;-0.093838
4543.000000;-0.093326
4542.000000;-0.092784
4541.000000;-0.092183
4540.000000;-0.091553
4539.000000;-0.090960
4538.000000;-0.090440
4537.000000;-0.089983
4536.000000;-0.089552
4535.000000;-0.089116
4534.000000;-0.088656
4533.000000;-0.088177
4532.000000;-0.087706
4531.000000;-0.087271
4530.000000;-0.086880
4529.000000;-0.086515
4528.000000;-0.086157
4527.000000;-0.085797
4526.000000;-0.085436
4525.000000;-0.085098
4524.000000;-0.084816
4523.000000;-0.084596
4522.000000;-0.084400
4521.000000;-0.084185
4520.000000;-0.083951
4519.000000;-0.083719
4518.000000;-0.083497
4517.000000;-0.083265
4516.000000;-0.083018
4515.000000;-0.082777
4514.000000;-0.082561
4513.000000;-0.082357
4512.000000;-0.082122
4511.000000;-0.081814
4510.000000;-0.081442
4509.000000;-0.081069
4508.000000;-0.080769
4507.000000;-0.080564
4506.000000;-0.080415
4505.000000;-0.080283
4504.000000;-0.080158
4503.000000;-0.080034
4502.000000;-0.079889
4501.000000;-0.079708
4500.000000;-0.079513
4499.000000;-0.079321
4498.000000;-0.079112
4497.000000;-0.078861
4496.000000;-0.078581
4495.000000;-0.078295
4494.000000;-0.077989
4493.000000;-0.077646
4492.000000;-0.077299
4491.000000;-0.077017
4490.000000;-0.076822
4489.000000;-0.076656
4488.000000;-0.076441
4487.000000;-0.076145
4486.000000;-0.075795
4485.000000;-0.075444
4484.000000;-0.075128
4483.000000;-0.074838
4482.000000;-0.074527
4481.000000;-0.074170
4480.000000;-0.073796
4479.000000;-0.073449
4478.000000;-0.073133
4477.000000;-0.072814
4476.000000;-0.072468
4475.000000;-0.072097
4474.000000;-0.071713
4473.000000;-0.071322
4472.000000;-0.070929
4471.000000;-0.070521
4470.000000;-0.070081
4469.000000;-0.069612
4468.000000;-0.069159
4467.000000;-0.068758
4466.000000;-0.068393
4465.000000;-0.068021
4464.000000;-0.067623
4463.000000;-0.067200
4462.000000;-0.066741
4461.000000;-0.066236
4460.000000;-0.065716
4459.000000;-0.065242
4458.000000;-0.064828
4457.000000;-0.064425
4456.000000;-0.063967
4455.000000;-0.063438
4454.000000;-0.062878
4453.000000;-0.062360
4452.000000;-0.061940
4451.000000;-0.061597
4450.000000;-0.061237
4449.000000;-0.060773
4448.000000;-0.060197
4447.000000;-0.059582
4446.000000;-0.059001
4445.000000;-0.058487
4444.000000;-0.058040
4443.000000;-0.057625
4442.000000;-0.057179
4441.000000;-0.056656
4440.000000;-0.056077
4439.000000;-0.055503
4438.000000;-0.054964
4437.000000;-0.054437
4436.000000;-0.053904
4435.000000;-0.053375
4434.000000;-0.052857
4433.000000;-0.052331
4432.000000;-0.051779
4431.000000;-0.051210
4430.000000;-0.050648
4429.000000;-0.050109
4428.000000;-0.049598
4427.000000;-0.049098
4426.000000;-0.048573
4425.000000;-0.047993
4424.000000;-0.047360
4423.000000;-0.046710
4422.000000;-0.046079
4421.000000;-0.045483
4420.000000;-0.044907
4419.000000;-0.044312
4418.000000;-0.043653
4417.000000;-0.042933
4416.000000;-0.042212
4415.000000;-0.041548
4414.000000;-0.040933
4413.000000;-0.040318
4412.000000;-0.039676
4411.000000;-0.039011
4410.000000;-0.038324
4409.000000;-0.037602
4408.000000;-0.036855
4407.000000;-0.036118
4406.000000;-0.035416
4405.000000;-0.034746
4404.000000;-0.034092
4403.000000;-0.033438
4402.000000;-0.032754
4401.000000;-0.032020
4400.000000;-0.031256
4399.000000;-0.030507
4398.000000;-0.029800
4397.000000;-0.029115
4396.000000;-0.028418
4395.000000;-0.027680
4394.000000;-0.026885
4393.000000;-0.026039
4392.000000;-0.025170
4391.000000;-0.024309
4390.000000;-0.023458
4389.000000;-0.022606
4388.000000;-0.021752
4387.000000;-0.020897
4386.000000;-0.020014
4385.000000;-0.019080
4384.000000;-0.018116
4383.000000;-0.017178
4382.000000;-0.016283
4381.000000;-0.015380
4380.000000;-0.014404
4379.000000;-0.013344
4378.000000;-0.012252
4377.000000;-0.011196
4376.000000;-0.010209
4375.000000;-0.009268
4374.000000;-0.008324
4373.000000;-0.007363
4372.000000;-0.006407
4371.000000;-0.005452
4370.000000;-0.004436
4369.000000;-0.003314
4368.000000;-0.002131
4367.000000;-0.000981
4366.000000;0.000092
4365.000000;0.001120
4364.000000;0.002153
4363.000000;0.003224
4362.000000;0.004355
4361.000000;0.005549
4360.000000;0.006764
4359.000000;0.007940
4358.000000;0.009046
4357.000000;0.010105
4356.000000;0.011163
4355.000000;0.012286
4354.000000;0.013536
4353.000000;0.014911
4352.000000;0.016306
4351.000000;0.017597
4350.000000;0.018773
4349.000000;0.019947
4348.000000;0.021226
4347.000000;0.022610
4346.000000;0.024028
4345.000000;0.025423
4344.000000;0.026770
4343.000000;0.028055
4342.000000;0.029275
4341.000000;0.030463
4340.000000;0.031691
4339.000000;0.033039
4338.000000;0.034540
4337.000000;0.036145
4336.000000;0.037741
4335.000000;0.039239
4334.000000;0.040640
4333.000000;0.041998
4332.000000;0.043361
4331.000000;0.044770
4330.000000;0.046267
4329.000000;0.047852
4328.000000;0.049426
4327.000000;0.050861
4326.000000;0.052118
4325.000000;0.053293
4324.000000;0.054530
4323.000000;0.055930
4322.000000;0.057512
4321.000000;0.059208
4320.000000;0.060886
4319.000000;0.062444
4318.000000;0.063889
4317.000000;0.065308
4316.000000;0.066772
4315.000000;0.068292
4314.000000;0.069858
4313.000000;0.071444
4312.000000;0.072996
4311.000000;0.074461
4310.000000;0.075874
4309.000000;0.077353
4308.000000;0.078990
4307.000000;0.080783
4306.000000;0.082664
4305.000000;0.084552
4304.000000;0.086359
4303.000000;0.088018
4302.000000;0.089536
4301.000000;0.091013
4300.000000;0.092563
4299.000000;0.094242
4298.000000;0.096043
4297.000000;0.097915
4296.000000;0.099785
4295.000000;0.101595
4294.000000;0.103345
4293.000000;0.105094
4292.000000;0.106891
4291.000000;0.108736
4290.000000;0.110588
4289.000000;0.112409
4288.000000;0.114197
4287.000000;0.116000
4286.000000;0.117901
4285.000000;0.119933
4284.000000;0.122027
4283.000000;0.124054
4282.000000;0.125938
4281.000000;0.127688
4280.000000;0.129360
4279.000000;0.131031
4278.000000;0.132795
4277.000000;0.134725
4276.000000;0.136813
4275.000000;0.138965
4274.000000;0.141085
4273.000000;0.143114
4272.000000;0.145033
4271.000000;0.146858
4270.000000;0.148659
4269.000000;0.150533
4268.000000;0.152545
4267.000000;0.154691
4266.000000;0.156912
4265.000000;0.159117
4264.000000;0.161223
4263.000000;0.163221
4262.000000;0.165198
4261.000000;0.167253
4260.000000;0.169404
4259.000000;0.171606
4258.000000;0.173822
4257.000000;0.176026
4256.000000;0.178163
4255.000000;0.180192
4254.000000;0.182174
4253.000000;0.184237
4252.000000;0.186449
4251.000000;0.188774
4250.000000;0.191136
4249.000000;0.193473
4248.000000;0.195725
4247.000000;0.197860
4246.000000;0.199946
4245.000000;0.202131
4244.000000;0.204497
4243.000000;0.206966
4242.000000;0.209375
4241.000000;0.211617
4240.000000;0.213705
4239.000000;0.215760
4238.000000;0.217938
4237.000000;0.220326
4236.000000;0.222859
4235.000000;0.225375
4234.000000;0.227773
4233.000000;0.230085
4232.000000;0.232407
4231.000000;0.234797
4230.000000;0.237264
4229.000000;0.239806
4228.000000;0.242435
4227.000000;0.245169
4226.000000;0.247994
4225.000000;0.250830
4224.000000;0.253575
4223.000000;0.256225
4222.000000;0.258904
4221.000000;0.261696
4220.000000;0.264516
4219.000000;0.267224
4218.000000;0.269829
4217.000000;0.272454
4216.000000;0.275128
4215.000000;0.277761
4214.000000;0.280328
4213.000000;0.282956
4212.000000;0.285755
4211.000000;0.288686
4210.000000;0.291639
4209.000000;0.294552
4208.000000;0.297387
4207.000000;0.300112
4206.000000;0.302797
4205.000000;0.305645
4204.000000;0.308791
4203.000000;0.312112
4202.000000;0.315334
4201.000000;0.318331
4200.000000;0.321227
4199.000000;0.324220
4198.000000;0.327384
4197.000000;0.330655
4196.000000;0.333931
4195.000000;0.337159
4194.000000;0.340353
4193.000000;0.343567
4192.000000;0.346845
4191.000000;0.350188
4190.000000;0.353568
4189.000000;0.356957
4188.000000;0.360319
4187.000000;0.363603
4186.000000;0.366785
4185.000000;0.369921
4184.000000;0.373136
4183.000000;0.376542
4182.000000;0.380150
4181.000000;0.383872
4180.000000;0.387594
4179.000000;0.391228
4178.000000;0.394704
4177.000000;0.397983
4176.000000;0.401144
4175.000000;0.404415
4174.000000;0.408006
4173.000000;0.411890
4172.000000;0.415822
4171.000000;0.419615
4170.000000;0.423299
4169.000000;0.426961
4168.000000;0.430587
4167.000000;0.434157
4166.000000;0.437801
4165.000000;0.441680
4164.000000;0.445728
4163.000000;0.449656
4162.000000;0.453245
4161.000000;0.456550
4160.000000;0.459842
4159.000000;0.463391
4158.000000;0.467293
4157.000000;0.471431
4156.000000;0.475600
4155.000000;0.479717
4154.000000;0.483845
4153.000000;0.487996
4152.000000;0.492016
4151.000000;0.495764
4150.000000;0.499324
4149.000000;0.502899
4148.000000;0.506595
4147.000000;0.510419
4146.000000;0.514407
4145.000000;0.518564
4144.000000;0.522729
4143.000000;0.526697
4142.000000;0.530460
4141.000000;0.534172
4140.000000;0.537917
4139.000000;0.541662
4138.000000;0.545449
4137.000000;0.549404
4136.000000;0.553545
4135.000000;0.557743
4134.000000;0.561911
4133.000000;0.566049
4132.000000;0.570082
4131.000000;0.573862
4130.000000;0.577418
4129.000000;0.581027
4128.000000;0.584933
4127.000000;0.589116
4126.000000;0.593387
4125.000000;0.597603
4124.000000;0.601696
4123.000000;0.605664
4122.000000;0.609617
4121.000000;0.613744
4120.000000;0.618090
4119.000000;0.622408
4118.000000;0.626326
4117.000000;0.629696
4116.000000;0.632788
4115.000000;0.636116
4114.000000;0.640046
4113.000000;0.644475
4112.000000;0.648953
4111.000000;0.653166
4110.000000;0.657228
4109.000000;0.661398
4108.000000;0.665647
4107.000000;0.669720
4106.000000;0.673535
4105.000000;0.677242
4104.000000;0.680890
4103.000000;0.684344
4102.000000;0.687608
4101.000000;0.690966
4100.000000;0.694647
4099.000000;0.698527
4098.000000;0.702321
4097.000000;0.705944
4096.000000;0.709543
4095.000000;0.713285
4094.000000;0.717252
4093.000000;0.721461
4092.000000;0.725813
4091.000000;0.730065
4090.000000;0.733975
4089.000000;0.737465
4088.000000;0.740629
4087.000000;0.743631
4086.000000;0.746655
4085.000000;0.749887
4084.000000;0.753442
4083.000000;0.757298
4082.000000;0.761319
4081.000000;0.765328
4080.000000;0.769119
4079.000000;0.772494
4078.000000;0.775388
4077.000000;0.777994
4076.000000;0.780692
4075.000000;0.783789
4074.000000;0.787294
4073.000000;0.791002
4072.000000;0.794774
4071.000000;0.798638
4070.000000;0.802537
4069.000000;0.806152
4068.000000;0.809195
4067.000000;0.811858
4066.000000;0.814720
4065.000000;0.818159
4064.000000;0.822039
4063.000000;0.825976
4062.000000;0.829686
4061.000000;0.832970
4060.000000;0.835662
4059.000000;0.837846
4058.000000;0.839988
4057.000000;0.842589
4056.000000;0.845708
4055.000000;0.848898
4054.000000;0.851565
4053.000000;0.853415
4052.000000;0.854752
4051.000000;0.856390
4050.000000;0.859017
4049.000000;0.862479
4048.000000;0.865827
4047.000000;0.868221
4046.000000;0.869634
4045.000000;0.870613
4044.000000;0.871670
4043.000000;0.873121
4042.000000;0.875206
4041.000000;0.877955
4040.000000;0.880959
4039.000000;0.883597
4038.000000;0.885534
4037.000000;0.886886
4036.000000;0.887946
4035.000000;0.888974
4034.000000;0.890176
4033.000000;0.891605
4032.000000;0.893067
4031.000000;0.894269
4030.000000;0.895120
4029.000000;0.895749
4028.000000;0.896238
4027.000000;0.896474
4026.000000;0.896326
4025.000000;0.895879
4024.000000;0.895426
4023.000000;0.895203
4022.000000;0.895186
4021.000000;0.895234
4020.000000;0.895449
4019.000000;0.896180
4018.000000;0.897435
4017.000000;0.898401
4016.000000;0.897959
4015.000000;0.895879
4014.000000;0.893212
4013.000000;0.891254
4012.000000;0.890279
4011.000000;0.889484
4010.000000;0.888096
4009.000000;0.886244
4008.000000;0.884615
4007.000000;0.883470
4006.000000;0.882341
4005.000000;0.880750
4004.000000;0.878907
4003.000000;0.877431
4002.000000;0.876454
4001.000000;0.875367
4000.000000;0.873570
3999.000000;0.871175
3998.000000;0.868728
3997.000000;0.866441
3996.000000;0.863976
3995.000000;0.860923
3994.000000;0.857337
3993.000000;0.853815
3992.000000;0.851132
3991.000000;0.849569
3990.000000;0.848450
3989.000000;0.846572
3988.000000;0.843378
3987.000000;0.839515
3986.000000;0.835958
3985.000000;0.832886
3984.000000;0.829782
3983.000000;0.826485
3982.000000;0.823564
3981.000000;0.821513
3980.000000;0.820041
3979.000000;0.818434
3978.000000;0.816348
3977.000000;0.813942
3976.000000;0.811372
3975.000000;0.808453
3974.000000;0.804891
3973.000000;0.800685
3972.000000;0.796230
3971.000000;0.792013
3970.000000;0.788269
3969.000000;0.784935
3968.000000;0.781840
3967.000000;0.778801
3966.000000;0.775552
3965.000000;0.771816
3964.000000;0.767638
3963.000000;0.763506
3962.000000;0.759896
3961.000000;0.756728
3960.000000;0.753468
3959.000000;0.749765
3958.000000;0.745806
3957.000000;0.741985
3956.000000;0.738396
3955.000000;0.734765
3954.000000;0.730805
3953.000000;0.726522
3952.000000;0.722161
3951.000000;0.717934
3950.000000;0.713913
3949.000000;0.710231
3948.000000;0.707169
3947.000000;0.704770
3946.000000;0.702365
3945.000000;0.698914
3944.000000;0.694129
3943.000000;0.688996
3942.000000;0.684771
3941.000000;0.681584
3940.000000;0.678482
3939.000000;0.674775
3938.000000;0.670765
3937.000000;0.666937
3936.000000;0.662991
3935.000000;0.658188
3934.000000;0.652474
3933.000000;0.646745
3932.000000;0.641952
3931.000000;0.638337
3930.000000;0.635550
3929.000000;0.633062
3928.000000;0.630264
3927.000000;0.626581
3926.000000;0.621936
3925.000000;0.616973
3924.000000;0.612458
3923.000000;0.608442
3922.000000;0.604305
3921.000000;0.599543
3920.000000;0.594246
3919.000000;0.588903
3918.000000;0.584082
3917.000000;0.580283
3916.000000;0.577672
3915.000000;0.575701
3914.000000;0.573253
3913.000000;0.569547
3912.000000;0.564872
3911.000000;0.560233
3910.000000;0.556362
3909.000000;0.553143
3908.000000;0.549816
3907.000000;0.545570
3906.000000;0.540150
3905.000000;0.534203
3904.000000;0.528895
3903.000000;0.524924
3902.000000;0.521900
3901.000000;0.518901
3900.000000;0.515585
3899.000000;0.512441
3898.000000;0.509963
3897.000000;0.507970
3896.000000;0.505891
3895.000000;0.503343
3894.000000;0.500218
3893.000000;0.496495
3892.000000;0.492387
3891.000000;0.488494
3890.000000;0.485340
3889.000000;0.482777
3888.000000;0.480138
3887.000000;0.477059
3886.000000;0.473897
3885.000000;0.471154
3884.000000;0.468755
3883.000000;0.466168
3882.000000;0.463178
3881.000000;0.460201
3880.000000;0.457727
3879.000000;0.455700
3878.000000;0.453614
3877.000000;0.451034
3876.000000;0.447902
3875.000000;0.444474
3874.000000;0.441072
3873.000000;0.437808
3872.000000;0.434530
3871.000000;0.431187
3870.000000;0.428194
3869.000000;0.426145
3868.000000;0.425084
3867.000000;0.424276
3866.000000;0.422851
3865.000000;0.420601
3864.000000;0.417988
3863.000000;0.415507
3862.000000;0.413308
3861.000000;0.411309
3860.000000;0.409342
3859.000000;0.407139
3858.000000;0.404506
3857.000000;0.401590
3856.000000;0.398756
3855.000000;0.396129
3854.000000;0.393422
3853.000000;0.390456
3852.000000;0.387467
3851.000000;0.384736
3850.000000;0.382403
3849.000000;0.380513
3848.000000;0.378991
3847.000000;0.377593
3846.000000;0.376092
3845.000000;0.374497
3844.000000;0.372854
3843.000000;0.370891
3842.000000;0.368202
3841.000000;0.364806
3840.000000;0.361221
3839.000000;0.357965
3838.000000;0.355267
3837.000000;0.353214
3836.000000;0.351802
3835.000000;0.350710
3834.000000;0.349358
3833.000000;0.347416
3832.000000;0.345064
3831.000000;0.342644
3830.000000;0.340338
3829.000000;0.338258
3828.000000;0.336488
3827.000000;0.334821
3826.000000;0.332797
3825.000000;0.330207
3824.000000;0.327347
3823.000000;0.324541
3822.000000;0.321706
3821.000000;0.318720
3820.000000;0.315862
3819.000000;0.313458
3818.000000;0.311406
3817.000000;0.309304
3816.000000;0.306893
3815.000000;0.304221
3814.000000;0.301493
3813.000000;0.298963
3812.000000;0.296886
3811.000000;0.295357
3810.000000;0.294119
3809.000000;0.292675
3808.000000;0.290665
3807.000000;0.288086
3806.000000;0.285190
3805.000000;0.282260
3804.000000;0.279430
3803.000000;0.276644
3802.000000;0.273884
3801.000000;0.271401
3800.000000;0.269513
3799.000000;0.268122
3798.000000;0.266616
3797.000000;0.264391
3796.000000;0.261434
3795.000000;0.258255
3794.000000;0.255340
3793.000000;0.252849
3792.000000;0.250695
3791.000000;0.248727
3790.000000;0.246835
3789.000000;0.244983
3788.000000;0.243137
3787.000000;0.241140
3786.000000;0.238793
3785.000000;0.236131
3784.000000;0.233459
3783.000000;0.230991
3782.000000;0.228611
3781.000000;0.226134
3780.000000;0.223648
3779.000000;0.221407
3778.000000;0.219446
3777.000000;0.217552
3776.000000;0.215569
3775.000000;0.213457
3774.000000;0.211096
3773.000000;0.208292
3772.000000;0.205041
3771.000000;0.201619
3770.000000;0.198401
3769.000000;0.195621
3768.000000;0.193283
3767.000000;0.191199
3766.000000;0.189125
3765.000000;0.186929
3764.000000;0.184637
3763.000000;0.182312
3762.000000;0.179943
3761.000000;0.177487
3760.000000;0.174943
3759.000000;0.172272
3758.000000;0.169341
3757.000000;0.166080
3756.000000;0.162646
3755.000000;0.159277
3754.000000;0.156062
3753.000000;0.153036
3752.000000;0.150341
3751.000000;0.148073
3750.000000;0.145994
3749.000000;0.143679
3748.000000;0.141166
3747.000000;0.138935
3746.000000;0.137127
3745.000000;0.135192
3744.000000;0.132472
3743.000000;0.129116
3742.000000;0.125969
3741.000000;0.123420
3740.000000;0.121012
3739.000000;0.118181
3738.000000;0.114872
3737.000000;0.111451
3736.000000;0.108347
3735.000000;0.105858
3734.000000;0.103981
3733.000000;0.102235
3732.000000;0.099907
3731.000000;0.096636
3730.000000;0.092762
3729.000000;0.089000
3728.000000;0.085772
3727.000000;0.082944
3726.000000;0.080162
3725.000000;0.077296
3724.000000;0.074447
3723.000000;0.071718
3722.000000;0.069185
3721.000000;0.066955
3720.000000;0.065001
3719.000000;0.062942
3718.000000;0.060258
3717.000000;0.056764
3716.000000;0.052729
3715.000000;0.048513
3714.000000;0.044348
3713.000000;0.040513
3712.000000;0.037420
3711.000000;0.035234
3710.000000;0.033475
3709.000000;0.031324
3708.000000;0.028396
3707.000000;0.024948
3706.000000;0.021424
3705.000000;0.018074
3704.000000;0.014939
3703.000000;0.011972
3702.000000;0.009117
3701.000000;0.006333
3700.000000;0.003554
3699.000000;0.000649
3698.000000;-0.002497
3697.000000;-0.005847
3696.000000;-0.009235
3695.000000;-0.012558
3694.000000;-0.015869
3693.000000;-0.019233
3692.000000;-0.022614
3691.000000;-0.025981
3690.000000;-0.029348
3689.000000;-0.032652
3688.000000;-0.035798
3687.000000;-0.038818
3686.000000;-0.041893
3685.000000;-0.045251
3684.000000;-0.048939
3683.000000;-0.052728
3682.000000;-0.056307
3681.000000;-0.059526
3680.000000;-0.062517
3679.000000;-0.065599
3678.000000;-0.069004
3677.000000;-0.072635
3676.000000;-0.076192
3675.000000;-0.079523
3674.000000;-0.082794
3673.000000;-0.086135
3672.000000;-0.089326
3671.000000;-0.092184
3670.000000;-0.094959
3669.000000;-0.098079
3668.000000;-0.101681
3667.000000;-0.105510
3666.000000;-0.109220
3665.000000;-0.112718
3664.000000;-0.116174
3663.000000;-0.119873
3662.000000;-0.124010
3661.000000;-0.128456
3660.000000;-0.132695
3659.000000;-0.136196
3658.000000;-0.138963
3657.000000;-0.141630
3656.000000;-0.144934
3655.000000;-0.149047
3654.000000;-0.153424
3653.000000;-0.157335
3652.000000;-0.160556
3651.000000;-0.163544
3650.000000;-0.166876
3649.000000;-0.170531
3648.000000;-0.174078
3647.000000;-0.177404
3646.000000;-0.180802
3645.000000;-0.184513
3644.000000;-0.188421
3643.000000;-0.192244
3642.000000;-0.195878
3641.000000;-0.199468
3640.000000;-0.203195
3639.000000;-0.207090
3638.000000;-0.211014
3637.000000;-0.214723
3636.000000;-0.218046
3635.000000;-0.221070
3634.000000;-0.224077
3633.000000;-0.227263
3632.000000;-0.230599
3631.000000;-0.234001
3630.000000;-0.237445
3629.000000;-0.240869
3628.000000;-0.244123
3627.000000;-0.247295
3626.000000;-0.250715
3625.000000;-0.254467
3624.000000;-0.258159
3623.000000;-0.261357
3622.000000;-0.264123
3621.000000;-0.266922
3620.000000;-0.270128
3619.000000;-0.273838
3618.000000;-0.277993
3617.000000;-0.282323
3616.000000;-0.286240
3615.000000;-0.289265
3614.000000;-0.291604
3613.000000;-0.293944
3612.000000;-0.296681
3611.000000;-0.299634
3610.000000;-0.302533
3609.000000;-0.305429
3608.000000;-0.308445
3607.000000;-0.311444
3606.000000;-0.314175
3605.000000;-0.316591
3604.000000;-0.318851
3603.000000;-0.321161
3602.000000;-0.323715
3601.000000;-0.326643
3600.000000;-0.329861
3599.000000;-0.333026
3598.000000;-0.335766
3597.000000;-0.337923
3596.000000;-0.339596
3595.000000;-0.341023
3594.000000;-0.342506
3593.000000;-0.344293
3592.000000;-0.346396
3591.000000;-0.348535
3590.000000;-0.350381
3589.000000;-0.351886
3588.000000;-0.353308
3587.000000;-0.354917
3586.000000;-0.356770
3585.000000;-0.358704
3584.000000;-0.360448
3583.000000;-0.361817
3582.000000;-0.362853
3581.000000;-0.363759
3580.000000;-0.364731
3579.000000;-0.365849
3578.000000;-0.367054
3577.000000;-0.368208
3576.000000;-0.369200
3575.000000;-0.370021
3574.000000;-0.370701
3573.000000;-0.371169
3572.000000;-0.371213
3571.000000;-0.370703
3570.000000;-0.369898
3569.000000;-0.369457
3568.000000;-0.369926
3567.000000;-0.371077
3566.000000;-0.371952
3565.000000;-0.371827
3564.000000;-0.371049
3563.000000;-0.370723
3562.000000;-0.371486
3561.000000;-0.372728
3560.000000;-0.373232
3559.000000;-0.372463
3558.000000;-0.370953
3557.000000;-0.369519
3556.000000;-0.368455
3555.000000;-0.367583
3554.000000;-0.366728
3553.000000;-0.365873
3552.000000;-0.365018
3551.000000;-0.364121
3550.000000;-0.363143
3549.000000;-0.362033
3548.000000;-0.360755
3547.000000;-0.359377
3546.000000;-0.358020
3545.000000;-0.356672
3544.000000;-0.355193
3543.000000;-0.353555
3542.000000;-0.351894
3541.000000;-0.350259
3540.000000;-0.348495
3539.000000;-0.346526
3538.000000;-0.344567
3537.000000;-0.342848
3536.000000;-0.341238
3535.000000;-0.339401
3534.000000;-0.337257
3533.000000;-0.335081
3532.000000;-0.333175
3531.000000;-0.331618
3530.000000;-0.330331
3529.000000;-0.329174
3528.000000;-0.327896
3527.000000;-0.326179
3526.000000;-0.323875
3525.000000;-0.321200
3524.000000;-0.318607
3523.000000;-0.316447
3522.000000;-0.314720
3521.000000;-0.313146
3520.000000;-0.311470
3519.000000;-0.309672
3518.000000;-0.307811
3517.000000;-0.305718
3516.000000;-0.303047
3515.000000;-0.299717
3514.000000;-0.296163
3513.000000;-0.293003
3512.000000;-0.290502
3511.000000;-0.288480
3510.000000;-0.286637
3509.000000;-0.284826
3508.000000;-0.283011
3507.000000;-0.281119
3506.000000;-0.279020
3505.000000;-0.276618
3504.000000;-0.273947
3503.000000;-0.271221
3502.000000;-0.268740
3501.000000;-0.266632
3500.000000;-0.264661
3499.000000;-0.262404
3498.000000;-0.259718
3497.000000;-0.256964
3496.000000;-0.254674
3495.000000;-0.252958
3494.000000;-0.251337
3493.000000;-0.249232
3492.000000;-0.246609
3491.000000;-0.243988
3490.000000;-0.241765
3489.000000;-0.239697
3488.000000;-0.237231
3487.000000;-0.234261
3486.000000;-0.231286
3485.000000;-0.228796
3484.000000;-0.226729
3483.000000;-0.224653
3482.000000;-0.222296
3481.000000;-0.219764
3480.000000;-0.217311
3479.000000;-0.215044
3478.000000;-0.212849
3477.000000;-0.210560
3476.000000;-0.208199
3475.000000;-0.205998
3474.000000;-0.204121
3473.000000;-0.202414
3472.000000;-0.200569
3471.000000;-0.198514
3470.000000;-0.196474
3469.000000;-0.194636
3468.000000;-0.192907
3467.000000;-0.191079
3466.000000;-0.189105
3465.000000;-0.187112
3464.000000;-0.185238
3463.000000;-0.183492
3462.000000;-0.181720
3461.000000;-0.179720
3460.000000;-0.177475
3459.000000;-0.175229
3458.000000;-0.173165
3457.000000;-0.171098
3456.000000;-0.168724
3455.000000;-0.166138
3454.000000;-0.163776
3453.000000;-0.161815
3452.000000;-0.159938
3451.000000;-0.157840
3450.000000;-0.155629
3449.000000;-0.153541
3448.000000;-0.151550
3447.000000;-0.149511
3446.000000;-0.147463
3445.000000;-0.145499
3444.000000;-0.143512
3443.000000;-0.141360
3442.000000;-0.139215
3441.000000;-0.137451
3440.000000;-0.136181
3439.000000;-0.135117
3438.000000;-0.133885
3437.000000;-0.132298
3436.000000;-0.130352
3435.000000;-0.128179
3434.000000;-0.126041
3433.000000;-0.124220
3432.000000;-0.122822
3431.000000;-0.121687
3430.000000;-0.120475
3429.000000;-0.118820
3428.000000;-0.116532
3427.000000;-0.113767
3426.000000;-0.111000
3425.000000;-0.108754
3424.000000;-0.107347
3423.000000;-0.106791
3422.000000;-0.106719
3421.000000;-0.106414
3420.000000;-0.105208
3419.000000;-0.103075
3418.000000;-0.100691
3417.000000;-0.098729
3416.000000;-0.097202
3415.000000;-0.095673
3414.000000;-0.093925
3413.000000;-0.092161
3412.000000;-0.090629
3411.000000;-0.089327
3410.000000;-0.088099
3409.000000;-0.086808
3408.000000;-0.085371
3407.000000;-0.083762
3406.000000;-0.082035
3405.000000;-0.080273
3404.000000;-0.078544
3403.000000;-0.076951
3402.000000;-0.075646
3401.000000;-0.074701
3400.000000;-0.073988
3399.000000;-0.073258
3398.000000;-0.072293
3397.000000;-0.070948
3396.000000;-0.069188
3395.000000;-0.067153
3394.000000;-0.065072
3393.000000;-0.063045
3392.000000;-0.061053
3391.000000;-0.059237
3390.000000;-0.057937
3389.000000;-0.057251
3388.000000;-0.056714
3387.000000;-0.055683
3386.000000;-0.053964
3385.000000;-0.051888
3384.000000;-0.049861
3383.000000;-0.048093
3382.000000;-0.046716
3381.000000;-0.045882
3380.000000;-0.045619
3379.000000;-0.045648
3378.000000;-0.045423
3377.000000;-0.044432
3376.000000;-0.042619
3375.000000;-0.040534
3374.000000;-0.038872
3373.000000;-0.037740
3372.000000;-0.036603
3371.000000;-0.035045
3370.000000;-0.033335
3369.000000;-0.031960
3368.000000;-0.030869
3367.000000;-0.029560
3366.000000;-0.027822
3365.000000;-0.026021
3364.000000;-0.024633
3363.000000;-0.023803
3362.000000;-0.023376
3361.000000;-0.023073
3360.000000;-0.022557
3359.000000;-0.021606
3358.000000;-0.020320
3357.000000;-0.019029
3356.000000;-0.017916
3355.000000;-0.016906
3354.000000;-0.015896
3353.000000;-0.014866
3352.000000;-0.013702
3351.000000;-0.012200
3350.000000;-0.010415
3349.000000;-0.008815
3348.000000;-0.007861
3347.000000;-0.007495
3346.000000;-0.007194
3345.000000;-0.006484
3344.000000;-0.005266
3343.000000;-0.003708
3342.000000;-0.002037
3341.000000;-0.000530
3340.000000;0.000474
3339.000000;0.000822
3338.000000;0.000878
3337.000000;0.001402
3336.000000;0.002867
3335.000000;0.004907
3334.000000;0.006626
3333.000000;0.007520
3332.000000;0.007927
3331.000000;0.008490
3330.000000;0.009436
3329.000000;0.010564
3328.000000;0.011729
3327.000000;0.013002
3326.000000;0.014416
3325.000000;0.015845
3324.000000;0.017182
3323.000000;0.018421
3322.000000;0.019477
3321.000000;0.020167
3320.000000;0.020524
3319.000000;0.021002
3318.000000;0.022156
3317.000000;0.024054
3316.000000;0.026097
3315.000000;0.027472
3314.000000;0.027851
3313.000000;0.027634
3312.000000;0.027540
3311.000000;0.028017
3310.000000;0.029069
3309.000000;0.030440
3308.000000;0.031794
3307.000000;0.032811
3306.000000;0.033373
3305.000000;0.033711
3304.000000;0.034174
3303.000000;0.034797
3302.000000;0.035314
3301.000000;0.035640
3300.000000;0.036063
3299.000000;0.036834
3298.000000;0.037847
3297.000000;0.038933
3296.000000;0.040190
3295.000000;0.041677
3294.000000;0.042969
3293.000000;0.043448
3292.000000;0.043069
3291.000000;0.042549
3290.000000;0.042695
3289.000000;0.043729
3288.000000;0.045276
3287.000000;0.046815
3286.000000;0.048112
3285.000000;0.049343
3284.000000;0.050796
3283.000000;0.052401
3282.000000;0.053636
3281.000000;0.054089
3280.000000;0.054026
3279.000000;0.054198
3278.000000;0.055081
3277.000000;0.056470
3276.000000;0.057765
3275.000000;0.058486
3274.000000;0.058541
3273.000000;0.058213
3272.000000;0.057975
3271.000000;0.058195
3270.000000;0.058946
3269.000000;0.060090
3268.000000;0.061470
3267.000000;0.062934
3266.000000;0.064303
3265.000000;0.065475
3264.000000;0.066466
3263.000000;0.067204
3262.000000;0.067443
3261.000000;0.067148
3260.000000;0.066820
3259.000000;0.067089
3258.000000;0.068000
3257.000000;0.069007
3256.000000;0.069737
3255.000000;0.070421
3254.000000;0.071442
3253.000000;0.072760
3252.000000;0.073979
3251.000000;0.074792
3250.000000;0.075170
3249.000000;0.075271
3248.000000;0.075374
3247.000000;0.075801
3246.000000;0.076675
3245.000000;0.077754
3244.000000;0.078625
3243.000000;0.079080
3242.000000;0.079264
3241.000000;0.079499
3240.000000;0.080030
3239.000000;0.080879
3238.000000;0.081872
3237.000000;0.082823
3236.000000;0.083719
3235.000000;0.084655
3234.000000;0.085594
3233.000000;0.086348
3232.000000;0.086843
3231.000000;0.087255
3230.000000;0.087751
3229.000000;0.088209
3228.000000;0.088371
3227.000000;0.088214
3226.000000;0.088033
3225.000000;0.088156
3224.000000;0.088730
3223.000000;0.089739
3222.000000;0.091019
3221.000000;0.092203
3220.000000;0.092841
3219.000000;0.092784
3218.000000;0.092423
3217.000000;0.092388
3216.000000;0.093003
3215.000000;0.094082
3214.000000;0.095187
3213.000000;0.095946
3212.000000;0.096173
3211.000000;0.095938
3210.000000;0.095643
3209.000000;0.095862
3208.000000;0.096864
3207.000000;0.098320
3206.000000;0.099616
3205.000000;0.100424
3204.000000;0.100856
3203.000000;0.101185
3202.000000;0.101648
3201.000000;0.102476
3200.000000;0.103760
3199.000000;0.105185
3198.000000;0.106135
3197.000000;0.106304
3196.000000;0.106087
3195.000000;0.106177
3194.000000;0.106832
3193.000000;0.107675
3192.000000;0.108128
3191.000000;0.107932
3190.000000;0.107333
3189.000000;0.106936
3188.000000;0.107351
3187.000000;0.108769
3186.000000;0.110772
3185.000000;0.112588
3184.000000;0.113608
3183.000000;0.113744
3182.000000;0.113379
3181.000000;0.113016
3180.000000;0.112926
3179.000000;0.113081
3178.000000;0.113385
3177.000000;0.113879
3176.000000;0.114603
3175.000000;0.115317
3174.000000;0.115632
3173.000000;0.115484
3172.000000;0.115283
3171.000000;0.115467
3170.000000;0.116066
3169.000000;0.116846
3168.000000;0.117671
3167.000000;0.118497
3166.000000;0.119156
3165.000000;0.119425
3164.000000;0.119365
3163.000000;0.119383
3162.000000;0.119884
3161.000000;0.120902
3160.000000;0.122065
3159.000000;0.122860
3158.000000;0.123034
3157.000000;0.122862
3156.000000;0.122930
3155.000000;0.123534
3154.000000;0.124403
3153.000000;0.125104
3152.000000;0.125601
3151.000000;0.126191
3150.000000;0.126945
3149.000000;0.127506
3148.000000;0.127529
3147.000000;0.127135
3146.000000;0.126798
3145.000000;0.126911
3144.000000;0.127550
3143.000000;0.128542
3142.000000;0.129630
3141.000000;0.130607
3140.000000;0.131381
3139.000000;0.131987
3138.000000;0.132526
3137.000000;0.133084
3136.000000;0.133654
3135.000000;0.134143
3134.000000;0.134466
3133.000000;0.134611
3132.000000;0.134599
3131.000000;0.134448
3130.000000;0.134277
3129.000000;0.134390
3128.000000;0.135085
3127.000000;0.136355
3126.000000;0.137867
3125.000000;0.139252
3124.000000;0.140270
3123.000000;0.140748
3122.000000;0.140620
3121.000000;0.140119
3120.000000;0.139683
3119.000000;0.139546
3118.000000;0.139633
3117.000000;0.139951
3116.000000;0.140782
3115.000000;0.142212
3114.000000;0.143712
3113.000000;0.144558
3112.000000;0.144601
3111.000000;0.144331
3110.000000;0.144249
3109.000000;0.144475
3108.000000;0.144934
3107.000000;0.145535
3106.000000;0.146108
3105.000000;0.146436
3104.000000;0.146492
3103.000000;0.146458
3102.000000;0.146451
3101.000000;0.146408
3100.000000;0.146316
3099.000000;0.146350
3098.000000;0.146686
3097.000000;0.147307
3096.000000;0.148110
3095.000000;0.149113
3094.000000;0.150440
3093.000000;0.152088
3092.000000;0.153743
3091.000000;0.154877
3090.000000;0.155146
3089.000000;0.154755
3088.000000;0.154319
3087.000000;0.154251
3086.000000;0.154430
3085.000000;0.154546
3084.000000;0.154614
3083.000000;0.154888
3082.000000;0.155397
3081.000000;0.155855
3080.000000;0.156077
3079.000000;0.156191
3078.000000;0.156419
3077.000000;0.156849
3076.000000;0.157480
3075.000000;0.158252
3074.000000;0.158956
3073.000000;0.159349
3072.000000;0.159458
3071.000000;0.159579
3070.000000;0.159890
3069.000000;0.160327
3068.000000;0.160918
3067.000000;0.161890
3066.000000;0.163178
3065.000000;0.164093
3064.000000;0.163924
3063.000000;0.162849
3062.000000;0.161889
3061.000000;0.161904
3060.000000;0.162868
3059.000000;0.164166
3058.000000;0.165319
3057.000000;0.166285
3056.000000;0.167200
3055.000000;0.168074
3054.000000;0.168735
3053.000000;0.168991
3052.000000;0.168823
3051.000000;0.168484
3050.000000;0.168360
3049.000000;0.168681
3048.000000;0.169366
3047.000000;0.170174
3046.000000;0.170931
3045.000000;0.171549
3044.000000;0.171908
3043.000000;0.171897
3042.000000;0.171603
3041.000000;0.171301
3040.000000;0.171175
3039.000000;0.171168
3038.000000;0.171223
3037.000000;0.171525
3036.000000;0.172286
3035.000000;0.173344
3034.000000;0.174225
3033.000000;0.174682
3032.000000;0.174963
3031.000000;0.175416
3030.000000;0.176001
3029.000000;0.176385
3028.000000;0.176415
3027.000000;0.176332
3026.000000;0.176518
3025.000000;0.177154
3024.000000;0.178121
3023.000000;0.179104
3022.000000;0.179768
3021.000000;0.179968
3020.000000;0.179854
3019.000000;0.179742
3018.000000;0.179861
3017.000000;0.180223
3016.000000;0.180709
3015.000000;0.181206
3014.000000;0.181668
3013.000000;0.182135
3012.000000;0.182710
3011.000000;0.183465
3010.000000;0.184363
3009.000000;0.185274
3008.000000;0.186072
3007.000000;0.186670
3006.000000;0.186997
3005.000000;0.187039
3004.000000;0.186944
3003.000000;0.187018
3002.000000;0.187525
3001.000000;0.188468
3000.000000;0.189577
2999.000000;0.190545
2998.000000;0.191247
2997.000000;0.191721
2996.000000;0.191972
2995.000000;0.191918
2994.000000;0.191615
2993.000000;0.191398
2992.000000;0.191620
2991.000000;0.192229
2990.000000;0.192804
2989.000000;0.193062
2988.000000;0.193197
2987.000000;0.193582
2986.000000;0.194307
2985.000000;0.195139
2984.000000;0.195843
2983.000000;0.196350
2982.000000;0.196661
2981.000000;0.196792
2980.000000;0.196873
2979.000000;0.197155
2978.000000;0.197786
2977.000000;0.198608
2976.000000;0.199234
2975.000000;0.199380
2974.000000;0.199128
2973.000000;0.198885
2972.000000;0.199052
2971.000000;0.199694
2970.000000;0.200538
2969.000000;0.201280
2968.000000;0.201858
2967.000000;0.202424
2966.000000;0.203141
2965.000000;0.204008
2964.000000;0.204826
2963.000000;0.205284
2962.000000;0.205231
2961.000000;0.204933
2960.000000;0.204956
2959.000000;0.205669
2958.000000;0.206883
2957.000000;0.208060
2956.000000;0.208781
2955.000000;0.208937
2954.000000;0.208612
2953.000000;0.208025
2952.000000;0.207547
2951.000000;0.207512
2950.000000;0.207929
2949.000000;0.208512
2948.000000;0.209051
2947.000000;0.209607
2946.000000;0.210298
2945.000000;0.211087
2944.000000;0.211900
2943.000000;0.212762
2942.000000;0.213647
2941.000000;0.214321
2940.000000;0.214596
2939.000000;0.214685
2938.000000;0.214999
2937.000000;0.215550
2936.000000;0.215845
2935.000000;0.215544
2934.000000;0.215006
2933.000000;0.214924
2932.000000;0.215565
2931.000000;0.216636
2930.000000;0.217805
2929.000000;0.218994
2928.000000;0.220111
2927.000000;0.220851
2926.000000;0.221027
2925.000000;0.220897
2924.000000;0.220923
2923.000000;0.221311
2922.000000;0.221963
2921.000000;0.222733
2920.000000;0.223498
2919.000000;0.224097
2918.000000;0.224447
2917.000000;0.224697
2916.000000;0.225014
2915.000000;0.225244
2914.000000;0.225076
2913.000000;0.224565
2912.000000;0.224239
2911.000000;0.224578
2910.000000;0.225579
2909.000000;0.226864
2908.000000;0.228007
2907.000000;0.228724
2906.000000;0.228975
2905.000000;0.229035
2904.000000;0.229265
2903.000000;0.229715
2902.000000;0.230115
2901.000000;0.230328
2900.000000;0.230578
2899.000000;0.231084
2898.000000;0.231710
2897.000000;0.232197
2896.000000;0.232550
2895.000000;0.232971
2894.000000;0.233542
2893.000000;0.234239
2892.000000;0.235104
2891.000000;0.236121
2890.000000;0.237002
2889.000000;0.237432
2888.000000;0.237566
2887.000000;0.237973
2886.000000;0.238981
2885.000000;0.240299
2884.000000;0.241359
2883.000000;0.241860
2882.000000;0.241895
2881.000000;0.241734
2880.000000;0.241692
2879.000000;0.242048
2878.000000;0.242870
2877.000000;0.243880
2876.000000;0.244677
2875.000000;0.245138
2874.000000;0.245515
2873.000000;0.246084
2872.000000;0.246747
2871.000000;0.247117
2870.000000;0.246996
2869.000000;0.246657
2868.000000;0.246570
2867.000000;0.246924
2866.000000;0.247529
2865.000000;0.248126
2864.000000;0.248624
2863.000000;0.248988
2862.000000;0.249128
2861.000000;0.249049
2860.000000;0.248999
2859.000000;0.249270
2858.000000;0.249883
2857.000000;0.250618
2856.000000;0.251316
2855.000000;0.252005
2854.000000;0.252720
2853.000000;0.253365
2852.000000;0.253828
2851.000000;0.254139
2850.000000;0.254426
2849.000000;0.254754
2848.000000;0.255063
2847.000000;0.255248
2846.000000;0.255328
2845.000000;0.255538
2844.000000;0.256207
2843.000000;0.257445
2842.000000;0.258914
2841.000000;0.260035
2840.000000;0.260519
2839.000000;0.260674
2838.000000;0.261091
2837.000000;0.262032
2836.000000;0.263199
2835.000000;0.264119
2834.000000;0.264665
2833.000000;0.265083
2832.000000;0.265565
2831.000000;0.265974
2830.000000;0.266047
2829.000000;0.265723
2828.000000;0.265181
2827.000000;0.264687
2826.000000;0.264521
2825.000000;0.264957
2824.000000;0.266074
2823.000000;0.267563
2822.000000;0.268879
2821.000000;0.269675
2820.000000;0.270015
2819.000000;0.270206
2818.000000;0.270514
2817.000000;0.271047
2816.000000;0.271725
2815.000000;0.272338
2814.000000;0.272714
2813.000000;0.272912
2812.000000;0.273157
2811.000000;0.273599
2810.000000;0.274254
2809.000000;0.275097
2808.000000;0.276009
2807.000000;0.276623
2806.000000;0.276555
2805.000000;0.275974
2804.000000;0.275738
2803.000000;0.276645
2802.000000;0.278559
2801.000000;0.280418
2800.000000;0.281183
2799.000000;0.280742
2798.000000;0.279887
2797.000000;0.279542
2796.000000;0.280048
2795.000000;0.281070
2794.000000;0.282064
2793.000000;0.282755
2792.000000;0.283189
2791.000000;0.283468
2790.000000;0.283611
2789.000000;0.283677
2788.000000;0.283883
2787.000000;0.284448
2786.000000;0.285350
2785.000000;0.286293
2784.000000;0.286961
2783.000000;0.287338
2782.000000;0.287729
2781.000000;0.288417
2780.000000;0.289295
2779.000000;0.289985
2778.000000;0.290330
2777.000000;0.290608
2776.000000;0.291137
2775.000000;0.291872
2774.000000;0.292605
2773.000000;0.293344
2772.000000;0.294195
2771.000000;0.295004
2770.000000;0.295500
2769.000000;0.295781
2768.000000;0.296250
2767.000000;0.297017
2766.000000;0.297728
2765.000000;0.298092
2764.000000;0.298205
2763.000000;0.298228
2762.000000;0.298124
2761.000000;0.297926
2760.000000;0.297928
2759.000000;0.298326
2758.000000;0.298930
2757.000000;0.299479
2756.000000;0.300011
2755.000000;0.300661
2754.000000;0.301341
2753.000000;0.301925
2752.000000;0.302552
2751.000000;0.303386
2750.000000;0.304253
2749.000000;0.304829
2748.000000;0.305111
2747.000000;0.305390
2746.000000;0.305842
2745.000000;0.306463
2744.000000;0.307291
2743.000000;0.308336
2742.000000;0.309312
2741.000000;0.309790
2740.000000;0.309709
2739.000000;0.309463
2738.000000;0.309452
2737.000000;0.309787
2736.000000;0.310444
2735.000000;0.311426
2734.000000;0.312646
2733.000000;0.313844
2732.000000;0.314746
2731.000000;0.315248
2730.000000;0.315434
2729.000000;0.315533
2728.000000;0.315804
2727.000000;0.316317
2726.000000;0.316837
2725.000000;0.317070
2724.000000;0.317019
2723.000000;0.316962
2722.000000;0.317150
2721.000000;0.317695
2720.000000;0.318649
2719.000000;0.319931
2718.000000;0.321183
2717.000000;0.321992
2716.000000;0.322333
2715.000000;0.322604
2714.000000;0.323172
2713.000000;0.324072
2712.000000;0.325169
2711.000000;0.326324
2710.000000;0.327307
2709.000000;0.327786
2708.000000;0.327621
2707.000000;0.327068
2706.000000;0.326553
2705.000000;0.326345
2704.000000;0.326540
2703.000000;0.327197
2702.000000;0.328303
2701.000000;0.329647
2700.000000;0.330875
2699.000000;0.331712
2698.000000;0.332137
2697.000000;0.332383
2696.000000;0.332804
2695.000000;0.333641
2694.000000;0.334809
2693.000000;0.335915
2692.000000;0.336596
2691.000000;0.336828
2690.000000;0.336881
2689.000000;0.336978
2688.000000;0.337088
2687.000000;0.337093
2686.000000;0.337106
2685.000000;0.337482
2684.000000;0.338433
2683.000000;0.339703
2682.000000;0.340763
2681.000000;0.341332
2680.000000;0.341592
2679.000000;0.341855
2678.000000;0.342200
2677.000000;0.342541
2676.000000;0.342893
2675.000000;0.343383
2674.000000;0.344044
2673.000000;0.344747
2672.000000;0.345315
2671.000000;0.345640
2670.000000;0.345733
2669.000000;0.345765
2668.000000;0.346001
2667.000000;0.346555
2666.000000;0.347272
2665.000000;0.347945
2664.000000;0.348587
2663.000000;0.349346
2662.000000;0.350196
2661.000000;0.350877
2660.000000;0.351141
2659.000000;0.351000
2658.000000;0.350747
2657.000000;0.350788
2656.000000;0.351374
2655.000000;0.352376
2654.000000;0.353388
2653.000000;0.354159
2652.000000;0.354850
2651.000000;0.355714
2650.000000;0.356671
2649.000000;0.357409
2648.000000;0.357854
2647.000000;0.358295
2646.000000;0.359002
2645.000000;0.359900
2644.000000;0.360680
2643.000000;0.361126
2642.000000;0.361318
2641.000000;0.361590
2640.000000;0.362250
2639.000000;0.363244
2638.000000;0.364144
2637.000000;0.364595
2636.000000;0.364712
2635.000000;0.364889
2634.000000;0.365316
2633.000000;0.365870
2632.000000;0.366388
2631.000000;0.366795
2630.000000;0.367028
2629.000000;0.367112
2628.000000;0.367329
2627.000000;0.368005
2626.000000;0.369027
2625.000000;0.369850
2624.000000;0.370115
2623.000000;0.370111
2622.000000;0.370426
2621.000000;0.371300
2620.000000;0.372438
2619.000000;0.373365
2618.000000;0.373847
2617.000000;0.374024
2616.000000;0.374226
2615.000000;0.374677
2614.000000;0.375346
2613.000000;0.376076
2612.000000;0.376771
2611.000000;0.377381
2610.000000;0.377812
2609.000000;0.378031
2608.000000;0.378269
2607.000000;0.378907
2606.000000;0.380091
2605.000000;0.381545
2604.000000;0.382771
2603.000000;0.383367
2602.000000;0.383253
2601.000000;0.382796
2600.000000;0.382692
2599.000000;0.383449
2598.000000;0.384868
2597.000000;0.386152
2596.000000;0.386643
2595.000000;0.386355
2594.000000;0.385847
2593.000000;0.385747
2592.000000;0.386389
2591.000000;0.387663
2590.000000;0.389062
2589.000000;0.390068
2588.000000;0.390603
2587.000000;0.390995
2586.000000;0.391475
2585.000000;0.391888
2584.000000;0.392012
2583.000000;0.391935
2582.000000;0.391974
2581.000000;0.392350
2580.000000;0.393052
2579.000000;0.393898
2578.000000;0.394614
2577.000000;0.394970
2576.000000;0.394973
2575.000000;0.394918
2574.000000;0.395171
2573.000000;0.395947
2572.000000;0.397231
2571.000000;0.398730
2570.000000;0.399931
2569.000000;0.400456
2568.000000;0.400483
2567.000000;0.400641
2566.000000;0.401373
2565.000000;0.402533
2564.000000;0.403675
2563.000000;0.404537
2562.000000;0.405115
2561.000000;0.405464
2560.000000;0.405640
2559.000000;0.405732
2558.000000;0.405804
2557.000000;0.405874
2556.000000;0.406032
2555.000000;0.406429
2554.000000;0.407054
2553.000000;0.407691
2552.000000;0.408211
2551.000000;0.408712
2550.000000;0.409249
2549.000000;0.409676
2548.000000;0.409951
2547.000000;0.410342
2546.000000;0.411069
2545.000000;0.411965
2544.000000;0.412772
2543.000000;0.413608
2542.000000;0.414754
2541.000000;0.416089
2540.000000;0.417137
2539.000000;0.417682
2538.000000;0.417949
2537.000000;0.418149
2536.000000;0.418203
2535.000000;0.418077
2534.000000;0.418015
2533.000000;0.418224
2532.000000;0.418562
2531.000000;0.418804
2530.000000;0.419062
2529.000000;0.419671
2528.000000;0.420716
2527.000000;0.421866
2526.000000;0.422681
2525.000000;0.423001
2524.000000;0.423037
2523.000000;0.423186
2522.000000;0.423741
2521.000000;0.424695
2520.000000;0.425802
2519.000000;0.426815
2518.000000;0.427665
2517.000000;0.428412
2516.000000;0.429085
2515.000000;0.429623
2514.000000;0.429935
2513.000000;0.429981
2512.000000;0.429832
2511.000000;0.429652
2510.000000;0.429617
2509.000000;0.429882
2508.000000;0.430577
2507.000000;0.431727
2506.000000;0.433066
2505.000000;0.434089
2504.000000;0.434514
2503.000000;0.434679
2502.000000;0.435235
2501.000000;0.436385
2500.000000;0.437605
2499.000000;0.438210
2498.000000;0.438055
2497.000000;0.437578
2496.000000;0.437311
2495.000000;0.437528
2494.000000;0.438247
2493.000000;0.439310
2492.000000;0.440434
2491.000000;0.441328
2490.000000;0.441871
2489.000000;0.442141
2488.000000;0.442291
2487.000000;0.442463
2486.000000;0.442759
2485.000000;0.443158
2484.000000;0.443467
2483.000000;0.443508
2482.000000;0.443414
2481.000000;0.443598
2480.000000;0.444329
2479.000000;0.445389
2478.000000;0.446276
2477.000000;0.446719
2476.000000;0.446908
2475.000000;0.447231
2474.000000;0.447904
2473.000000;0.448838
2472.000000;0.449785
2471.000000;0.450563
2470.000000;0.451172
2469.000000;0.451711
2468.000000;0.452170
2467.000000;0.452361
2466.000000;0.452143
2465.000000;0.451737
2464.000000;0.451716
2463.000000;0.452583
2462.000000;0.454324
2461.000000;0.456360
2460.000000;0.457917
2459.000000;0.458535
2458.000000;0.458357
2457.000000;0.457987
2456.000000;0.457994
2455.000000;0.458459
2454.000000;0.459039
2453.000000;0.459459
2452.000000;0.459830
2451.000000;0.460413
2450.000000;0.461223
2449.000000;0.462048
2448.000000;0.462775
2447.000000;0.463467
2446.000000;0.464103
2445.000000;0.464511
2444.000000;0.464655
2443.000000;0.464806
2442.000000;0.465264
2441.000000;0.466031
2440.000000;0.466899
2439.000000;0.467749
2438.000000;0.468582
2437.000000;0.469327
2436.000000;0.469809
2435.000000;0.469988
2434.000000;0.470075
2433.000000;0.470333
2432.000000;0.470830
2431.000000;0.471422
2430.000000;0.471932
2429.000000;0.472304
2428.000000;0.472609
2427.000000;0.472980
2426.000000;0.473529
2425.000000;0.474291
2424.000000;0.475179
2423.000000;0.475979
2422.000000;0.476447
2421.000000;0.476516
2420.000000;0.476420
2419.000000;0.476546
2418.000000;0.477095
2417.000000;0.477928
2416.000000;0.478749
2415.000000;0.479394
2414.000000;0.479911
2413.000000;0.480426
2412.000000;0.480999
2411.000000;0.481586
2410.000000;0.482088
2409.000000;0.482439
2408.000000;0.482716
2407.000000;0.483116
2406.000000;0.483770
2405.000000;0.484588
2404.000000;0.485309
2403.000000;0.485713
2402.000000;0.485758
2401.000000;0.485569
2400.000000;0.485373
2399.000000;0.485416
2398.000000;0.485872
2397.000000;0.486777
2396.000000;0.488046
2395.000000;0.489477
2394.000000;0.490728
2393.000000;0.491418
2392.000000;0.491432
2391.000000;0.491140
2390.000000;0.491138
2389.000000;0.491694
2388.000000;0.492502
2387.000000;0.493027
2386.000000;0.493065
2385.000000;0.492916
2384.000000;0.493040
2383.000000;0.493632
2382.000000;0.494533
2381.000000;0.495495
2380.000000;0.496447
2379.000000;0.497448
2378.000000;0.498424
2377.000000;0.499105
2376.000000;0.499278
2375.000000;0.499064
2374.000000;0.498839
2373.000000;0.498923
2372.000000;0.499400
2371.000000;0.500190
2370.000000;0.501195
2369.000000;0.502352
2368.000000;0.503596
2367.000000;0.504787
2366.000000;0.505717
2365.000000;0.506238
2364.000000;0.506405
2363.000000;0.506450
2362.000000;0.506538
2361.000000;0.506589
2360.000000;0.506539
2359.000000;0.506683
2358.000000;0.507465
2357.000000;0.508949
2356.000000;0.510563
2355.000000;0.511608
2354.000000;0.511934
2353.000000;0.511966
2352.000000;0.512226
2351.000000;0.512866
2350.000000;0.513743
2349.000000;0.514632
2348.000000;0.515425
2347.000000;0.516258
2346.000000;0.517187
2345.000000;0.517954
2344.000000;0.518142
2343.000000;0.517750
2342.000000;0.517345
2341.000000;0.517466
2340.000000;0.518221
2339.000000;0.519272
2338.000000;0.520214
2337.000000;0.520748
2336.000000;0.520784
2335.000000;0.520588
2334.000000;0.520752
2333.000000;0.521650
2332.000000;0.522946
2331.000000;0.523853
2330.000000;0.524041
2329.000000;0.523956
2328.000000;0.524171
2327.000000;0.524843
2326.000000;0.525702
2325.000000;0.526494
2324.000000;0.526949
2323.000000;0.526822
2322.000000;0.526203
2321.000000;0.525683
2320.000000;0.525943
2319.000000;0.527038
2318.000000;0.528437
2317.000000;0.529598
2316.000000;0.530409
2315.000000;0.531004
2314.000000;0.531483
2313.000000;0.531923
2312.000000;0.532441
2311.000000;0.533109
2310.000000;0.533829
2309.000000;0.534442
2308.000000;0.534852
2307.000000;0.535097
2306.000000;0.535282
2305.000000;0.535537
2304.000000;0.535879
2303.000000;0.536156
2302.000000;0.536207
2301.000000;0.536144
2300.000000;0.536353
2299.000000;0.537141
2298.000000;0.538409
2297.000000;0.539729
2296.000000;0.540702
2295.000000;0.541294
2294.000000;0.541842
2293.000000;0.542760
2292.000000;0.544054
2291.000000;0.545156
2290.000000;0.545374
2289.000000;0.544653
2288.000000;0.543766
2287.000000;0.543651
2286.000000;0.544581
2285.000000;0.546025
2284.000000;0.547209
2283.000000;0.547771
2282.000000;0.547935
2281.000000;0.548146
2280.000000;0.548566
2279.000000;0.548913
2278.000000;0.548859
2277.000000;0.548535
2276.000000;0.548495
2275.000000;0.549106
2274.000000;0.550143
2273.000000;0.551086
2272.000000;0.551712
2271.000000;0.552214
2270.000000;0.552867
2269.000000;0.553731
2268.000000;0.554644
2267.000000;0.555315
2266.000000;0.555487
2265.000000;0.555257
2264.000000;0.555208
2263.000000;0.555969
2262.000000;0.557518
2261.000000;0.559088
2260.000000;0.559918
2259.000000;0.559998
2258.000000;0.559958
2257.000000;0.560311
2256.000000;0.560991
2255.000000;0.561596
2254.000000;0.561878
2253.000000;0.561923
2252.000000;0.561937
2251.000000;0.562012
2250.000000;0.562129
2249.000000;0.562304
2248.000000;0.562648
2247.000000;0.563283
2246.000000;0.564271
2245.000000;0.565585
2244.000000;0.567029
2243.000000;0.568183
2242.000000;0.568603
2241.000000;0.568249
2240.000000;0.567650
2239.000000;0.567467
2238.000000;0.567928
2237.000000;0.568825
2236.000000;0.569917
2235.000000;0.571137
2234.000000;0.572369
2233.000000;0.573325
2232.000000;0.573765
2231.000000;0.573710
2230.000000;0.573342
2229.000000;0.572844
2228.000000;0.572496
2227.000000;0.572678
2226.000000;0.573510
2225.000000;0.574557
2224.000000;0.575197
2223.000000;0.575335
2222.000000;0.575489
2221.000000;0.576087
2220.000000;0.576931
2219.000000;0.577526
2218.000000;0.577766
2217.000000;0.578017
2216.000000;0.578610
2215.000000;0.579510
2214.000000;0.580503
2213.000000;0.581472
2212.000000;0.582361
2211.000000;0.583058
2210.000000;0.583511
2209.000000;0.583898
2208.000000;0.584484
2207.000000;0.585316
2206.000000;0.586181
2205.000000;0.586856
2204.000000;0.587278
2203.000000;0.587481
2202.000000;0.587544
2201.000000;0.587648
2200.000000;0.588000
2199.000000;0.588596
2198.000000;0.589145
2197.000000;0.589390
2196.000000;0.589422
2195.000000;0.589597
2194.000000;0.590184
2193.000000;0.591184
2192.000000;0.592406
2191.000000;0.593598
2190.000000;0.594549
2189.000000;0.595182
2188.000000;0.595579
2187.000000;0.595842
2186.000000;0.595972
2185.000000;0.595978
2184.000000;0.596028
2183.000000;0.596372
2182.000000;0.597121
2181.000000;0.598185
2180.000000;0.599367
2179.000000;0.600383
2178.000000;0.600894
2177.000000;0.600783
2176.000000;0.600433
2175.000000;0.600480
2174.000000;0.601171
2173.000000;0.602140
2172.000000;0.602912
2171.000000;0.603452
2170.000000;0.604046
2169.000000;0.604749
2168.000000;0.605218
2167.000000;0.605144
2166.000000;0.604677
2165.000000;0.604322
2164.000000;0.604506
2163.000000;0.605298
2162.000000;0.606467
2161.000000;0.607697
2160.000000;0.608712
2159.000000;0.609334
2158.000000;0.609589
2157.000000;0.609788
2156.000000;0.610344
2155.000000;0.611359
2154.000000;0.612423
2153.000000;0.612992
2152.000000;0.612983
2151.000000;0.612871
2150.000000;0.613156
2149.000000;0.613891
2148.000000;0.614786
2147.000000;0.615596
2146.000000;0.616274
2145.000000;0.616821
2144.000000;0.617211
2143.000000;0.617478
2142.000000;0.617769
2141.000000;0.618222
2140.000000;0.618808
2139.000000;0.619331
2138.000000;0.619596
2137.000000;0.619624
2136.000000;0.619692
2135.000000;0.620114
2134.000000;0.620953
2133.000000;0.621980
2132.000000;0.622905
2131.000000;0.623618
2130.000000;0.624212
2129.000000;0.624867
2128.000000;0.625717
2127.000000;0.626764
2126.000000;0.627834
2125.000000;0.628628
2124.000000;0.628889
2123.000000;0.628552
2122.000000;0.627819
2121.000000;0.627096
2120.000000;0.626768
2119.000000;0.626930
2118.000000;0.627378
2117.000000;0.627949
2116.000000;0.628755
2115.000000;0.629946
2114.000000;0.631337
2113.000000;0.632562
2112.000000;0.633585
2111.000000;0.634683
2110.000000;0.635839
2109.000000;0.636539
2108.000000;0.636452
2107.000000;0.636010
2106.000000;0.635967
2105.000000;0.636549
2104.000000;0.637418
2103.000000;0.638279
2102.000000;0.639097
2101.000000;0.639720
2100.000000;0.639836
2099.000000;0.639494
2098.000000;0.639283
2097.000000;0.639687
2096.000000;0.640503
2095.000000;0.641176
2094.000000;0.641524
2093.000000;0.641855
2092.000000;0.642482
2091.000000;0.643444
2090.000000;0.644655
2089.000000;0.645978
2088.000000;0.647090
2087.000000;0.647606
2086.000000;0.647530
2085.000000;0.647344
2084.000000;0.647432
2083.000000;0.647623
2082.000000;0.647527
2081.000000;0.647230
2080.000000;0.647327
2079.000000;0.648238
2078.000000;0.649753
2077.000000;0.651345
2076.000000;0.652680
2075.000000;0.653712
2074.000000;0.654480
2073.000000;0.655062
2072.000000;0.655585
2071.000000;0.656049
2070.000000;0.656208
2069.000000;0.655880
2068.000000;0.655351
2067.000000;0.655238
2066.000000;0.655911
2065.000000;0.657187
2064.000000;0.658567
2063.000000;0.659601
2062.000000;0.660074
2061.000000;0.660138
2060.000000;0.660321
2059.000000;0.661090
2058.000000;0.662268
2057.000000;0.663104
2056.000000;0.663120
2055.000000;0.662657
2054.000000;0.662416
2053.000000;0.662671
2052.000000;0.663198
2051.000000;0.663754
2050.000000;0.664296
2049.000000;0.664866
2048.000000;0.665586
2047.000000;0.666682
2046.000000;0.668159
2045.000000;0.669491
2044.000000;0.670033
2043.000000;0.669854
2042.000000;0.669790
2041.000000;0.670490
2040.000000;0.671682
2039.000000;0.672579
2038.000000;0.672795
2037.000000;0.672622
2036.000000;0.672575
2035.000000;0.672939
2034.000000;0.673692
2033.000000;0.674635
2032.000000;0.675544
2031.000000;0.676307
2030.000000;0.676957
2029.000000;0.677523
2028.000000;0.677943
2027.000000;0.678194
2026.000000;0.678421
2025.000000;0.678798
2024.000000;0.679300
2023.000000;0.679759
2022.000000;0.680115
2021.000000;0.680475
2020.000000;0.680895
2019.000000;0.681289
2018.000000;0.681605
2017.000000;0.681947
2016.000000;0.682411
2015.000000;0.682874
2014.000000;0.683130
2013.000000;0.683218
2012.000000;0.683490
2011.000000;0.684268
2010.000000;0.685531
2009.000000;0.686995
2008.000000;0.688390
2007.000000;0.689543
2006.000000;0.690313
2005.000000;0.690669
2004.000000;0.690867
2003.000000;0.691307
2002.000000;0.692092
2001.000000;0.692850
2000.000000;0.693180
1999.000000;0.693175
1998.000000;0.693305
1997.000000;0.693824
1996.000000;0.694510
1995.000000;0.695036
1994.000000;0.695406
1993.000000;0.695869
1992.000000;0.696532
1991.000000;0.697243
1990.000000;0.697825
1989.000000;0.698289
1988.000000;0.698744
1987.000000;0.699214
1986.000000;0.699646
1985.000000;0.700074
1984.000000;0.700622
1983.000000;0.701284
1982.000000;0.701818
1981.000000;0.702000
1980.000000;0.701954
1979.000000;0.702033
1978.000000;0.702384
1977.000000;0.702811
1976.000000;0.703126
1975.000000;0.703433
1974.000000;0.703926
1973.000000;0.704569
1972.000000;0.705211
1971.000000;0.705876
1970.000000;0.706695
1969.000000;0.707605
1968.000000;0.708349
1967.000000;0.708833
1966.000000;0.709243
1965.000000;0.709756
1964.000000;0.710321
1963.000000;0.710817
1962.000000;0.711267
1961.000000;0.711790
1960.000000;0.712464
1959.000000;0.713334
1958.000000;0.714420
1957.000000;0.715624
1956.000000;0.716709
1955.000000;0.717471
1954.000000;0.717881
1953.000000;0.718011
1952.000000;0.717932
1951.000000;0.717752
1950.000000;0.717686
1949.000000;0.717956
1948.000000;0.718644
1947.000000;0.719632
1946.000000;0.720600
1945.000000;0.721122
1944.000000;0.720959
1943.000000;0.720370
1942.000000;0.720017
1941.000000;0.720408
1940.000000;0.721458
1939.000000;0.722628
1938.000000;0.723436
1937.000000;0.723777
1936.000000;0.723848
1935.000000;0.723906
1934.000000;0.724088
1933.000000;0.724377
1932.000000;0.724737
1931.000000;0.725260
1930.000000;0.726074
1929.000000;0.727106
1928.000000;0.728111
1927.000000;0.729017
1926.000000;0.730072
1925.000000;0.731478
1924.000000;0.733021
1923.000000;0.734253
1922.000000;0.734971
1921.000000;0.735311
1920.000000;0.735448
1919.000000;0.735435
1918.000000;0.735359
1917.000000;0.735389
1916.000000;0.735586
1915.000000;0.735838
1914.000000;0.736095
1913.000000;0.736516
1912.000000;0.737254
1911.000000;0.738167
1910.000000;0.738920
1909.000000;0.739390
1908.000000;0.739858
1907.000000;0.740692
1906.000000;0.741910
1905.000000;0.743111
1904.000000;0.743877
1903.000000;0.744172
1902.000000;0.744272
1901.000000;0.744401
1900.000000;0.744585
1899.000000;0.744834
1898.000000;0.745262
1897.000000;0.745896
1896.000000;0.746480
1895.000000;0.746668
1894.000000;0.746473
1893.000000;0.746449
1892.000000;0.747310
1891.000000;0.749262
1890.000000;0.751656
1889.000000;0.753328
1888.000000;0.753484
1887.000000;0.752357
1886.000000;0.750937
1885.000000;0.750162
1884.000000;0.750423
1883.000000;0.751615
1882.000000;0.753216
1881.000000;0.754323
1880.000000;0.754219
1879.000000;0.753309
1878.000000;0.753111
1877.000000;0.754748
1876.000000;0.757537
1875.000000;0.759534
1874.000000;0.759542
1873.000000;0.758183
1872.000000;0.756926
1871.000000;0.756642
1870.000000;0.757351
1869.000000;0.758810
1868.000000;0.760798
1867.000000;0.762956
1866.000000;0.764746
1865.000000;0.765734
1864.000000;0.765862
1863.000000;0.765510
1862.000000;0.765349
1861.000000;0.765929
1860.000000;0.767181
1859.000000;0.768382
1858.000000;0.768829
1857.000000;0.768537
1856.000000;0.768167
1855.000000;0.768328
1854.000000;0.769101
1853.000000;0.770129
1852.000000;0.770976
1851.000000;0.771404
1850.000000;0.771498
1849.000000;0.771572
1848.000000;0.771892
1847.000000;0.772549
1846.000000;0.773589
1845.000000;0.775061
1844.000000;0.776767
1843.000000;0.778155
1842.000000;0.778757
1841.000000;0.778676
1840.000000;0.778378
1839.000000;0.778175
1838.000000;0.778255
1837.000000;0.779018
1836.000000;0.780830
1835.000000;0.783316
1834.000000;0.785387
1833.000000;0.786300
1832.000000;0.786364
1831.000000;0.786259
1830.000000;0.786077
1829.000000;0.785509
1828.000000;0.784713
1827.000000;0.784332
1826.000000;0.784620
1825.000000;0.785114
1824.000000;0.785353
1823.000000;0.785496
1822.000000;0.785939
1821.000000;0.786620
1820.000000;0.787102
1819.000000;0.787179
1818.000000;0.787055
1817.000000;0.786938
1816.000000;0.786878
1815.000000;0.787043
1814.000000;0.787738
1813.000000;0.788916
1812.000000;0.789954
1811.000000;0.790311
1810.000000;0.790255
1809.000000;0.790616
1808.000000;0.791840
1807.000000;0.793553
1806.000000;0.795080
1805.000000;0.796126
1804.000000;0.796764
1803.000000;0.797084
1802.000000;0.797166
1801.000000;0.797250
1800.000000;0.797573
1799.000000;0.798040
1798.000000;0.798381
1797.000000;0.798708
1796.000000;0.799580
1795.000000;0.801289
1794.000000;0.803255
1793.000000;0.804476
1792.000000;0.804553
1791.000000;0.804082
1790.000000;0.803999
1789.000000;0.804708
1788.000000;0.805873
1787.000000;0.806872
1786.000000;0.807339
1785.000000;0.807354
1784.000000;0.807237
1783.000000;0.807218
1782.000000;0.807297
1781.000000;0.807393
1780.000000;0.807560
1779.000000;0.808045
1778.000000;0.809127
1777.000000;0.810843
1776.000000;0.812836
1775.000000;0.814459
1774.000000;0.815161
1773.000000;0.814898
1772.000000;0.814172
1771.000000;0.813627
1770.000000;0.813673
1769.000000;0.814358
1768.000000;0.815461
1767.000000;0.816594
1766.000000;0.817314
1765.000000;0.817350
1764.000000;0.816860
1763.000000;0.816432
1762.000000;0.816698
1761.000000;0.817811
1760.000000;0.819239
1759.000000;0.820219
1758.000000;0.820539
1757.000000;0.820837
1756.000000;0.821949
1755.000000;0.823926
1754.000000;0.825900
1753.000000;0.826959
1752.000000;0.826984
1751.000000;0.826547
1750.000000;0.826228
1749.000000;0.826296
1748.000000;0.826868
1747.000000;0.827907
1746.000000;0.829034
1745.000000;0.829721
1744.000000;0.829807
1743.000000;0.829657
1742.000000;0.829765
1741.000000;0.830358
1740.000000;0.831425
1739.000000;0.832827
1738.000000;0.834205
1737.000000;0.835074
1736.000000;0.835252
1735.000000;0.835127
1734.000000;0.835347
1733.000000;0.836134
1732.000000;0.837110
1731.000000;0.837843
1730.000000;0.838294
1729.000000;0.838714
1728.000000;0.839316
1727.000000;0.839999
1726.000000;0.840421
1725.000000;0.840418
1724.000000;0.840302
1723.000000;0.840604
1722.000000;0.841462
1721.000000;0.842508
1720.000000;0.843430
1719.000000;0.844359
1718.000000;0.845453
1717.000000;0.846346
1716.000000;0.846495
1715.000000;0.845994
1714.000000;0.845566
1713.000000;0.845786
1712.000000;0.846629
1711.000000;0.847751
1710.000000;0.848825
1709.000000;0.849507
1708.000000;0.849493
1707.000000;0.848963
1706.000000;0.848731
1705.000000;0.849567
1704.000000;0.851401
1703.000000;0.853360
1702.000000;0.854613
1701.000000;0.855134
1700.000000;0.855677
1699.000000;0.856750
1698.000000;0.858008
1697.000000;0.858785
1696.000000;0.858741
1695.000000;0.858159
1694.000000;0.857601
1693.000000;0.857381
1692.000000;0.857583
1691.000000;0.858245
1690.000000;0.859358
1689.000000;0.860690
1688.000000;0.861830
1687.000000;0.862512
1686.000000;0.862816
1685.000000;0.862965
1684.000000;0.863081
1683.000000;0.863165
1682.000000;0.863326
1681.000000;0.863703
1680.000000;0.864260
1679.000000;0.864815
1678.000000;0.865306
1677.000000;0.865852
1676.000000;0.866523
1675.000000;0.867210
1674.000000;0.867748
1673.000000;0.868133
1672.000000;0.868562
1671.000000;0.869228
1670.000000;0.870123
1669.000000;0.871094
1668.000000;0.872012
1667.000000;0.872841
1666.000000;0.873595
1665.000000;0.874289
1664.000000;0.874942
1663.000000;0.875612
1662.000000;0.876273
1661.000000;0.876703
1660.000000;0.876657
1659.000000;0.876225
1658.000000;0.875886
1657.000000;0.876056
1656.000000;0.876646
1655.000000;0.877247
1654.000000;0.877727
1653.000000;0.878361
1652.000000;0.879315
1651.000000;0.880307
1650.000000;0.881071
1649.000000;0.881871
1648.000000;0.882941
1647.000000;0.884003
1646.000000;0.884654
1645.000000;0.885000
1644.000000;0.885506
1643.000000;0.886367
1642.000000;0.887275
1641.000000;0.887820
1640.000000;0.887970
1639.000000;0.888007
1638.000000;0.888146
1637.000000;0.888390
1636.000000;0.888757
1635.000000;0.889405
1634.000000;0.890480
1633.000000;0.891788
1632.000000;0.892915
1631.000000;0.893573
1630.000000;0.893764
1629.000000;0.893748
1628.000000;0.893848
1627.000000;0.894254
1626.000000;0.894977
1625.000000;0.895912
1624.000000;0.896867
1623.000000;0.897626
1622.000000;0.898072
1621.000000;0.898329
1620.000000;0.898673
1619.000000;0.899272
1618.000000;0.900046
1617.000000;0.900821
1616.000000;0.901536
1615.000000;0.902236
1614.000000;0.902949
1613.000000;0.903656
1612.000000;0.904311
1611.000000;0.904835
1610.000000;0.905113
1609.000000;0.905098
1608.000000;0.904924
1607.000000;0.904841
1606.000000;0.905017
1605.000000;0.905451
1604.000000;0.906051
1603.000000;0.906683
1602.000000;0.907202
1601.000000;0.907546
1600.000000;0.907886
1599.000000;0.908525
1598.000000;0.909536
1597.000000;0.910558
1596.000000;0.911131
1595.000000;0.911266
1594.000000;0.911518
1593.000000;0.912419
1592.000000;0.913945
1591.000000;0.915603
1590.000000;0.916969
1589.000000;0.917970
1588.000000;0.918686
1587.000000;0.919092
1586.000000;0.919124
1585.000000;0.918895
1584.000000;0.918734
1583.000000;0.918947
1582.000000;0.919581
1581.000000;0.920434
1580.000000;0.921223
1579.000000;0.921780
1578.000000;0.922128
1577.000000;0.922420
1576.000000;0.922792
1575.000000;0.923293
1574.000000;0.923871
1573.000000;0.924428
1572.000000;0.924883
1571.000000;0.925215
1570.000000;0.925554
1569.000000;0.926133
1568.000000;0.927093
1567.000000;0.928311
1566.000000;0.929470
1565.000000;0.930315
1564.000000;0.930799
1563.000000;0.931022
1562.000000;0.931149
1561.000000;0.931337
1560.000000;0.931701
1559.000000;0.932271
1558.000000;0.932746
1557.000000;0.933093
1556.000000;0.933445
1555.000000;0.933861
1554.000000;0.934312
1553.000000;0.934786
1552.000000;0.935397
1551.000000;0.936223
1550.000000;0.937122
1549.000000;0.937870
1548.000000;0.938503
1547.000000;0.939293
1546.000000;0.940412
1545.000000;0.941749
1544.000000;0.943037
1543.000000;0.944035
1542.000000;0.944618
1541.000000;0.944799
1540.000000;0.944758
1539.000000;0.944790
1538.000000;0.945070
1537.000000;0.945316
1536.000000;0.945202
1535.000000;0.944822
1534.000000;0.944604
1533.000000;0.944943
1532.000000;0.945932
1531.000000;0.947370
1530.000000;0.948864
1529.000000;0.950014
1528.000000;0.950687
1527.000000;0.951103
1526.000000;0.951579
1525.000000;0.952200
1524.000000;0.952807
1523.000000;0.953284
1522.000000;0.953730
1521.000000;0.954312
1520.000000;0.955067
1519.000000;0.955868
1518.000000;0.956577
1517.000000;0.957199
1516.000000;0.957886
1515.000000;0.958795
1514.000000;0.959821
1513.000000;0.960548
1512.000000;0.960614
1511.000000;0.960169
1510.000000;0.959846
1509.000000;0.960251
1508.000000;0.961451
1507.000000;0.962895
1506.000000;0.963825
1505.000000;0.963934
1504.000000;0.963242
1503.000000;0.962216
1502.000000;0.961692
1501.000000;0.962203
1500.000000;0.963617
1499.000000;0.965348
1498.000000;0.966838
1497.000000;0.967838
1496.000000;0.968400
1495.000000;0.968744
1494.000000;0.969104
1493.000000;0.969629
1492.000000;0.970329
1491.000000;0.971104
1490.000000;0.971787
1489.000000;0.972194
1488.000000;0.972294
1487.000000;0.972332
1486.000000;0.972687
1485.000000;0.973564
1484.000000;0.974808
1483.000000;0.976030
1482.000000;0.976972
1481.000000;0.977653
1480.000000;0.978177
1479.000000;0.978497
1478.000000;0.978487
1477.000000;0.978216
1476.000000;0.978043
1475.000000;0.978387
1474.000000;0.979376
1473.000000;0.980736
1472.000000;0.981983
1471.000000;0.982780
1470.000000;0.983136
1469.000000;0.983330
1468.000000;0.983657
1467.000000;0.984190
1466.000000;0.984760
1465.000000;0.985184
1464.000000;0.985455
1463.000000;0.985707
1462.000000;0.986051
1461.000000;0.986496
1460.000000;0.987039
1459.000000;0.987685
1458.000000;0.988373
1457.000000;0.988965
1456.000000;0.989438
1455.000000;0.989920
1454.000000;0.990527
1453.000000;0.991286
1452.000000;0.992087
1451.000000;0.992805
1450.000000;0.993438
1449.000000;0.994012
1448.000000;0.994431
1447.000000;0.994566
1446.000000;0.994472
1445.000000;0.994457
1444.000000;0.994820
1443.000000;0.995572
1442.000000;0.996476
1441.000000;0.997336
1440.000000;0.998204
1439.000000;0.999224
1438.000000;1.000337
1437.000000;1.001273
1436.000000;1.001873
1435.000000;1.002300
1434.000000;1.002877
1433.000000;1.003681
1432.000000;1.004369
1431.000000;1.004509
1430.000000;1.004055
1429.000000;1.003413
1428.000000;1.003091
1427.000000;1.003315
1426.000000;1.003948
1425.000000;1.004745
1424.000000;1.005625
1423.000000;1.006712
1422.000000;1.008132
1421.000000;1.009767
1420.000000;1.011280
1419.000000;1.012348
1418.000000;1.012786
1417.000000;1.012594
1416.000000;1.012082
1415.000000;1.011863
1414.000000;1.012506
1413.000000;1.014011
1412.000000;1.015697
1411.000000;1.016763
1410.000000;1.016946
1409.000000;1.016573
1408.000000;1.016153
1407.000000;1.016116
1406.000000;1.016751
1405.000000;1.018084
1404.000000;1.019732
1403.000000;1.021127
1402.000000;1.021975
1401.000000;1.022388
1400.000000;1.022582
1399.000000;1.022647
1398.000000;1.022664
1397.000000;1.022811
1396.000000;1.023193
1395.000000;1.023732
1394.000000;1.024373
1393.000000;1.025206
1392.000000;1.026214
1391.000000;1.027106
1390.000000;1.027653
1389.000000;1.028049
1388.000000;1.028660
1387.000000;1.029460
1386.000000;1.030023
1385.000000;1.030111
1384.000000;1.029995
1383.000000;1.030090
1382.000000;1.030525
1381.000000;1.031205
1380.000000;1.032080
1379.000000;1.033119
1378.000000;1.034128
1377.000000;1.034836
1376.000000;1.035193
1375.000000;1.035392
1374.000000;1.035603
1373.000000;1.035860
1372.000000;1.036222
1371.000000;1.036852
1370.000000;1.037796
1369.000000;1.038781
1368.000000;1.039357
1367.000000;1.039334
1366.000000;1.039009
1365.000000;1.038912
1364.000000;1.039366
1363.000000;1.040298
1362.000000;1.041425
1361.000000;1.042522
1360.000000;1.043481
1359.000000;1.044263
1358.000000;1.044914
1357.000000;1.045546
1356.000000;1.046180
1355.000000;1.046660
1354.000000;1.046832
1353.000000;1.046766
1352.000000;1.046686
1351.000000;1.046736
1350.000000;1.046992
1349.000000;1.047637
1348.000000;1.048835
1347.000000;1.050362
1346.000000;1.051658
1345.000000;1.052408
1344.000000;1.052827
1343.000000;1.053161
1342.000000;1.053182
1341.000000;1.052597
1340.000000;1.051820
1339.000000;1.051873
1338.000000;1.053368
1337.000000;1.055825
1336.000000;1.058092
1335.000000;1.059329
1334.000000;1.059508
1333.000000;1.059226
1332.000000;1.059193
1331.000000;1.059777
1330.000000;1.060789
1329.000000;1.061748
1328.000000;1.062443
1327.000000;1.063095
1326.000000;1.063857
1325.000000;1.064417
1324.000000;1.064405
1323.000000;1.064047
1322.000000;1.063977
1321.000000;1.064374
1320.000000;1.064650
1319.000000;1.064200
1318.000000;1.063199
1317.000000;1.062405
1316.000000;1.062389
1315.000000;1.063211
1314.000000;1.064665
1313.000000;1.066445
1312.000000;1.068081
1311.000000;1.069113
1310.000000;1.069526
1309.000000;1.069770
1308.000000;1.070201
1307.000000;1.070722
1306.000000;1.071127
1305.000000;1.071510
1304.000000;1.072092
1303.000000;1.072830
1302.000000;1.073476
1301.000000;1.074001
1300.000000;1.074634
1299.000000;1.075398
1298.000000;1.075893
1297.000000;1.075766
1296.000000;1.075254
1295.000000;1.075057
1294.000000;1.075672
1293.000000;1.076941
1292.000000;1.078275
1291.000000;1.079256
1290.000000;1.079953
1289.000000;1.080601
1288.000000;1.081120
1287.000000;1.081183
1286.000000;1.080825
1285.000000;1.080706
1284.000000;1.081461
1283.000000;1.082904
1282.000000;1.084153
1281.000000;1.084587
1280.000000;1.084416
1279.000000;1.084267
1278.000000;1.084543
1277.000000;1.085307
1276.000000;1.086472
1275.000000;1.087847
1274.000000;1.089166
1273.000000;1.090280
1272.000000;1.091213
1271.000000;1.091947
1270.000000;1.092349
1269.000000;1.092469
1268.000000;1.092673
1267.000000;1.093205
1266.000000;1.093833
1265.000000;1.094224
1264.000000;1.094500
1263.000000;1.095028
1262.000000;1.095790
1261.000000;1.096381
1260.000000;1.096652
1259.000000;1.096948
1258.000000;1.097575
1257.000000;1.098368
1256.000000;1.098951
1255.000000;1.099183
1254.000000;1.099234
1253.000000;1.099405
1252.000000;1.099983
1251.000000;1.101020
1250.000000;1.102113
1249.000000;1.102634
1248.000000;1.102387
1247.000000;1.101875
1246.000000;1.101767
1245.000000;1.102222
1244.000000;1.102891
1243.000000;1.103453
1242.000000;1.103936
1241.000000;1.104533
1240.000000;1.105272
1239.000000;1.105939
1238.000000;1.106325
1237.000000;1.106510
1236.000000;1.106809
1235.000000;1.107393
1234.000000;1.108077
1233.000000;1.108630
1232.000000;1.109144
1231.000000;1.109861
1230.000000;1.110703
1229.000000;1.111328
1228.000000;1.111643
1227.000000;1.111932
1226.000000;1.112411
1225.000000;1.113007
1224.000000;1.113702
1223.000000;1.114662
1222.000000;1.115757
1221.000000;1.116366
1220.000000;1.116104
1219.000000;1.115500
1218.000000;1.115478
1217.000000;1.116296
1216.000000;1.117446
1215.000000;1.118522
1214.000000;1.119654
1213.000000;1.120955
1212.000000;1.122029
1211.000000;1.122403
1210.000000;1.122223
1209.000000;1.122153
1208.000000;1.122623
1207.000000;1.123392
1206.000000;1.123889
1205.000000;1.123841
1204.000000;1.123512
1203.000000;1.123371
1202.000000;1.123618
1201.000000;1.124066
1200.000000;1.124463
