Criado como novo conjunto de dados;"0307_DANIEL.spp","49684.9 Secs"
cm-1;Abs
10000.000000;0.557485
9999.000000;0.556160
9998.000000;0.554581
9997.000000;0.553054
9996.000000;0.551929
9995.000000;0.551272
9994.000000;0.550888
9993.000000;0.550385
9992.000000;0.549522
9991.000000;0.548350
9990.000000;0.547075
9989.000000;0.545771
9988.000000;0.544384
9987.000000;0.542957
9986.000000;0.541698
9985.000000;0.540742
9984.000000;0.539962
9983.000000;0.539105
9982.000000;0.538053
9981.000000;0.536894
9980.000000;0.535767
9979.000000;0.534702
9978.000000;0.533593
9977.000000;0.532347
9976.000000;0.531030
9975.000000;0.529848
9974.000000;0.528936
9973.000000;0.528183
9972.000000;0.527329
9971.000000;0.526221
9970.000000;0.524911
9969.000000;0.523526
9968.000000;0.522122
9967.000000;0.520698
9966.000000;0.519282
9965.000000;0.517934
9964.000000;0.516702
9963.000000;0.515579
9962.000000;0.514492
9961.000000;0.513343
9960.000000;0.512104
9959.000000;0.510853
9958.000000;0.509691
9957.000000;0.508603
9956.000000;0.507488
9955.000000;0.506320
9954.000000;0.505203
9953.000000;0.504216
9952.000000;0.503286
9951.000000;0.502262
9950.000000;0.501084
9949.000000;0.499816
9948.000000;0.498547
9947.000000;0.497313
9946.000000;0.496100
9945.000000;0.494883
9944.000000;0.493655
9943.000000;0.492443
9942.000000;0.491290
9941.000000;0.490192
9940.000000;0.489079
9939.000000;0.487893
9938.000000;0.486671
9937.000000;0.485500
9936.000000;0.484398
9935.000000;0.483276
9934.000000;0.482027
9933.000000;0.480622
9932.000000;0.479128
9931.000000;0.477662
9930.000000;0.476344
9929.000000;0.475260
9928.000000;0.474397
9927.000000;0.473598
9926.000000;0.472625
9925.000000;0.471309
9924.000000;0.469688
9923.000000;0.467983
9922.000000;0.466439
9921.000000;0.465186
9920.000000;0.464226
9919.000000;0.463481
9918.000000;0.462786
9917.000000;0.461887
9916.000000;0.460580
9915.000000;0.458919
9914.000000;0.457246
9913.000000;0.455900
9912.000000;0.454903
9911.000000;0.453961
9910.000000;0.452765
9909.000000;0.451268
9908.000000;0.449671
9907.000000;0.448201
9906.000000;0.446928
9905.000000;0.445755
9904.000000;0.444537
9903.000000;0.443239
9902.000000;0.441969
9901.000000;0.440838
9900.000000;0.439798
9899.000000;0.438675
9898.000000;0.437395
9897.000000;0.436077
9896.000000;0.434861
9895.000000;0.433696
9894.000000;0.432414
9893.000000;0.430976
9892.000000;0.429528
9891.000000;0.428194
9890.000000;0.426913
9889.000000;0.425539
9888.000000;0.424041
9887.000000;0.422530
9886.000000;0.421139
9885.000000;0.419905
9884.000000;0.418763
9883.000000;0.417590
9882.000000;0.416307
9881.000000;0.414965
9880.000000;0.413709
9879.000000;0.412606
9878.000000;0.411546
9877.000000;0.410339
9876.000000;0.408919
9875.000000;0.407394
9874.000000;0.405907
9873.000000;0.404514
9872.000000;0.403178
9871.000000;0.401845
9870.000000;0.400497
9869.000000;0.399160
9868.000000;0.397876
9867.000000;0.396615
9866.000000;0.395259
9865.000000;0.393706
9864.000000;0.392013
9863.000000;0.390384
9862.000000;0.388997
9861.000000;0.387850
9860.000000;0.386791
9859.000000;0.385658
9858.000000;0.384373
9857.000000;0.382967
9856.000000;0.381522
9855.000000;0.380099
9854.000000;0.378682
9853.000000;0.377213
9852.000000;0.375676
9851.000000;0.374122
9850.000000;0.372610
9849.000000;0.371151
9848.000000;0.369729
9847.000000;0.368356
9846.000000;0.367072
9845.000000;0.365885
9844.000000;0.364734
9843.000000;0.363509
9842.000000;0.362132
9841.000000;0.360622
9840.000000;0.359085
9839.000000;0.357631
9838.000000;0.356279
9837.000000;0.354955
9836.000000;0.353552
9835.000000;0.352016
9834.000000;0.350391
9833.000000;0.348801
9832.000000;0.347353
9831.000000;0.346024
9830.000000;0.344695
9829.000000;0.343303
9828.000000;0.341933
9827.000000;0.340675
9826.000000;0.339439
9825.000000;0.338012
9824.000000;0.336302
9823.000000;0.334463
9822.000000;0.332735
9821.000000;0.331227
9820.000000;0.329888
9819.000000;0.328612
9818.000000;0.327308
9817.000000;0.325904
9816.000000;0.324380
9815.000000;0.322793
9814.000000;0.321252
9813.000000;0.319841
9812.000000;0.318556
9811.000000;0.317292
9810.000000;0.315893
9809.000000;0.314279
9808.000000;0.312543
9807.000000;0.310892
9806.000000;0.309429
9805.000000;0.308055
9804.000000;0.306589
9803.000000;0.304948
9802.000000;0.303178
9801.000000;0.301354
9800.000000;0.299561
9799.000000;0.297908
9798.000000;0.296462
9797.000000;0.295155
9796.000000;0.293836
9795.000000;0.292440
9794.000000;0.291025
9793.000000;0.289618
9792.000000;0.288149
9791.000000;0.286580
9790.000000;0.285026
9789.000000;0.283628
9788.000000;0.282363
9787.000000;0.281080
9786.000000;0.279704
9785.000000;0.278292
9784.000000;0.276872
9783.000000;0.275337
9782.000000;0.273573
9781.000000;0.271609
9780.000000;0.269577
9779.000000;0.267582
9778.000000;0.265668
9777.000000;0.263878
9776.000000;0.262240
9775.000000;0.260716
9774.000000;0.259214
9773.000000;0.257680
9772.000000;0.256131
9771.000000;0.254584
9770.000000;0.253003
9769.000000;0.251350
9768.000000;0.249635
9767.000000;0.247927
9766.000000;0.246304
9765.000000;0.244821
9764.000000;0.243456
9763.000000;0.242090
9762.000000;0.240579
9761.000000;0.238867
9760.000000;0.237004
9759.000000;0.235044
9758.000000;0.233023
9757.000000;0.231031
9756.000000;0.229238
9755.000000;0.227732
9754.000000;0.226383
9753.000000;0.224927
9752.000000;0.223214
9751.000000;0.221319
9750.000000;0.219452
9749.000000;0.217791
9748.000000;0.216387
9747.000000;0.215140
9746.000000;0.213842
9745.000000;0.212310
9744.000000;0.210493
9743.000000;0.208478
9742.000000;0.206401
9741.000000;0.204404
9740.000000;0.202614
9739.000000;0.201059
9738.000000;0.199582
9737.000000;0.197950
9736.000000;0.196096
9735.000000;0.194203
9734.000000;0.192470
9733.000000;0.190856
9732.000000;0.189139
9731.000000;0.187183
9730.000000;0.185090
9729.000000;0.183078
9728.000000;0.181303
9727.000000;0.179806
9726.000000;0.178525
9725.000000;0.177296
9724.000000;0.175874
9723.000000;0.174063
9722.000000;0.171864
9721.000000;0.169488
9720.000000;0.167224
9719.000000;0.165258
9718.000000;0.163591
9717.000000;0.162072
9716.000000;0.160512
9715.000000;0.158827
9714.000000;0.157078
9713.000000;0.155344
9712.000000;0.153582
9711.000000;0.151665
9710.000000;0.149579
9709.000000;0.147495
9708.000000;0.145600
9707.000000;0.143899
9706.000000;0.142233
9705.000000;0.140458
9704.000000;0.138524
9703.000000;0.136434
9702.000000;0.134250
9701.000000;0.132138
9700.000000;0.130277
9699.000000;0.128675
9698.000000;0.127146
9697.000000;0.125507
9696.000000;0.123734
9695.000000;0.121891
9694.000000;0.119999
9693.000000;0.118056
9692.000000;0.116091
9691.000000;0.114138
9690.000000;0.112176
9689.000000;0.110202
9688.000000;0.108291
9687.000000;0.106508
9686.000000;0.104796
9685.000000;0.103040
9684.000000;0.101216
9683.000000;0.099385
9682.000000;0.097542
9681.000000;0.095575
9680.000000;0.093404
9679.000000;0.091100
9678.000000;0.088846
9677.000000;0.086813
9676.000000;0.085032
9675.000000;0.083351
9674.000000;0.081532
9673.000000;0.079469
9672.000000;0.077295
9671.000000;0.075215
9670.000000;0.073259
9669.000000;0.071295
9668.000000;0.069236
9667.000000;0.067125
9666.000000;0.065007
9665.000000;0.062865
9664.000000;0.060736
9663.000000;0.058753
9662.000000;0.056968
9661.000000;0.055225
9660.000000;0.053313
9659.000000;0.051201
9658.000000;0.049039
9657.000000;0.046948
9656.000000;0.044903
9655.000000;0.042822
9654.000000;0.040687
9653.000000;0.038566
9652.000000;0.036537
9651.000000;0.034611
9650.000000;0.032709
9649.000000;0.030732
9648.000000;0.028659
9647.000000;0.026558
9646.000000;0.024488
9645.000000;0.022443
9644.000000;0.020400
9643.000000;0.018359
9642.000000;0.016289
9641.000000;0.014102
9640.000000;0.011756
9639.000000;0.009366
9638.000000;0.007094
9637.000000;0.004955
9636.000000;0.002810
9635.000000;0.000566
9634.000000;-0.001713
9633.000000;-0.003905
9632.000000;-0.005982
9631.000000;-0.007991
9630.000000;-0.009946
9629.000000;-0.011809
9628.000000;-0.013604
9627.000000;-0.015476
9626.000000;-0.017599
9625.000000;-0.019999
9624.000000;-0.022478
9623.000000;-0.024757
9622.000000;-0.026722
9621.000000;-0.028535
9620.000000;-0.030488
9619.000000;-0.032742
9618.000000;-0.035238
9617.000000;-0.037815
9616.000000;-0.040350
9615.000000;-0.042754
9614.000000;-0.044935
9613.000000;-0.046874
9612.000000;-0.048728
9611.000000;-0.050748
9610.000000;-0.053037
9609.000000;-0.055444
9608.000000;-0.057742
9607.000000;-0.059870
9606.000000;-0.061939
9605.000000;-0.064039
9604.000000;-0.066155
9603.000000;-0.068296
9602.000000;-0.070575
9601.000000;-0.073068
9600.000000;-0.075652
9599.000000;-0.078086
9598.000000;-0.080258
9597.000000;-0.082268
9596.000000;-0.084277
9595.000000;-0.086355
9594.000000;-0.088510
9593.000000;-0.090780
9592.000000;-0.093193
9591.000000;-0.095674
9590.000000;-0.098080
9589.000000;-0.100344
9588.000000;-0.102528
9587.000000;-0.104724
9586.000000;-0.106961
9585.000000;-0.109217
9584.000000;-0.111484
9583.000000;-0.113759
9582.000000;-0.116015
9581.000000;-0.118218
9580.000000;-0.120361
9579.000000;-0.122454
9578.000000;-0.124506
9577.000000;-0.126581
9576.000000;-0.128817
9575.000000;-0.131301
9574.000000;-0.133922
9573.000000;-0.136438
9572.000000;-0.138732
9571.000000;-0.140927
9570.000000;-0.143184
9569.000000;-0.145487
9568.000000;-0.147720
9567.000000;-0.149879
9566.000000;-0.152057
9565.000000;-0.154256
9564.000000;-0.156376
9563.000000;-0.158420
9562.000000;-0.160573
9561.000000;-0.162978
9560.000000;-0.165542
9559.000000;-0.168053
9558.000000;-0.170421
9557.000000;-0.172696
9556.000000;-0.174923
9555.000000;-0.177108
9554.000000;-0.179288
9553.000000;-0.181503
9552.000000;-0.183699
9551.000000;-0.185777
9550.000000;-0.187750
9549.000000;-0.189756
9548.000000;-0.191872
9547.000000;-0.194033
9546.000000;-0.196186
9545.000000;-0.198397
9544.000000;-0.200721
9543.000000;-0.203028
9542.000000;-0.205116
9541.000000;-0.206971
9540.000000;-0.208813
9539.000000;-0.210862
9538.000000;-0.213137
9537.000000;-0.215512
9536.000000;-0.217899
9535.000000;-0.220298
9534.000000;-0.222713
9533.000000;-0.225073
9532.000000;-0.227267
9531.000000;-0.229239
9530.000000;-0.231039
9529.000000;-0.232795
9528.000000;-0.234617
9527.000000;-0.236513
9526.000000;-0.238410
9525.000000;-0.240249
9524.000000;-0.242078
9523.000000;-0.244014
9522.000000;-0.246120
9521.000000;-0.248318
9520.000000;-0.250444
9519.000000;-0.252399
9518.000000;-0.254226
9517.000000;-0.256034
9516.000000;-0.257859
9515.000000;-0.259626
9514.000000;-0.261258
9513.000000;-0.262814
9512.000000;-0.264463
9511.000000;-0.266313
9510.000000;-0.268290
9509.000000;-0.270219
9508.000000;-0.272014
9507.000000;-0.273723
9506.000000;-0.275414
9505.000000;-0.277086
9504.000000;-0.278723
9503.000000;-0.280355
9502.000000;-0.282018
9501.000000;-0.283681
9500.000000;-0.285301
9499.000000;-0.286899
9498.000000;-0.288518
9497.000000;-0.290117
9496.000000;-0.291605
9495.000000;-0.292986
9494.000000;-0.294375
9493.000000;-0.295844
9492.000000;-0.297334
9491.000000;-0.298782
9490.000000;-0.300234
9489.000000;-0.301736
9488.000000;-0.303176
9487.000000;-0.304356
9486.000000;-0.305227
9485.000000;-0.305989
9484.000000;-0.306919
9483.000000;-0.308164
9482.000000;-0.309664
9481.000000;-0.311217
9480.000000;-0.312589
9479.000000;-0.313649
9478.000000;-0.314433
9477.000000;-0.315087
9476.000000;-0.315739
9475.000000;-0.316461
9474.000000;-0.317309
9473.000000;-0.318311
9472.000000;-0.319385
9471.000000;-0.320367
9470.000000;-0.321174
9469.000000;-0.321909
9468.000000;-0.322746
9467.000000;-0.323755
9466.000000;-0.324840
9465.000000;-0.325817
9464.000000;-0.326524
9463.000000;-0.326914
9462.000000;-0.327119
9461.000000;-0.327379
9460.000000;-0.327844
9459.000000;-0.328453
9458.000000;-0.329038
9457.000000;-0.329541
9456.000000;-0.330047
9455.000000;-0.330612
9454.000000;-0.331136
9453.000000;-0.331444
9452.000000;-0.331495
9451.000000;-0.331464
9450.000000;-0.331611
9449.000000;-0.332026
9448.000000;-0.332505
9447.000000;-0.332736
9446.000000;-0.332625
9445.000000;-0.332383
9444.000000;-0.332261
9443.000000;-0.332284
9442.000000;-0.332334
9441.000000;-0.332390
9440.000000;-0.332537
9439.000000;-0.332754
9438.000000;-0.332864
9437.000000;-0.332749
9436.000000;-0.332495
9435.000000;-0.332229
9434.000000;-0.331934
9433.000000;-0.331519
9432.000000;-0.331009
9431.000000;-0.330560
9430.000000;-0.330292
9429.000000;-0.330180
9428.000000;-0.330095
9427.000000;-0.329898
9426.000000;-0.329517
9425.000000;-0.329002
9424.000000;-0.328484
9423.000000;-0.328039
9422.000000;-0.327610
9421.000000;-0.327095
9420.000000;-0.326465
9419.000000;-0.325744
9418.000000;-0.324946
9417.000000;-0.324122
9416.000000;-0.323430
9415.000000;-0.323019
9414.000000;-0.322802
9413.000000;-0.322471
9412.000000;-0.321791
9411.000000;-0.320831
9410.000000;-0.319861
9409.000000;-0.319090
9408.000000;-0.318532
9407.000000;-0.318052
9406.000000;-0.317479
9405.000000;-0.316698
9404.000000;-0.315738
9403.000000;-0.314751
9402.000000;-0.313871
9401.000000;-0.313068
9400.000000;-0.312189
9399.000000;-0.311160
9398.000000;-0.310092
9397.000000;-0.309175
9396.000000;-0.308468
9395.000000;-0.307833
9394.000000;-0.307062
9393.000000;-0.306052
9392.000000;-0.304868
9391.000000;-0.303660
9390.000000;-0.302542
9389.000000;-0.301549
9388.000000;-0.300639
9387.000000;-0.299715
9386.000000;-0.298669
9385.000000;-0.297459
9384.000000;-0.296167
9383.000000;-0.294947
9382.000000;-0.293885
9381.000000;-0.292912
9380.000000;-0.291872
9379.000000;-0.290670
9378.000000;-0.289356
9377.000000;-0.288060
9376.000000;-0.286865
9375.000000;-0.285746
9374.000000;-0.284614
9373.000000;-0.283425
9372.000000;-0.282207
9371.000000;-0.281012
9370.000000;-0.279867
9369.000000;-0.278773
9368.000000;-0.277718
9367.000000;-0.276661
9366.000000;-0.275546
9365.000000;-0.274355
9364.000000;-0.273142
9363.000000;-0.271958
9362.000000;-0.270769
9361.000000;-0.269485
9360.000000;-0.268094
9359.000000;-0.266707
9358.000000;-0.265451
9357.000000;-0.264344
9356.000000;-0.263269
9355.000000;-0.262082
9354.000000;-0.260724
9353.000000;-0.259270
9352.000000;-0.257886
9351.000000;-0.256692
9350.000000;-0.255673
9349.000000;-0.254697
9348.000000;-0.253652
9347.000000;-0.252514
9346.000000;-0.251318
9345.000000;-0.250072
9344.000000;-0.248748
9343.000000;-0.247327
9342.000000;-0.245830
9341.000000;-0.244323
9340.000000;-0.242902
9339.000000;-0.241638
9338.000000;-0.240517
9337.000000;-0.239456
9336.000000;-0.238393
9335.000000;-0.237337
9334.000000;-0.236280
9333.000000;-0.235139
9332.000000;-0.233834
9331.000000;-0.232452
9330.000000;-0.231206
9329.000000;-0.230202
9328.000000;-0.229303
9327.000000;-0.228264
9326.000000;-0.226991
9325.000000;-0.225609
9324.000000;-0.224272
9323.000000;-0.222987
9322.000000;-0.221654
9321.000000;-0.220241
9320.000000;-0.218861
9319.000000;-0.217646
9318.000000;-0.216579
9317.000000;-0.215508
9316.000000;-0.214330
9315.000000;-0.213096
9314.000000;-0.211924
9313.000000;-0.210838
9312.000000;-0.209750
9311.000000;-0.208586
9310.000000;-0.207361
9309.000000;-0.206125
9308.000000;-0.204891
9307.000000;-0.203653
9306.000000;-0.202405
9305.000000;-0.201130
9304.000000;-0.199802
9303.000000;-0.198451
9302.000000;-0.197193
9301.000000;-0.196127
9300.000000;-0.195209
9299.000000;-0.194279
9298.000000;-0.193195
9297.000000;-0.191913
9296.000000;-0.190480
9295.000000;-0.189009
9294.000000;-0.187640
9293.000000;-0.186444
9292.000000;-0.185344
9291.000000;-0.184203
9290.000000;-0.183021
9289.000000;-0.181948
9288.000000;-0.181089
9287.000000;-0.180328
9286.000000;-0.179445
9285.000000;-0.178328
9284.000000;-0.177030
9283.000000;-0.175657
9282.000000;-0.174294
9281.000000;-0.173023
9280.000000;-0.171903
9279.000000;-0.170901
9278.000000;-0.169913
9277.000000;-0.168893
9276.000000;-0.167901
9275.000000;-0.166988
9274.000000;-0.166083
9273.000000;-0.165065
9272.000000;-0.163925
9271.000000;-0.162776
9270.000000;-0.161719
9269.000000;-0.160757
9268.000000;-0.159831
9267.000000;-0.158890
9266.000000;-0.157890
9265.000000;-0.156800
9264.000000;-0.155658
9263.000000;-0.154580
9262.000000;-0.153648
9261.000000;-0.152790
9260.000000;-0.151846
9259.000000;-0.150774
9258.000000;-0.149704
9257.000000;-0.148764
9256.000000;-0.147913
9255.000000;-0.147020
9254.000000;-0.146060
9253.000000;-0.145123
9252.000000;-0.144209
9251.000000;-0.143163
9250.000000;-0.141867
9249.000000;-0.140442
9248.000000;-0.139165
9247.000000;-0.138195
9246.000000;-0.137456
9245.000000;-0.136770
9244.000000;-0.136027
9243.000000;-0.135207
9242.000000;-0.134315
9241.000000;-0.133343
9240.000000;-0.132288
9239.000000;-0.131172
9238.000000;-0.130053
9237.000000;-0.129022
9236.000000;-0.128146
9235.000000;-0.127407
9234.000000;-0.126706
9233.000000;-0.125949
9232.000000;-0.125112
9231.000000;-0.124226
9230.000000;-0.123329
9229.000000;-0.122450
9228.000000;-0.121616
9227.000000;-0.120846
9226.000000;-0.120120
9225.000000;-0.119393
9224.000000;-0.118604
9223.000000;-0.117697
9222.000000;-0.116659
9221.000000;-0.115572
9220.000000;-0.114591
9219.000000;-0.113818
9218.000000;-0.113186
9217.000000;-0.112520
9216.000000;-0.111707
9215.000000;-0.110773
9214.000000;-0.109813
9213.000000;-0.108887
9212.000000;-0.108020
9211.000000;-0.107239
9210.000000;-0.106544
9209.000000;-0.105867
9208.000000;-0.105102
9207.000000;-0.104208
9206.000000;-0.103254
9205.000000;-0.102349
9204.000000;-0.101521
9203.000000;-0.100712
9202.000000;-0.099875
9201.000000;-0.099062
9200.000000;-0.098341
9199.000000;-0.097667
9198.000000;-0.096867
9197.000000;-0.095839
9196.000000;-0.094710
9195.000000;-0.093734
9194.000000;-0.093034
9193.000000;-0.092494
9192.000000;-0.091947
9191.000000;-0.091376
9190.000000;-0.090875
9189.000000;-0.090461
9188.000000;-0.090014
9187.000000;-0.089399
9186.000000;-0.088595
9185.000000;-0.087681
9184.000000;-0.086750
9183.000000;-0.085868
9182.000000;-0.085061
9181.000000;-0.084309
9180.000000;-0.083567
9179.000000;-0.082817
9178.000000;-0.082100
9177.000000;-0.081468
9176.000000;-0.080926
9175.000000;-0.080418
9174.000000;-0.079875
9173.000000;-0.079252
9172.000000;-0.078547
9171.000000;-0.077794
9170.000000;-0.077043
9169.000000;-0.076320
9168.000000;-0.075614
9167.000000;-0.074907
9166.000000;-0.074220
9165.000000;-0.073598
9164.000000;-0.073056
9163.000000;-0.072542
9162.000000;-0.071972
9161.000000;-0.071301
9160.000000;-0.070558
9159.000000;-0.069805
9158.000000;-0.069082
9157.000000;-0.068379
9156.000000;-0.067675
9155.000000;-0.066985
9154.000000;-0.066371
9153.000000;-0.065876
9152.000000;-0.065461
9151.000000;-0.064998
9150.000000;-0.064372
9149.000000;-0.063597
9148.000000;-0.062836
9147.000000;-0.062251
9146.000000;-0.061839
9145.000000;-0.061427
9144.000000;-0.060853
9143.000000;-0.060129
9142.000000;-0.059406
9141.000000;-0.058805
9140.000000;-0.058337
9139.000000;-0.057952
9138.000000;-0.057611
9137.000000;-0.057262
9136.000000;-0.056831
9135.000000;-0.056269
9134.000000;-0.055617
9133.000000;-0.054964
9132.000000;-0.054357
9131.000000;-0.053768
9130.000000;-0.053140
9129.000000;-0.052446
9128.000000;-0.051709
9127.000000;-0.050994
9126.000000;-0.050404
9125.000000;-0.050024
9124.000000;-0.049836
9123.000000;-0.049672
9122.000000;-0.049304
9121.000000;-0.048644
9120.000000;-0.047855
9119.000000;-0.047219
9118.000000;-0.046862
9117.000000;-0.046629
9116.000000;-0.046278
9115.000000;-0.045765
9114.000000;-0.045255
9113.000000;-0.044862
9112.000000;-0.044481
9111.000000;-0.043936
9110.000000;-0.043228
9109.000000;-0.042550
9108.000000;-0.042075
9107.000000;-0.041790
9106.000000;-0.041538
9105.000000;-0.041165
9104.000000;-0.040611
9103.000000;-0.039931
9102.000000;-0.039255
9101.000000;-0.038709
9100.000000;-0.038326
9099.000000;-0.038026
9098.000000;-0.037688
9097.000000;-0.037249
9096.000000;-0.036740
9095.000000;-0.036249
9094.000000;-0.035836
9093.000000;-0.035481
9092.000000;-0.035115
9091.000000;-0.034698
9090.000000;-0.034263
9089.000000;-0.033854
9088.000000;-0.033458
9087.000000;-0.033027
9086.000000;-0.032567
9085.000000;-0.032151
9084.000000;-0.031830
9083.000000;-0.031565
9082.000000;-0.031265
9081.000000;-0.030888
9080.000000;-0.030457
9079.000000;-0.030015
9078.000000;-0.029568
9077.000000;-0.029098
9076.000000;-0.028601
9075.000000;-0.028097
9074.000000;-0.027611
9073.000000;-0.027166
9072.000000;-0.026783
9071.000000;-0.026482
9070.000000;-0.026241
9069.000000;-0.025971
9068.000000;-0.025574
9067.000000;-0.025053
9066.000000;-0.024539
9065.000000;-0.024170
9064.000000;-0.023952
9063.000000;-0.023766
9062.000000;-0.023506
9061.000000;-0.023179
9060.000000;-0.022864
9059.000000;-0.022609
9058.000000;-0.022375
9057.000000;-0.022080
9056.000000;-0.021671
9055.000000;-0.021180
9054.000000;-0.020714
9053.000000;-0.020387
9052.000000;-0.020226
9051.000000;-0.020137
9050.000000;-0.019973
9049.000000;-0.019657
9048.000000;-0.019249
9047.000000;-0.018881
9046.000000;-0.018618
9045.000000;-0.018400
9044.000000;-0.018117
9043.000000;-0.017739
9042.000000;-0.017333
9041.000000;-0.016960
9040.000000;-0.016601
9039.000000;-0.016221
9038.000000;-0.015852
9037.000000;-0.015574
9036.000000;-0.015400
9035.000000;-0.015237
9034.000000;-0.014979
9033.000000;-0.014622
9032.000000;-0.014258
9031.000000;-0.013967
9030.000000;-0.013736
9029.000000;-0.013485
9028.000000;-0.013177
9027.000000;-0.012853
9026.000000;-0.012580
9025.000000;-0.012363
9024.000000;-0.012158
9023.000000;-0.011940
9022.000000;-0.011739
9021.000000;-0.011580
9020.000000;-0.011450
9019.000000;-0.011321
9018.000000;-0.011165
9017.000000;-0.010936
9016.000000;-0.010590
9015.000000;-0.010157
9014.000000;-0.009767
9013.000000;-0.009546
9012.000000;-0.009481
9011.000000;-0.009424
9010.000000;-0.009242
9009.000000;-0.008933
9008.000000;-0.008598
9007.000000;-0.008337
9006.000000;-0.008164
9005.000000;-0.008003
9004.000000;-0.007771
9003.000000;-0.007466
9002.000000;-0.007162
9001.000000;-0.006914
9000.000000;-0.006696
8999.000000;-0.006469
8998.000000;-0.006258
8997.000000;-0.006120
8996.000000;-0.006058
8995.000000;-0.006012
8994.000000;-0.005926
8993.000000;-0.005771
8992.000000;-0.005528
8991.000000;-0.005213
8990.000000;-0.004918
8989.000000;-0.004742
8988.000000;-0.004669
8987.000000;-0.004570
8986.000000;-0.004360
8985.000000;-0.004102
8984.000000;-0.003917
8983.000000;-0.003831
8982.000000;-0.003747
8981.000000;-0.003554
8980.000000;-0.003241
8979.000000;-0.002913
8978.000000;-0.002703
8977.000000;-0.002654
8976.000000;-0.002674
8975.000000;-0.002626
8974.000000;-0.002470
8973.000000;-0.002281
8972.000000;-0.002133
8971.000000;-0.002029
8970.000000;-0.001943
8969.000000;-0.001869
8968.000000;-0.001790
8967.000000;-0.001637
8966.000000;-0.001357
8965.000000;-0.000999
8964.000000;-0.000683
8963.000000;-0.000494
8962.000000;-0.000425
8961.000000;-0.000399
8960.000000;-0.000318
8959.000000;-0.000110
8958.000000;0.000216
8957.000000;0.000557
8956.000000;0.000791
8955.000000;0.000883
8954.000000;0.000897
8953.000000;0.000903
8952.000000;0.000922
8951.000000;0.000946
8950.000000;0.000975
8949.000000;0.000998
8948.000000;0.000986
8947.000000;0.000944
8946.000000;0.000950
8945.000000;0.001104
8944.000000;0.001433
8943.000000;0.001839
8942.000000;0.002173
8941.000000;0.002341
8940.000000;0.002366
8939.000000;0.002353
8938.000000;0.002407
8937.000000;0.002558
8936.000000;0.002745
8935.000000;0.002874
8934.000000;0.002907
8933.000000;0.002886
8932.000000;0.002866
8931.000000;0.002863
8930.000000;0.002868
8929.000000;0.002912
8928.000000;0.003039
8927.000000;0.003228
8926.000000;0.003380
8925.000000;0.003440
8924.000000;0.003464
8923.000000;0.003547
8922.000000;0.003703
8921.000000;0.003876
8920.000000;0.004038
8919.000000;0.004199
8918.000000;0.004320
8917.000000;0.004318
8916.000000;0.004194
8915.000000;0.004090
8914.000000;0.004155
8913.000000;0.004384
8912.000000;0.004643
8911.000000;0.004826
8910.000000;0.004942
8909.000000;0.005057
8908.000000;0.005203
8907.000000;0.005355
8906.000000;0.005443
8905.000000;0.005402
8904.000000;0.005230
8903.000000;0.005022
8902.000000;0.004918
8901.000000;0.005003
8900.000000;0.005247
8899.000000;0.005521
8898.000000;0.005675
8897.000000;0.005625
8896.000000;0.005419
8895.000000;0.005220
8894.000000;0.005188
8893.000000;0.005341
8892.000000;0.005555
8891.000000;0.005686
8890.000000;0.005698
8889.000000;0.005666
8888.000000;0.005706
8887.000000;0.005896
8886.000000;0.006228
8885.000000;0.006580
8884.000000;0.006773
8883.000000;0.006707
8882.000000;0.006470
8881.000000;0.006269
8880.000000;0.006232
8879.000000;0.006295
8878.000000;0.006297
8877.000000;0.006155
8876.000000;0.005931
8875.000000;0.005747
8874.000000;0.005687
8873.000000;0.005765
8872.000000;0.005938
8871.000000;0.006125
8870.000000;0.006260
8869.000000;0.006356
8868.000000;0.006478
8867.000000;0.006635
8866.000000;0.006746
8865.000000;0.006737
8864.000000;0.006646
8863.000000;0.006569
8862.000000;0.006528
8861.000000;0.006477
8860.000000;0.006414
8859.000000;0.006421
8858.000000;0.006540
8857.000000;0.006690
8856.000000;0.006768
8855.000000;0.006783
8854.000000;0.006826
8853.000000;0.006924
8852.000000;0.006989
8851.000000;0.006927
8850.000000;0.006746
8849.000000;0.006538
8848.000000;0.006393
8847.000000;0.006351
8846.000000;0.006401
8845.000000;0.006496
8844.000000;0.006581
8843.000000;0.006626
8842.000000;0.006636
8841.000000;0.006628
8840.000000;0.006616
8839.000000;0.006636
8838.000000;0.006741
8837.000000;0.006932
8836.000000;0.007113
8835.000000;0.007162
8834.000000;0.007060
8833.000000;0.006923
8832.000000;0.006865
8831.000000;0.006886
8830.000000;0.006898
8829.000000;0.006854
8828.000000;0.006792
8827.000000;0.006777
8826.000000;0.006830
8825.000000;0.006935
8824.000000;0.007061
8823.000000;0.007179
8822.000000;0.007275
8821.000000;0.007362
8820.000000;0.007471
8819.000000;0.007605
8818.000000;0.007730
8817.000000;0.007817
8816.000000;0.007894
8815.000000;0.008041
8814.000000;0.008322
8813.000000;0.008717
8812.000000;0.009093
8811.000000;0.009261
8810.000000;0.009108
8809.000000;0.008706
8808.000000;0.008273
8807.000000;0.008000
8806.000000;0.007937
8805.000000;0.008048
8804.000000;0.008292
8803.000000;0.008604
8802.000000;0.008845
8801.000000;0.008877
8800.000000;0.008723
8799.000000;0.008567
8798.000000;0.008555
8797.000000;0.008635
8796.000000;0.008638
8795.000000;0.008498
8794.000000;0.008353
8793.000000;0.008399
8792.000000;0.008693
8791.000000;0.009077
8790.000000;0.009326
8789.000000;0.009337
8788.000000;0.009202
8787.000000;0.009106
8786.000000;0.009162
8785.000000;0.009350
8784.000000;0.009564
8783.000000;0.009694
8782.000000;0.009691
8781.000000;0.009593
8780.000000;0.009512
8779.000000;0.009552
8778.000000;0.009713
8777.000000;0.009896
8776.000000;0.010014
8775.000000;0.010070
8774.000000;0.010132
8773.000000;0.010233
8772.000000;0.010343
8771.000000;0.010400
8770.000000;0.010369
8769.000000;0.010270
8768.000000;0.010190
8767.000000;0.010241
8766.000000;0.010471
8765.000000;0.010793
8764.000000;0.011041
8763.000000;0.011109
8762.000000;0.011044
8761.000000;0.010981
8760.000000;0.011023
8759.000000;0.011162
8758.000000;0.011313
8757.000000;0.011397
8756.000000;0.011390
8755.000000;0.011346
8754.000000;0.011366
8753.000000;0.011506
8752.000000;0.011712
8751.000000;0.011850
8750.000000;0.011838
8749.000000;0.011731
8748.000000;0.011647
8747.000000;0.011646
8746.000000;0.011697
8745.000000;0.011763
8744.000000;0.011844
8743.000000;0.011949
8742.000000;0.012076
8741.000000;0.012234
8740.000000;0.012432
8739.000000;0.012620
8738.000000;0.012711
8737.000000;0.012693
8736.000000;0.012685
8735.000000;0.012800
8734.000000;0.012988
8733.000000;0.013089
8732.000000;0.013032
8731.000000;0.012912
8730.000000;0.012863
8729.000000;0.012910
8728.000000;0.012981
8727.000000;0.013010
8726.000000;0.012997
8725.000000;0.013007
8724.000000;0.013114
8723.000000;0.013325
8722.000000;0.013544
8721.000000;0.013651
8720.000000;0.013629
8719.000000;0.013579
8718.000000;0.013582
8717.000000;0.013606
8716.000000;0.013572
8715.000000;0.013479
8714.000000;0.013409
8713.000000;0.013423
8712.000000;0.013515
8711.000000;0.013639
8710.000000;0.013744
8709.000000;0.013770
8708.000000;0.013672
8707.000000;0.013472
8706.000000;0.013271
8705.000000;0.013166
8704.000000;0.013175
8703.000000;0.013227
8702.000000;0.013242
8701.000000;0.013204
8700.000000;0.013188
8699.000000;0.013291
8698.000000;0.013530
8697.000000;0.013773
8696.000000;0.013824
8695.000000;0.013602
8694.000000;0.013234
8693.000000;0.012954
8692.000000;0.012894
8691.000000;0.012998
8690.000000;0.013109
8689.000000;0.013112
8688.000000;0.013010
8687.000000;0.012877
8686.000000;0.012788
8685.000000;0.012768
8684.000000;0.012780
8683.000000;0.012767
8682.000000;0.012705
8681.000000;0.012616
8680.000000;0.012517
8679.000000;0.012407
8678.000000;0.012300
8677.000000;0.012247
8676.000000;0.012267
8675.000000;0.012273
8674.000000;0.012134
8673.000000;0.011819
8672.000000;0.011459
8671.000000;0.011224
8670.000000;0.011171
8669.000000;0.011199
8668.000000;0.011157
8667.000000;0.010962
8666.000000;0.010664
8665.000000;0.010382
8664.000000;0.010178
8663.000000;0.010000
8662.000000;0.009786
8661.000000;0.009610
8660.000000;0.009625
8659.000000;0.009835
8658.000000;0.010012
8657.000000;0.009916
8656.000000;0.009544
8655.000000;0.009099
8654.000000;0.008771
8653.000000;0.008608
8652.000000;0.008568
8651.000000;0.008560
8650.000000;0.008464
8649.000000;0.008201
8648.000000;0.007847
8647.000000;0.007584
8646.000000;0.007510
8645.000000;0.007532
8644.000000;0.007485
8643.000000;0.007299
8642.000000;0.007014
8641.000000;0.006701
8640.000000;0.006400
8639.000000;0.006116
8638.000000;0.005832
8637.000000;0.005538
8636.000000;0.005273
8635.000000;0.005108
8634.000000;0.005061
8633.000000;0.005058
8632.000000;0.005005
8631.000000;0.004849
8630.000000;0.004570
8629.000000;0.004158
8628.000000;0.003660
8627.000000;0.003219
8626.000000;0.002965
8625.000000;0.002892
8624.000000;0.002864
8623.000000;0.002755
8622.000000;0.002546
8621.000000;0.002281
8620.000000;0.001992
8619.000000;0.001689
8618.000000;0.001388
8617.000000;0.001123
8616.000000;0.000927
8615.000000;0.000796
8614.000000;0.000673
8613.000000;0.000470
8612.000000;0.000145
8611.000000;-0.000245
8610.000000;-0.000582
8609.000000;-0.000802
8608.000000;-0.000954
8607.000000;-0.001132
8606.000000;-0.001378
8605.000000;-0.001665
8604.000000;-0.001971
8603.000000;-0.002311
8602.000000;-0.002694
8601.000000;-0.003057
8600.000000;-0.003303
8599.000000;-0.003407
8598.000000;-0.003466
8597.000000;-0.003613
8596.000000;-0.003892
8595.000000;-0.004225
8594.000000;-0.004511
8593.000000;-0.004717
8592.000000;-0.004878
8591.000000;-0.005028
8590.000000;-0.005179
8589.000000;-0.005349
8588.000000;-0.005576
8587.000000;-0.005893
8586.000000;-0.006297
8585.000000;-0.006746
8584.000000;-0.007192
8583.000000;-0.007603
8582.000000;-0.007969
8581.000000;-0.008294
8580.000000;-0.008596
8579.000000;-0.008896
8578.000000;-0.009200
8577.000000;-0.009482
8576.000000;-0.009706
8575.000000;-0.009875
8574.000000;-0.010033
8573.000000;-0.010231
8572.000000;-0.010489
8571.000000;-0.010807
8570.000000;-0.011166
8569.000000;-0.011514
8568.000000;-0.011778
8567.000000;-0.011942
8566.000000;-0.012091
8565.000000;-0.012349
8564.000000;-0.012749
8563.000000;-0.013205
8562.000000;-0.013604
8561.000000;-0.013905
8560.000000;-0.014133
8559.000000;-0.014334
8558.000000;-0.014552
8557.000000;-0.014822
8556.000000;-0.015142
8555.000000;-0.015459
8554.000000;-0.015721
8553.000000;-0.015930
8552.000000;-0.016137
8551.000000;-0.016383
8550.000000;-0.016654
8549.000000;-0.016905
8548.000000;-0.017128
8547.000000;-0.017371
8546.000000;-0.017679
8545.000000;-0.018025
8544.000000;-0.018320
8543.000000;-0.018515
8542.000000;-0.018678
8541.000000;-0.018935
8540.000000;-0.019334
8539.000000;-0.019793
8538.000000;-0.020206
8537.000000;-0.020550
8536.000000;-0.020878
8535.000000;-0.021230
8534.000000;-0.021581
8533.000000;-0.021878
8532.000000;-0.022092
8531.000000;-0.022241
8530.000000;-0.022377
8529.000000;-0.022544
8528.000000;-0.022750
8527.000000;-0.022969
8526.000000;-0.023184
8525.000000;-0.023419
8524.000000;-0.023709
8523.000000;-0.024039
8522.000000;-0.024346
8521.000000;-0.024600
8520.000000;-0.024870
8519.000000;-0.025252
8518.000000;-0.025747
8517.000000;-0.026235
8516.000000;-0.026605
8515.000000;-0.026866
8514.000000;-0.027112
8513.000000;-0.027391
8512.000000;-0.027665
8511.000000;-0.027901
8510.000000;-0.028128
8509.000000;-0.028381
8508.000000;-0.028640
8507.000000;-0.028856
8506.000000;-0.029028
8505.000000;-0.029195
8504.000000;-0.029380
8503.000000;-0.029591
8502.000000;-0.029851
8501.000000;-0.030179
8500.000000;-0.030545
8499.000000;-0.030883
8498.000000;-0.031173
8497.000000;-0.031448
8496.000000;-0.031730
8495.000000;-0.031995
8494.000000;-0.032229
8493.000000;-0.032471
8492.000000;-0.032762
8491.000000;-0.033083
8490.000000;-0.033383
8489.000000;-0.033645
8488.000000;-0.033892
8487.000000;-0.034140
8486.000000;-0.034376
8485.000000;-0.034595
8484.000000;-0.034812
8483.000000;-0.035055
8482.000000;-0.035352
8481.000000;-0.035712
8480.000000;-0.036107
8479.000000;-0.036468
8478.000000;-0.036744
8477.000000;-0.036957
8476.000000;-0.037181
8475.000000;-0.037464
8474.000000;-0.037769
8473.000000;-0.038010
8472.000000;-0.038142
8471.000000;-0.038206
8470.000000;-0.038295
8469.000000;-0.038482
8468.000000;-0.038768
8467.000000;-0.039094
8466.000000;-0.039391
8465.000000;-0.039638
8464.000000;-0.039861
8463.000000;-0.040100
8462.000000;-0.040373
8461.000000;-0.040671
8460.000000;-0.040980
8459.000000;-0.041303
8458.000000;-0.041641
8457.000000;-0.041979
8456.000000;-0.042291
8455.000000;-0.042575
8454.000000;-0.042851
8453.000000;-0.043120
8452.000000;-0.043336
8451.000000;-0.043470
8450.000000;-0.043579
8449.000000;-0.043768
8448.000000;-0.044085
8447.000000;-0.044454
8446.000000;-0.044751
8445.000000;-0.044919
8444.000000;-0.045008
8443.000000;-0.045113
8442.000000;-0.045294
8441.000000;-0.045554
8440.000000;-0.045859
8439.000000;-0.046187
8438.000000;-0.046532
8437.000000;-0.046894
8436.000000;-0.047250
8435.000000;-0.047568
8434.000000;-0.047827
8433.000000;-0.048025
8432.000000;-0.048177
8431.000000;-0.048319
8430.000000;-0.048493
8429.000000;-0.048711
8428.000000;-0.048946
8427.000000;-0.049177
8426.000000;-0.049432
8425.000000;-0.049743
8424.000000;-0.050070
8423.000000;-0.050318
8422.000000;-0.050450
8421.000000;-0.050538
8420.000000;-0.050675
8419.000000;-0.050877
8418.000000;-0.051104
8417.000000;-0.051344
8416.000000;-0.051623
8415.000000;-0.051936
8414.000000;-0.052228
8413.000000;-0.052463
8412.000000;-0.052662
8411.000000;-0.052864
8410.000000;-0.053068
8409.000000;-0.053238
8408.000000;-0.053373
8407.000000;-0.053528
8406.000000;-0.053755
8405.000000;-0.054044
8404.000000;-0.054325
8403.000000;-0.054537
8402.000000;-0.054694
8401.000000;-0.054875
8400.000000;-0.055140
8399.000000;-0.055474
8398.000000;-0.055790
8397.000000;-0.056002
8396.000000;-0.056092
8395.000000;-0.056123
8394.000000;-0.056187
8393.000000;-0.056348
8392.000000;-0.056608
8391.000000;-0.056915
8390.000000;-0.057199
8389.000000;-0.057418
8388.000000;-0.057586
8387.000000;-0.057764
8386.000000;-0.058002
8385.000000;-0.058282
8384.000000;-0.058544
8383.000000;-0.058761
8382.000000;-0.058961
8381.000000;-0.059172
8380.000000;-0.059384
8379.000000;-0.059587
8378.000000;-0.059823
8377.000000;-0.060132
8376.000000;-0.060475
8375.000000;-0.060741
8374.000000;-0.060865
8373.000000;-0.060895
8372.000000;-0.060943
8371.000000;-0.061095
8370.000000;-0.061372
8369.000000;-0.061738
8368.000000;-0.062114
8367.000000;-0.062392
8366.000000;-0.062498
8365.000000;-0.062457
8364.000000;-0.062397
8363.000000;-0.062472
8362.000000;-0.062747
8361.000000;-0.063150
8360.000000;-0.063537
8359.000000;-0.063818
8358.000000;-0.064016
8357.000000;-0.064198
8356.000000;-0.064389
8355.000000;-0.064568
8354.000000;-0.064735
8353.000000;-0.064923
8352.000000;-0.065163
8351.000000;-0.065463
8350.000000;-0.065818
8349.000000;-0.066203
8348.000000;-0.066560
8347.000000;-0.066816
8346.000000;-0.066952
8345.000000;-0.067014
8344.000000;-0.067067
8343.000000;-0.067150
8342.000000;-0.067281
8341.000000;-0.067460
8340.000000;-0.067659
8339.000000;-0.067846
8338.000000;-0.068024
8337.000000;-0.068227
8336.000000;-0.068462
8335.000000;-0.068695
8334.000000;-0.068910
8333.000000;-0.069125
8332.000000;-0.069338
8331.000000;-0.069499
8330.000000;-0.069568
8329.000000;-0.069589
8328.000000;-0.069640
8327.000000;-0.069746
8326.000000;-0.069884
8325.000000;-0.070046
8324.000000;-0.070265
8323.000000;-0.070550
8322.000000;-0.070864
8321.000000;-0.071150
8320.000000;-0.071374
8319.000000;-0.071522
8318.000000;-0.071616
8317.000000;-0.071716
8316.000000;-0.071890
8315.000000;-0.072151
8314.000000;-0.072445
8313.000000;-0.072694
8312.000000;-0.072863
8311.000000;-0.072977
8310.000000;-0.073090
8309.000000;-0.073239
8308.000000;-0.073421
8307.000000;-0.073615
8306.000000;-0.073815
8305.000000;-0.074036
8304.000000;-0.074272
8303.000000;-0.074482
8302.000000;-0.074635
8301.000000;-0.074744
8300.000000;-0.074836
8299.000000;-0.074907
8298.000000;-0.074952
8297.000000;-0.075009
8296.000000;-0.075154
8295.000000;-0.075427
8294.000000;-0.075788
8293.000000;-0.076160
8292.000000;-0.076468
8291.000000;-0.076664
8290.000000;-0.076741
8289.000000;-0.076757
8288.000000;-0.076813
8287.000000;-0.076964
8286.000000;-0.077166
8285.000000;-0.077325
8284.000000;-0.077397
8283.000000;-0.077432
8282.000000;-0.077508
8281.000000;-0.077655
8280.000000;-0.077844
8279.000000;-0.078028
8278.000000;-0.078197
8277.000000;-0.078369
8276.000000;-0.078558
8275.000000;-0.078765
8274.000000;-0.078975
8273.000000;-0.079175
8272.000000;-0.079346
8271.000000;-0.079481
8270.000000;-0.079596
8269.000000;-0.079723
8268.000000;-0.079860
8267.000000;-0.079962
8266.000000;-0.079990
8265.000000;-0.079973
8264.000000;-0.079983
8263.000000;-0.080073
8262.000000;-0.080233
8261.000000;-0.080424
8260.000000;-0.080617
8259.000000;-0.080817
8258.000000;-0.081049
8257.000000;-0.081323
8256.000000;-0.081593
8255.000000;-0.081776
8254.000000;-0.081833
8253.000000;-0.081817
8252.000000;-0.081823
8251.000000;-0.081880
8250.000000;-0.081951
8249.000000;-0.082017
8248.000000;-0.082118
8247.000000;-0.082286
8246.000000;-0.082474
8245.000000;-0.082609
8244.000000;-0.082680
8243.000000;-0.082749
8242.000000;-0.082872
8241.000000;-0.083040
8240.000000;-0.083196
8239.000000;-0.083305
8238.000000;-0.083383
8237.000000;-0.083475
8236.000000;-0.083605
8235.000000;-0.083751
8234.000000;-0.083874
8233.000000;-0.083968
8232.000000;-0.084060
8231.000000;-0.084175
8230.000000;-0.084305
8229.000000;-0.084428
8228.000000;-0.084537
8227.000000;-0.084631
8226.000000;-0.084690
8225.000000;-0.084702
8224.000000;-0.084693
8223.000000;-0.084717
8222.000000;-0.084810
8221.000000;-0.084951
8220.000000;-0.085082
8219.000000;-0.085147
8218.000000;-0.085138
8217.000000;-0.085104
8216.000000;-0.085123
8215.000000;-0.085242
8214.000000;-0.085437
8213.000000;-0.085635
8212.000000;-0.085783
8211.000000;-0.085877
8210.000000;-0.085944
8209.000000;-0.086014
8208.000000;-0.086106
8207.000000;-0.086235
8206.000000;-0.086405
8205.000000;-0.086605
8204.000000;-0.086804
8203.000000;-0.086955
8202.000000;-0.087008
8201.000000;-0.086958
8200.000000;-0.086863
8199.000000;-0.086811
8198.000000;-0.086842
8197.000000;-0.086918
8196.000000;-0.086988
8195.000000;-0.087059
8194.000000;-0.087178
8193.000000;-0.087358
8192.000000;-0.087545
8191.000000;-0.087663
8190.000000;-0.087677
8189.000000;-0.087607
8188.000000;-0.087517
8187.000000;-0.087489
8186.000000;-0.087587
8185.000000;-0.087807
8184.000000;-0.088068
8183.000000;-0.088266
8182.000000;-0.088346
8181.000000;-0.088329
8180.000000;-0.088271
8179.000000;-0.088215
8178.000000;-0.088179
8177.000000;-0.088169
8176.000000;-0.088191
8175.000000;-0.088248
8174.000000;-0.088348
8173.000000;-0.088494
8172.000000;-0.088669
8171.000000;-0.088833
8170.000000;-0.088945
8169.000000;-0.088992
8168.000000;-0.089000
8167.000000;-0.089008
8166.000000;-0.089043
8165.000000;-0.089117
8164.000000;-0.089225
8163.000000;-0.089349
8162.000000;-0.089453
8161.000000;-0.089504
8160.000000;-0.089493
8159.000000;-0.089437
8158.000000;-0.089367
8157.000000;-0.089304
8156.000000;-0.089255
8155.000000;-0.089209
8154.000000;-0.089154
8153.000000;-0.089105
8152.000000;-0.089101
8151.000000;-0.089172
8150.000000;-0.089311
8149.000000;-0.089476
8148.000000;-0.089628
8147.000000;-0.089742
8146.000000;-0.089795
8145.000000;-0.089779
8144.000000;-0.089731
8143.000000;-0.089723
8142.000000;-0.089802
8141.000000;-0.089936
8140.000000;-0.090047
8139.000000;-0.090091
8138.000000;-0.090086
8137.000000;-0.090077
8136.000000;-0.090102
8135.000000;-0.090176
8134.000000;-0.090294
8133.000000;-0.090414
8132.000000;-0.090482
8131.000000;-0.090471
8130.000000;-0.090405
8129.000000;-0.090325
8128.000000;-0.090250
8127.000000;-0.090175
8126.000000;-0.090100
8125.000000;-0.090036
8124.000000;-0.089997
8123.000000;-0.089992
8122.000000;-0.090029
8121.000000;-0.090105
8120.000000;-0.090197
8119.000000;-0.090263
8118.000000;-0.090281
8117.000000;-0.090253
8116.000000;-0.090204
8115.000000;-0.090162
8114.000000;-0.090146
8113.000000;-0.090165
8112.000000;-0.090213
8111.000000;-0.090277
8110.000000;-0.090347
8109.000000;-0.090423
8108.000000;-0.090510
8107.000000;-0.090597
8106.000000;-0.090659
8105.000000;-0.090672
8104.000000;-0.090637
8103.000000;-0.090584
8102.000000;-0.090541
8101.000000;-0.090515
8100.000000;-0.090503
8099.000000;-0.090506
8098.000000;-0.090517
8097.000000;-0.090503
8096.000000;-0.090440
8095.000000;-0.090352
8094.000000;-0.090301
8093.000000;-0.090326
8092.000000;-0.090405
8091.000000;-0.090486
8090.000000;-0.090530
8089.000000;-0.090520
8088.000000;-0.090458
8087.000000;-0.090369
8086.000000;-0.090292
8085.000000;-0.090257
8084.000000;-0.090275
8083.000000;-0.090348
8082.000000;-0.090468
8081.000000;-0.090580
8080.000000;-0.090601
8079.000000;-0.090509
8078.000000;-0.090373
8077.000000;-0.090292
8076.000000;-0.090288
8075.000000;-0.090324
8074.000000;-0.090371
8073.000000;-0.090434
8072.000000;-0.090503
8071.000000;-0.090540
8070.000000;-0.090529
8069.000000;-0.090490
8068.000000;-0.090437
8067.000000;-0.090357
8066.000000;-0.090245
8065.000000;-0.090133
8064.000000;-0.090066
8063.000000;-0.090061
8062.000000;-0.090106
8061.000000;-0.090170
8060.000000;-0.090219
8059.000000;-0.090230
8058.000000;-0.090204
8057.000000;-0.090167
8056.000000;-0.090133
8055.000000;-0.090101
8054.000000;-0.090073
8053.000000;-0.090051
8052.000000;-0.090017
8051.000000;-0.089944
8050.000000;-0.089850
8049.000000;-0.089793
8048.000000;-0.089803
8047.000000;-0.089832
8046.000000;-0.089819
8045.000000;-0.089765
8044.000000;-0.089712
8043.000000;-0.089678
8042.000000;-0.089653
8041.000000;-0.089635
8040.000000;-0.089642
8039.000000;-0.089671
8038.000000;-0.089706
8037.000000;-0.089747
8036.000000;-0.089808
8035.000000;-0.089870
8034.000000;-0.089884
8033.000000;-0.089846
8032.000000;-0.089811
8031.000000;-0.089822
8030.000000;-0.089838
8029.000000;-0.089773
8028.000000;-0.089595
8027.000000;-0.089361
8026.000000;-0.089166
8025.000000;-0.089074
8024.000000;-0.089084
8023.000000;-0.089142
8022.000000;-0.089186
8021.000000;-0.089204
8020.000000;-0.089228
8019.000000;-0.089281
8018.000000;-0.089339
8017.000000;-0.089351
8016.000000;-0.089307
8015.000000;-0.089237
8014.000000;-0.089159
8013.000000;-0.089062
8012.000000;-0.088935
8011.000000;-0.088804
8010.000000;-0.088705
8009.000000;-0.088648
8008.000000;-0.088618
8007.000000;-0.088603
8006.000000;-0.088585
8005.000000;-0.088550
8004.000000;-0.088494
8003.000000;-0.088437
8002.000000;-0.088392
8001.000000;-0.088353
8000.000000;-0.088315
7999.000000;-0.088300
7998.000000;-0.088324
7997.000000;-0.088348
7996.000000;-0.088305
7995.000000;-0.088182
7994.000000;-0.088053
7993.000000;-0.088003
7992.000000;-0.088046
7991.000000;-0.088126
7990.000000;-0.088187
7989.000000;-0.088211
7988.000000;-0.088199
7987.000000;-0.088155
7986.000000;-0.088092
7985.000000;-0.088037
7984.000000;-0.088013
7983.000000;-0.088015
7982.000000;-0.088016
7981.000000;-0.087984
7980.000000;-0.087915
7979.000000;-0.087831
7978.000000;-0.087755
7977.000000;-0.087684
7976.000000;-0.087590
7975.000000;-0.087466
7974.000000;-0.087343
7973.000000;-0.087263
7972.000000;-0.087236
7971.000000;-0.087233
7970.000000;-0.087203
7969.000000;-0.087116
7968.000000;-0.086982
7967.000000;-0.086851
7966.000000;-0.086777
7965.000000;-0.086760
7964.000000;-0.086744
7963.000000;-0.086677
7962.000000;-0.086571
7961.000000;-0.086483
7960.000000;-0.086438
7959.000000;-0.086409
7958.000000;-0.086361
7957.000000;-0.086300
7956.000000;-0.086265
7955.000000;-0.086278
7954.000000;-0.086312
7953.000000;-0.086312
7952.000000;-0.086239
7951.000000;-0.086112
7950.000000;-0.085992
7949.000000;-0.085918
7948.000000;-0.085885
7947.000000;-0.085877
7946.000000;-0.085897
7945.000000;-0.085942
7944.000000;-0.085966
7943.000000;-0.085921
7942.000000;-0.085823
7941.000000;-0.085736
7940.000000;-0.085695
7939.000000;-0.085670
7938.000000;-0.085611
7937.000000;-0.085506
7936.000000;-0.085370
7935.000000;-0.085216
7934.000000;-0.085067
7933.000000;-0.084962
7932.000000;-0.084923
7931.000000;-0.084924
7930.000000;-0.084916
7929.000000;-0.084869
7928.000000;-0.084781
7927.000000;-0.084665
7926.000000;-0.084541
7925.000000;-0.084441
7924.000000;-0.084390
7923.000000;-0.084379
7922.000000;-0.084372
7921.000000;-0.084341
7920.000000;-0.084293
7919.000000;-0.084256
7918.000000;-0.084247
7917.000000;-0.084250
7916.000000;-0.084228
7915.000000;-0.084152
7914.000000;-0.084024
7913.000000;-0.083868
7912.000000;-0.083715
7911.000000;-0.083585
7910.000000;-0.083486
7909.000000;-0.083413
7908.000000;-0.083351
7907.000000;-0.083302
7906.000000;-0.083280
7905.000000;-0.083277
7904.000000;-0.083240
7903.000000;-0.083121
7902.000000;-0.082946
7901.000000;-0.082796
7900.000000;-0.082716
7899.000000;-0.082666
7898.000000;-0.082592
7897.000000;-0.082489
7896.000000;-0.082388
7895.000000;-0.082307
7894.000000;-0.082246
7893.000000;-0.082220
7892.000000;-0.082229
7891.000000;-0.082227
7890.000000;-0.082156
7889.000000;-0.082012
7888.000000;-0.081859
7887.000000;-0.081758
7886.000000;-0.081713
7885.000000;-0.081684
7884.000000;-0.081636
7883.000000;-0.081560
7882.000000;-0.081466
7881.000000;-0.081364
7880.000000;-0.081255
7879.000000;-0.081156
7878.000000;-0.081096
7877.000000;-0.081090
7876.000000;-0.081100
7875.000000;-0.081061
7874.000000;-0.080944
7873.000000;-0.080793
7872.000000;-0.080666
7871.000000;-0.080574
7870.000000;-0.080492
7869.000000;-0.080402
7868.000000;-0.080296
7867.000000;-0.080157
7866.000000;-0.079974
7865.000000;-0.079781
7864.000000;-0.079638
7863.000000;-0.079575
7862.000000;-0.079569
7861.000000;-0.079575
7860.000000;-0.079560
7859.000000;-0.079503
7858.000000;-0.079401
7857.000000;-0.079285
7856.000000;-0.079193
7855.000000;-0.079123
7854.000000;-0.079034
7853.000000;-0.078903
7852.000000;-0.078761
7851.000000;-0.078653
7850.000000;-0.078578
7849.000000;-0.078485
7848.000000;-0.078337
7847.000000;-0.078146
7846.000000;-0.077962
7845.000000;-0.077833
7844.000000;-0.077768
7843.000000;-0.077737
7842.000000;-0.077690
7841.000000;-0.077601
7840.000000;-0.077490
7839.000000;-0.077396
7838.000000;-0.077341
7837.000000;-0.077306
7836.000000;-0.077251
7835.000000;-0.077160
7834.000000;-0.077048
7833.000000;-0.076941
7832.000000;-0.076835
7831.000000;-0.076714
7830.000000;-0.076581
7829.000000;-0.076471
7828.000000;-0.076409
7827.000000;-0.076368
7826.000000;-0.076301
7825.000000;-0.076187
7824.000000;-0.076039
7823.000000;-0.075874
7822.000000;-0.075689
7821.000000;-0.075482
7820.000000;-0.075277
7819.000000;-0.075106
7818.000000;-0.074990
7817.000000;-0.074921
7816.000000;-0.074873
7815.000000;-0.074808
7814.000000;-0.074697
7813.000000;-0.074545
7812.000000;-0.074392
7811.000000;-0.074281
7810.000000;-0.074217
7809.000000;-0.074170
7808.000000;-0.074104
7807.000000;-0.074010
7806.000000;-0.073900
7805.000000;-0.073783
7804.000000;-0.073652
7803.000000;-0.073503
7802.000000;-0.073347
7801.000000;-0.073203
7800.000000;-0.073082
7799.000000;-0.072976
7798.000000;-0.072872
7797.000000;-0.072761
7796.000000;-0.072633
7795.000000;-0.072478
7794.000000;-0.072304
7793.000000;-0.072133
7792.000000;-0.071991
7791.000000;-0.071885
7790.000000;-0.071810
7789.000000;-0.071749
7788.000000;-0.071683
7787.000000;-0.071591
7786.000000;-0.071475
7785.000000;-0.071353
7784.000000;-0.071232
7783.000000;-0.071096
7782.000000;-0.070937
7781.000000;-0.070778
7780.000000;-0.070649
7779.000000;-0.070549
7778.000000;-0.070440
7777.000000;-0.070292
7776.000000;-0.070110
7775.000000;-0.069925
7774.000000;-0.069780
7773.000000;-0.069694
7772.000000;-0.069652
7771.000000;-0.069610
7770.000000;-0.069532
7769.000000;-0.069418
7768.000000;-0.069285
7767.000000;-0.069129
7766.000000;-0.068925
7765.000000;-0.068673
7764.000000;-0.068405
7763.000000;-0.068156
7762.000000;-0.067928
7761.000000;-0.067709
7760.000000;-0.067501
7759.000000;-0.067334
7758.000000;-0.067233
7757.000000;-0.067187
7756.000000;-0.067136
7755.000000;-0.067009
7754.000000;-0.066785
7753.000000;-0.066517
7752.000000;-0.066287
7751.000000;-0.066128
7750.000000;-0.066020
7749.000000;-0.065923
7748.000000;-0.065819
7747.000000;-0.065700
7746.000000;-0.065567
7745.000000;-0.065431
7744.000000;-0.065298
7743.000000;-0.065158
7742.000000;-0.064991
7741.000000;-0.064803
7740.000000;-0.064630
7739.000000;-0.064504
7738.000000;-0.064425
7737.000000;-0.064365
7736.000000;-0.064294
7735.000000;-0.064190
7734.000000;-0.064035
7733.000000;-0.063832
7732.000000;-0.063608
7731.000000;-0.063390
7730.000000;-0.063187
7729.000000;-0.062987
7728.000000;-0.062776
7727.000000;-0.062555
7726.000000;-0.062341
7725.000000;-0.062155
7724.000000;-0.062002
7723.000000;-0.061868
7722.000000;-0.061742
7721.000000;-0.061624
7720.000000;-0.061515
7719.000000;-0.061393
7718.000000;-0.061233
7717.000000;-0.061036
7716.000000;-0.060832
7715.000000;-0.060652
7714.000000;-0.060507
7713.000000;-0.060388
7712.000000;-0.060273
7711.000000;-0.060132
7710.000000;-0.059951
7709.000000;-0.059739
7708.000000;-0.059520
7707.000000;-0.059302
7706.000000;-0.059077
7705.000000;-0.058837
7704.000000;-0.058586
7703.000000;-0.058336
7702.000000;-0.058113
7701.000000;-0.057939
7700.000000;-0.057812
7699.000000;-0.057687
7698.000000;-0.057523
7697.000000;-0.057335
7696.000000;-0.057186
7695.000000;-0.057110
7694.000000;-0.057067
7693.000000;-0.056975
7692.000000;-0.056774
7691.000000;-0.056467
7690.000000;-0.056117
7689.000000;-0.055810
7688.000000;-0.055600
7687.000000;-0.055467
7686.000000;-0.055344
7685.000000;-0.055186
7684.000000;-0.055002
7683.000000;-0.054810
7682.000000;-0.054601
7681.000000;-0.054358
7680.000000;-0.054099
7679.000000;-0.053867
7678.000000;-0.053679
7677.000000;-0.053515
7676.000000;-0.053349
7675.000000;-0.053163
7674.000000;-0.052945
7673.000000;-0.052684
7672.000000;-0.052389
7671.000000;-0.052095
7670.000000;-0.051838
7669.000000;-0.051618
7668.000000;-0.051402
7667.000000;-0.051172
7666.000000;-0.050950
7665.000000;-0.050766
7664.000000;-0.050609
7663.000000;-0.050436
7662.000000;-0.050224
7661.000000;-0.050007
7660.000000;-0.049822
7659.000000;-0.049655
7658.000000;-0.049463
7657.000000;-0.049233
7656.000000;-0.049001
7655.000000;-0.048793
7654.000000;-0.048600
7653.000000;-0.048399
7652.000000;-0.048186
7651.000000;-0.047965
7650.000000;-0.047732
7649.000000;-0.047488
7648.000000;-0.047245
7647.000000;-0.047012
7646.000000;-0.046775
7645.000000;-0.046508
7644.000000;-0.046203
7643.000000;-0.045869
7642.000000;-0.045515
7641.000000;-0.045153
7640.000000;-0.044801
7639.000000;-0.044487
7638.000000;-0.044237
7637.000000;-0.044058
7636.000000;-0.043926
7635.000000;-0.043803
7634.000000;-0.043654
7633.000000;-0.043459
7632.000000;-0.043221
7631.000000;-0.042952
7630.000000;-0.042673
7629.000000;-0.042407
7628.000000;-0.042153
7627.000000;-0.041883
7626.000000;-0.041573
7625.000000;-0.041239
7624.000000;-0.040922
7623.000000;-0.040658
7622.000000;-0.040446
7621.000000;-0.040249
7620.000000;-0.040014
7619.000000;-0.039700
7618.000000;-0.039325
7617.000000;-0.038963
7616.000000;-0.038677
7615.000000;-0.038454
7614.000000;-0.038237
7613.000000;-0.037994
7612.000000;-0.037733
7611.000000;-0.037451
7610.000000;-0.037129
7609.000000;-0.036774
7608.000000;-0.036436
7607.000000;-0.036147
7606.000000;-0.035883
7605.000000;-0.035592
7604.000000;-0.035259
7603.000000;-0.034912
7602.000000;-0.034584
7601.000000;-0.034286
7600.000000;-0.034004
7599.000000;-0.033711
7598.000000;-0.033382
7597.000000;-0.033026
7596.000000;-0.032679
7595.000000;-0.032374
7594.000000;-0.032104
7593.000000;-0.031832
7592.000000;-0.031524
7591.000000;-0.031175
7590.000000;-0.030809
7589.000000;-0.030460
7588.000000;-0.030147
7587.000000;-0.029873
7586.000000;-0.029638
7585.000000;-0.029432
7584.000000;-0.029214
7583.000000;-0.028923
7582.000000;-0.028525
7581.000000;-0.028064
7580.000000;-0.027619
7579.000000;-0.027232
7578.000000;-0.026896
7577.000000;-0.026586
7576.000000;-0.026278
7575.000000;-0.025940
7574.000000;-0.025558
7573.000000;-0.025163
7572.000000;-0.024801
7571.000000;-0.024473
7570.000000;-0.024140
7569.000000;-0.023787
7568.000000;-0.023438
7567.000000;-0.023108
7566.000000;-0.022787
7565.000000;-0.022471
7564.000000;-0.022178
7563.000000;-0.021890
7562.000000;-0.021553
7561.000000;-0.021138
7560.000000;-0.020682
7559.000000;-0.020231
7558.000000;-0.019794
7557.000000;-0.019367
7556.000000;-0.018972
7555.000000;-0.018628
7554.000000;-0.018312
7553.000000;-0.017987
7552.000000;-0.017638
7551.000000;-0.017273
7550.000000;-0.016888
7549.000000;-0.016475
7548.000000;-0.016041
7547.000000;-0.015611
7546.000000;-0.015209
7545.000000;-0.014849
7544.000000;-0.014521
7543.000000;-0.014186
7542.000000;-0.013806
7541.000000;-0.013396
7540.000000;-0.013014
7539.000000;-0.012682
7538.000000;-0.012347
7537.000000;-0.011958
7536.000000;-0.011528
7535.000000;-0.011100
7534.000000;-0.010682
7533.000000;-0.010249
7532.000000;-0.009796
7531.000000;-0.009345
7530.000000;-0.008908
7529.000000;-0.008481
7528.000000;-0.008075
7527.000000;-0.007697
7526.000000;-0.007315
7525.000000;-0.006889
7524.000000;-0.006430
7523.000000;-0.006000
7522.000000;-0.005633
7521.000000;-0.005290
7520.000000;-0.004916
7519.000000;-0.004505
7518.000000;-0.004102
7517.000000;-0.003731
7516.000000;-0.003362
7515.000000;-0.002946
7514.000000;-0.002464
7513.000000;-0.001943
7512.000000;-0.001430
7511.000000;-0.000948
7510.000000;-0.000502
7509.000000;-0.000089
7508.000000;0.000303
7507.000000;0.000701
7506.000000;0.001135
7505.000000;0.001594
7504.000000;0.002041
7503.000000;0.002456
7502.000000;0.002862
7501.000000;0.003286
7500.000000;0.003722
7499.000000;0.004147
7498.000000;0.004551
7497.000000;0.004957
7496.000000;0.005389
7495.000000;0.005848
7494.000000;0.006314
7493.000000;0.006777
7492.000000;0.007258
7491.000000;0.007780
7490.000000;0.008327
7489.000000;0.008841
7488.000000;0.009288
7487.000000;0.009700
7486.000000;0.010128
7485.000000;0.010578
7484.000000;0.011022
7483.000000;0.011460
7482.000000;0.011917
7481.000000;0.012382
7480.000000;0.012804
7479.000000;0.013174
7478.000000;0.013556
7477.000000;0.014010
7476.000000;0.014525
7475.000000;0.015043
7474.000000;0.015524
7473.000000;0.015970
7472.000000;0.016400
7471.000000;0.016829
7470.000000;0.017261
7469.000000;0.017679
7468.000000;0.018068
7467.000000;0.018461
7466.000000;0.018914
7465.000000;0.019445
7464.000000;0.020001
7463.000000;0.020526
7462.000000;0.021019
7461.000000;0.021510
7460.000000;0.022010
7459.000000;0.022496
7458.000000;0.022945
7457.000000;0.023344
7456.000000;0.023697
7455.000000;0.024035
7454.000000;0.024401
7453.000000;0.024821
7452.000000;0.025296
7451.000000;0.025817
7450.000000;0.026364
7449.000000;0.026893
7448.000000;0.027375
7447.000000;0.027823
7446.000000;0.028280
7445.000000;0.028760
7444.000000;0.029248
7443.000000;0.029736
7442.000000;0.030223
7441.000000;0.030689
7440.000000;0.031112
7439.000000;0.031517
7438.000000;0.031952
7437.000000;0.032425
7436.000000;0.032894
7435.000000;0.033323
7434.000000;0.033711
7433.000000;0.034062
7432.000000;0.034404
7431.000000;0.034802
7430.000000;0.035291
7429.000000;0.035793
7428.000000;0.036209
7427.000000;0.036566
7426.000000;0.036973
7425.000000;0.037467
7424.000000;0.037985
7423.000000;0.038483
7422.000000;0.038990
7421.000000;0.039523
7420.000000;0.040035
7419.000000;0.040483
7418.000000;0.040879
7417.000000;0.041245
7416.000000;0.041585
7415.000000;0.041911
7414.000000;0.042260
7413.000000;0.042651
7412.000000;0.043075
7411.000000;0.043553
7410.000000;0.044115
7409.000000;0.044685
7408.000000;0.045110
7407.000000;0.045347
7406.000000;0.045550
7405.000000;0.045907
7404.000000;0.046443
7403.000000;0.047027
7402.000000;0.047561
7401.000000;0.048048
7400.000000;0.048498
7399.000000;0.048912
7398.000000;0.049323
7397.000000;0.049721
7396.000000;0.050054
7395.000000;0.050383
7394.000000;0.050804
7393.000000;0.051207
7392.000000;0.051333
7391.000000;0.051175
7390.000000;0.051135
7389.000000;0.051580
7388.000000;0.052443
7387.000000;0.053410
7386.000000;0.054288
7385.000000;0.054985
7384.000000;0.055420
7383.000000;0.055619
7382.000000;0.055803
7381.000000;0.056240
7380.000000;0.056965
7379.000000;0.057743
7378.000000;0.058285
7377.000000;0.058486
7376.000000;0.058551
7375.000000;0.058841
7374.000000;0.059515
7373.000000;0.060363
7372.000000;0.061007
7371.000000;0.061255
7370.000000;0.061262
7369.000000;0.061296
7368.000000;0.061494
7367.000000;0.061969
7366.000000;0.062811
7365.000000;0.063750
7364.000000;0.064268
7363.000000;0.064224
7362.000000;0.064045
7361.000000;0.064298
7360.000000;0.065154
7359.000000;0.066271
7358.000000;0.067082
7357.000000;0.067260
7356.000000;0.067038
7355.000000;0.067046
7354.000000;0.067766
7353.000000;0.069042
7352.000000;0.070216
7351.000000;0.070773
7350.000000;0.070798
7349.000000;0.070786
7348.000000;0.071087
7347.000000;0.071614
7346.000000;0.072054
7345.000000;0.072292
7344.000000;0.072551
7343.000000;0.073182
7342.000000;0.074257
7341.000000;0.075447
7340.000000;0.076338
7339.000000;0.076852
7338.000000;0.077237
7337.000000;0.077635
7336.000000;0.077963
7335.000000;0.078218
7334.000000;0.078603
7333.000000;0.079314
7332.000000;0.080268
7331.000000;0.081062
7330.000000;0.081314
7329.000000;0.081195
7328.000000;0.081397
7327.000000;0.082293
7326.000000;0.083445
7325.000000;0.084228
7324.000000;0.084534
7323.000000;0.084780
7322.000000;0.085410
7321.000000;0.086467
7320.000000;0.087587
7319.000000;0.088428
7318.000000;0.089118
7317.000000;0.089997
7316.000000;0.091043
7315.000000;0.091841
7314.000000;0.092125
7313.000000;0.092285
7312.000000;0.093083
7311.000000;0.094702
7310.000000;0.096358
7309.000000;0.097119
7308.000000;0.096935
7307.000000;0.096601
7306.000000;0.096885
7305.000000;0.098004
7304.000000;0.099634
7303.000000;0.101066
7302.000000;0.101717
7301.000000;0.101679
7300.000000;0.101722
7299.000000;0.102624
7298.000000;0.104335
7297.000000;0.105993
7296.000000;0.106818
7295.000000;0.107012
7294.000000;0.107490
7293.000000;0.108797
7292.000000;0.110681
7291.000000;0.112565
7290.000000;0.114126
7289.000000;0.115455
7288.000000;0.116768
7287.000000;0.118049
7286.000000;0.119066
7285.000000;0.119800
7284.000000;0.120561
7283.000000;0.121568
7282.000000;0.122757
7281.000000;0.123969
7280.000000;0.125187
7279.000000;0.126517
7278.000000;0.127964
7277.000000;0.129420
7276.000000;0.130860
7275.000000;0.132339
7274.000000;0.133849
7273.000000;0.135357
7272.000000;0.136888
7271.000000;0.138432
7270.000000;0.139896
7269.000000;0.141254
7268.000000;0.142654
7267.000000;0.144251
7266.000000;0.146021
7265.000000;0.147850
7264.000000;0.149726
7263.000000;0.151664
7262.000000;0.153543
7261.000000;0.155209
7260.000000;0.156692
7259.000000;0.158180
7258.000000;0.159843
7257.000000;0.161740
7256.000000;0.163815
7255.000000;0.165944
7254.000000;0.168080
7253.000000;0.170245
7252.000000;0.172345
7251.000000;0.174263
7250.000000;0.176022
7249.000000;0.177827
7248.000000;0.180015
7247.000000;0.182671
7246.000000;0.185351
7245.000000;0.187507
7244.000000;0.189243
7243.000000;0.191277
7242.000000;0.194013
7241.000000;0.197045
7240.000000;0.199770
7239.000000;0.202046
7238.000000;0.204216
7237.000000;0.206739
7236.000000;0.209688
7235.000000;0.212639
7234.000000;0.215215
7233.000000;0.217523
7232.000000;0.219934
7231.000000;0.222701
7230.000000;0.225708
7229.000000;0.228603
7228.000000;0.231312
7227.000000;0.234106
7226.000000;0.237175
7225.000000;0.240421
7224.000000;0.243685
7223.000000;0.246860
7222.000000;0.249816
7221.000000;0.252573
7220.000000;0.255457
7219.000000;0.258747
7218.000000;0.262313
7217.000000;0.265854
7216.000000;0.269270
7215.000000;0.272623
7214.000000;0.275958
7213.000000;0.279321
7212.000000;0.282824
7211.000000;0.286574
7210.000000;0.290519
7209.000000;0.294514
7208.000000;0.298535
7207.000000;0.302645
7206.000000;0.306825
7205.000000;0.311037
7204.000000;0.315336
7203.000000;0.319696
7202.000000;0.323888
7201.000000;0.327785
7200.000000;0.331610
7199.000000;0.335640
7198.000000;0.339862
7197.000000;0.344122
7196.000000;0.348453
7195.000000;0.352984
7194.000000;0.357644
7193.000000;0.362261
7192.000000;0.366826
7191.000000;0.371449
7190.000000;0.376109
7189.000000;0.380752
7188.000000;0.385504
7187.000000;0.390540
7186.000000;0.395786
7185.000000;0.400859
7184.000000;0.405425
7183.000000;0.409593
7182.000000;0.413893
7181.000000;0.418839
7180.000000;0.424539
7179.000000;0.430605
7178.000000;0.436421
7177.000000;0.441677
7176.000000;0.446636
7175.000000;0.451730
7174.000000;0.457069
7173.000000;0.462505
7172.000000;0.467977
7171.000000;0.473569
7170.000000;0.479289
7169.000000;0.485047
7168.000000;0.490687
7167.000000;0.496122
7166.000000;0.501536
7165.000000;0.507152
7164.000000;0.512821
7163.000000;0.518109
7162.000000;0.522969
7161.000000;0.528007
7160.000000;0.533833
7159.000000;0.540292
7158.000000;0.546635
7157.000000;0.552424
7156.000000;0.557952
7155.000000;0.563624
7154.000000;0.569395
7153.000000;0.575053
7152.000000;0.580589
7151.000000;0.586190
7150.000000;0.592005
7149.000000;0.597975
7148.000000;0.603834
7147.000000;0.609387
7146.000000;0.614756
7145.000000;0.620327
7144.000000;0.626414
7143.000000;0.632869
7142.000000;0.639155
7141.000000;0.644906
7140.000000;0.650323
7139.000000;0.655860
7138.000000;0.661613
7137.000000;0.667319
7136.000000;0.672839
7135.000000;0.678334
7134.000000;0.683968
7133.000000;0.689713
7132.000000;0.695420
7131.000000;0.701006
7130.000000;0.706494
7129.000000;0.711927
7128.000000;0.717358
7127.000000;0.722816
7126.000000;0.728222
7125.000000;0.733450
7124.000000;0.738545
7123.000000;0.743818
7122.000000;0.749496
7121.000000;0.755279
7120.000000;0.760503
7119.000000;0.764879
7118.000000;0.768919
7117.000000;0.773457
7116.000000;0.778789
7115.000000;0.784461
7114.000000;0.789878
7113.000000;0.794916
7112.000000;0.799867
7111.000000;0.804890
7110.000000;0.809781
7109.000000;0.814335
7108.000000;0.818640
7107.000000;0.822898
7106.000000;0.827253
7105.000000;0.831779
7104.000000;0.836429
7103.000000;0.841115
7102.000000;0.845795
7101.000000;0.850444
7100.000000;0.855008
7099.000000;0.859367
7098.000000;0.863377
7097.000000;0.867021
7096.000000;0.870501
7095.000000;0.874123
7094.000000;0.878089
7093.000000;0.882352
7092.000000;0.886655
7091.000000;0.890708
7090.000000;0.894439
7089.000000;0.898070
7088.000000;0.901878
7087.000000;0.905866
7086.000000;0.909822
7085.000000;0.913602
7084.000000;0.917204
7083.000000;0.920618
7082.000000;0.923796
7081.000000;0.926790
7080.000000;0.929811
7079.000000;0.933029
7078.000000;0.936373
7077.000000;0.939709
7076.000000;0.943020
7075.000000;0.946250
7074.000000;0.949192
7073.000000;0.951772
7072.000000;0.954284
7071.000000;0.957067
7070.000000;0.960048
7069.000000;0.962855
7068.000000;0.965295
7067.000000;0.967478
7066.000000;0.969636
7065.000000;0.972005
7064.000000;0.974772
7063.000000;0.977906
7062.000000;0.981087
7061.000000;0.983916
7060.000000;0.986283
7059.000000;0.988415
7058.000000;0.990521
7057.000000;0.992609
7056.000000;0.994674
7055.000000;0.996812
7054.000000;0.999110
7053.000000;1.001526
7052.000000;1.003863
7051.000000;1.005871
7050.000000;1.007481
7049.000000;1.008981
7048.000000;1.010804
7047.000000;1.013067
7046.000000;1.015435
7045.000000;1.017518
7044.000000;1.019248
7043.000000;1.020782
7042.000000;1.022241
7041.000000;1.023695
7040.000000;1.025249
7039.000000;1.026961
7038.000000;1.028726
7037.000000;1.030384
7036.000000;1.031891
7035.000000;1.033291
7034.000000;1.034621
7033.000000;1.035950
7032.000000;1.037358
7031.000000;1.038795
7030.000000;1.040089
7029.000000;1.041188
7028.000000;1.042253
7027.000000;1.043434
7026.000000;1.044729
7025.000000;1.046133
7024.000000;1.047685
7023.000000;1.049219
7022.000000;1.050332
7021.000000;1.050828
7020.000000;1.051025
7019.000000;1.051448
7018.000000;1.052365
7017.000000;1.053798
7016.000000;1.055688
7015.000000;1.057807
7014.000000;1.059688
7013.000000;1.060961
7012.000000;1.061692
7011.000000;1.062211
7010.000000;1.062717
7009.000000;1.063239
7008.000000;1.063831
7007.000000;1.064566
7006.000000;1.065363
7005.000000;1.066073
7004.000000;1.066710
7003.000000;1.067441
7002.000000;1.068351
7001.000000;1.069333
7000.000000;1.070194
6999.000000;1.070811
6998.000000;1.071243
6997.000000;1.071703
6996.000000;1.072337
6995.000000;1.073048
6994.000000;1.073672
6993.000000;1.074298
6992.000000;1.075153
6991.000000;1.076152
6990.000000;1.076896
6989.000000;1.077256
6988.000000;1.077599
6987.000000;1.078261
6986.000000;1.079098
6985.000000;1.079732
6984.000000;1.080028
6983.000000;1.080115
6982.000000;1.080125
6981.000000;1.080129
6980.000000;1.080164
6979.000000;1.080185
6978.000000;1.080147
6977.000000;1.080210
6976.000000;1.080613
6975.000000;1.081220
6974.000000;1.081538
6973.000000;1.081420
6972.000000;1.081376
6971.000000;1.081883
6970.000000;1.082707
6969.000000;1.083273
6968.000000;1.083402
6967.000000;1.083323
6966.000000;1.083207
6965.000000;1.083065
6964.000000;1.082943
6963.000000;1.082840
6962.000000;1.082584
6961.000000;1.082121
6960.000000;1.081802
6959.000000;1.082000
6958.000000;1.082564
6957.000000;1.083023
6956.000000;1.083197
6955.000000;1.083252
6954.000000;1.083261
6953.000000;1.083126
6952.000000;1.082913
6951.000000;1.082853
6950.000000;1.082984
6949.000000;1.083106
6948.000000;1.083086
6947.000000;1.082904
6946.000000;1.082495
6945.000000;1.081843
6944.000000;1.081218
6943.000000;1.080979
6942.000000;1.081129
6941.000000;1.081319
6940.000000;1.081291
6939.000000;1.081066
6938.000000;1.080712
6937.000000;1.080244
6936.000000;1.079767
6935.000000;1.079441
6934.000000;1.079233
6933.000000;1.078959
6932.000000;1.078635
6931.000000;1.078524
6930.000000;1.078751
6929.000000;1.079092
6928.000000;1.079212
6927.000000;1.078945
6926.000000;1.078316
6925.000000;1.077506
6924.000000;1.076763
6923.000000;1.076235
6922.000000;1.075864
6921.000000;1.075523
6920.000000;1.075232
6919.000000;1.075108
6918.000000;1.075148
6917.000000;1.075186
6916.000000;1.075070
6915.000000;1.074751
6914.000000;1.074252
6913.000000;1.073658
6912.000000;1.073113
6911.000000;1.072658
6910.000000;1.072153
6909.000000;1.071501
6908.000000;1.070876
6907.000000;1.070517
6906.000000;1.070377
6905.000000;1.070203
6904.000000;1.069867
6903.000000;1.069428
6902.000000;1.068921
6901.000000;1.068322
6900.000000;1.067721
6899.000000;1.067306
6898.000000;1.067093
6897.000000;1.066828
6896.000000;1.066271
6895.000000;1.065475
6894.000000;1.064742
6893.000000;1.064360
6892.000000;1.064367
6891.000000;1.064489
6890.000000;1.064350
6889.000000;1.063837
6888.000000;1.063242
6887.000000;1.062966
6886.000000;1.063099
6885.000000;1.063388
6884.000000;1.063521
6883.000000;1.063327
6882.000000;1.062753
6881.000000;1.061833
6880.000000;1.060689
6879.000000;1.059496
6878.000000;1.058406
6877.000000;1.057570
6876.000000;1.057105
6875.000000;1.056932
6874.000000;1.056741
6873.000000;1.056290
6872.000000;1.055658
6871.000000;1.055048
6870.000000;1.054472
6869.000000;1.053826
6868.000000;1.053205
6867.000000;1.052819
6866.000000;1.052615
6865.000000;1.052275
6864.000000;1.051631
6863.000000;1.050841
6862.000000;1.050101
6861.000000;1.049410
6860.000000;1.048714
6859.000000;1.048083
6858.000000;1.047594
6857.000000;1.047193
6856.000000;1.046780
6855.000000;1.046293
6854.000000;1.045646
6853.000000;1.044752
6852.000000;1.043687
6851.000000;1.042691
6850.000000;1.041890
6849.000000;1.041150
6848.000000;1.040286
6847.000000;1.039296
6846.000000;1.038275
6845.000000;1.037193
6844.000000;1.035922
6843.000000;1.034444
6842.000000;1.032917
6841.000000;1.031509
6840.000000;1.030270
6839.000000;1.029173
6838.000000;1.028202
6837.000000;1.027343
6836.000000;1.026533
6835.000000;1.025640
6834.000000;1.024541
6833.000000;1.023237
6832.000000;1.021870
6831.000000;1.020574
6830.000000;1.019330
6829.000000;1.017990
6828.000000;1.016474
6827.000000;1.014874
6826.000000;1.013342
6825.000000;1.011901
6824.000000;1.010430
6823.000000;1.008843
6822.000000;1.007217
6821.000000;1.005693
6820.000000;1.004279
6819.000000;1.002842
6818.000000;1.001282
6817.000000;0.999629
6816.000000;0.997933
6815.000000;0.996200
6814.000000;0.994468
6813.000000;0.992877
6812.000000;0.991498
6811.000000;0.990155
6810.000000;0.988571
6809.000000;0.986668
6808.000000;0.984627
6807.000000;0.982654
6806.000000;0.980793
6805.000000;0.978949
6804.000000;0.976976
6803.000000;0.974771
6802.000000;0.972426
6801.000000;0.970260
6800.000000;0.968522
6799.000000;0.967045
6798.000000;0.965368
6797.000000;0.963270
6796.000000;0.961012
6795.000000;0.958959
6794.000000;0.957149
6793.000000;0.955362
6792.000000;0.953442
6791.000000;0.951381
6790.000000;0.949197
6789.000000;0.946916
6788.000000;0.944657
6787.000000;0.942586
6786.000000;0.940742
6785.000000;0.938975
6784.000000;0.937065
6783.000000;0.934912
6782.000000;0.932598
6781.000000;0.930309
6780.000000;0.928167
6779.000000;0.926146
6778.000000;0.924142
6777.000000;0.922088
6776.000000;0.919949
6775.000000;0.917674
6774.000000;0.915270
6773.000000;0.912877
6772.000000;0.910652
6771.000000;0.908577
6770.000000;0.906515
6769.000000;0.904427
6768.000000;0.902371
6767.000000;0.900319
6766.000000;0.898145
6765.000000;0.895847
6764.000000;0.893582
6763.000000;0.891409
6762.000000;0.889162
6761.000000;0.886712
6760.000000;0.884190
6759.000000;0.881832
6758.000000;0.879693
6757.000000;0.877665
6756.000000;0.875667
6755.000000;0.873694
6754.000000;0.871711
6753.000000;0.869642
6752.000000;0.867445
6751.000000;0.865121
6750.000000;0.862708
6749.000000;0.860307
6748.000000;0.858046
6747.000000;0.855909
6746.000000;0.853675
6745.000000;0.851149
6744.000000;0.848432
6743.000000;0.845844
6742.000000;0.843583
6741.000000;0.841541
6740.000000;0.839463
6739.000000;0.837199
6738.000000;0.834820
6737.000000;0.832526
6736.000000;0.830442
6735.000000;0.828470
6734.000000;0.826365
6733.000000;0.823974
6732.000000;0.821360
6731.000000;0.818694
6730.000000;0.816107
6729.000000;0.813692
6728.000000;0.811541
6727.000000;0.809666
6726.000000;0.807891
6725.000000;0.805948
6724.000000;0.803715
6723.000000;0.801318
6722.000000;0.798992
6721.000000;0.796862
6720.000000;0.794836
6719.000000;0.792712
6718.000000;0.790373
6717.000000;0.787913
6716.000000;0.785489
6715.000000;0.783197
6714.000000;0.781019
6713.000000;0.778917
6712.000000;0.776890
6711.000000;0.774896
6710.000000;0.772812
6709.000000;0.770617
6708.000000;0.768320
6707.000000;0.765905
6706.000000;0.763462
6705.000000;0.761139
6704.000000;0.759074
6703.000000;0.757163
6702.000000;0.755136
6701.000000;0.752853
6700.000000;0.750446
6699.000000;0.748097
6698.000000;0.745822
6697.000000;0.743558
6696.000000;0.741346
6695.000000;0.739295
6694.000000;0.737403
6693.000000;0.735521
6692.000000;0.733480
6691.000000;0.731208
6690.000000;0.728756
6689.000000;0.726284
6688.000000;0.723956
6687.000000;0.721801
6686.000000;0.719708
6685.000000;0.717597
6684.000000;0.715512
6683.000000;0.713489
6682.000000;0.711462
6681.000000;0.709356
6680.000000;0.707221
6679.000000;0.705141
6678.000000;0.703077
6677.000000;0.700926
6676.000000;0.698695
6675.000000;0.696517
6674.000000;0.694481
6673.000000;0.692540
6672.000000;0.690591
6671.000000;0.688566
6670.000000;0.686457
6669.000000;0.684324
6668.000000;0.682254
6667.000000;0.680274
6666.000000;0.678304
6665.000000;0.676244
6664.000000;0.674084
6663.000000;0.671898
6662.000000;0.669746
6661.000000;0.667649
6660.000000;0.665630
6659.000000;0.663693
6658.000000;0.661795
6657.000000;0.659901
6656.000000;0.658044
6655.000000;0.656265
6654.000000;0.654500
6653.000000;0.652616
6652.000000;0.650556
6651.000000;0.648396
6650.000000;0.646242
6649.000000;0.644140
6648.000000;0.642100
6647.000000;0.640133
6646.000000;0.638224
6645.000000;0.636322
6644.000000;0.634398
6643.000000;0.632486
6642.000000;0.630629
6641.000000;0.628789
6640.000000;0.626872
6639.000000;0.624823
6638.000000;0.622693
6637.000000;0.620589
6636.000000;0.618573
6635.000000;0.616638
6634.000000;0.614762
6633.000000;0.612947
6632.000000;0.611196
6631.000000;0.609460
6630.000000;0.607675
6629.000000;0.605817
6628.000000;0.603906
6627.000000;0.601955
6626.000000;0.599981
6625.000000;0.598045
6624.000000;0.596207
6623.000000;0.594437
6622.000000;0.592635
6621.000000;0.590757
6620.000000;0.588878
6619.000000;0.587080
6618.000000;0.585347
6617.000000;0.583604
6616.000000;0.581826
6615.000000;0.580035
6614.000000;0.578241
6613.000000;0.576440
6612.000000;0.574644
6611.000000;0.572889
6610.000000;0.571195
6609.000000;0.569558
6608.000000;0.567946
6607.000000;0.566296
6606.000000;0.564540
6605.000000;0.562669
6604.000000;0.560758
6603.000000;0.558897
6602.000000;0.557120
6601.000000;0.555415
6600.000000;0.553784
6599.000000;0.552229
6598.000000;0.550703
6597.000000;0.549122
6596.000000;0.547435
6595.000000;0.545675
6594.000000;0.543917
6593.000000;0.542207
6592.000000;0.540518
6591.000000;0.538787
6590.000000;0.536989
6589.000000;0.535181
6588.000000;0.533447
6587.000000;0.531822
6586.000000;0.530278
6585.000000;0.528774
6584.000000;0.527266
6583.000000;0.525713
6582.000000;0.524100
6581.000000;0.522471
6580.000000;0.520873
6579.000000;0.519280
6578.000000;0.517634
6577.000000;0.515949
6576.000000;0.514317
6575.000000;0.512779
6574.000000;0.511290
6573.000000;0.509797
6572.000000;0.508299
6571.000000;0.506789
6570.000000;0.505228
6569.000000;0.503632
6568.000000;0.502100
6567.000000;0.500685
6566.000000;0.499298
6565.000000;0.497812
6564.000000;0.496218
6563.000000;0.494607
6562.000000;0.493044
6561.000000;0.491525
6560.000000;0.490038
6559.000000;0.488574
6558.000000;0.487092
6557.000000;0.485542
6556.000000;0.483934
6555.000000;0.482344
6554.000000;0.480839
6553.000000;0.479436
6552.000000;0.478107
6551.000000;0.476783
6550.000000;0.475373
6549.000000;0.473846
6548.000000;0.472293
6547.000000;0.470846
6546.000000;0.469531
6545.000000;0.468249
6544.000000;0.466893
6543.000000;0.465457
6542.000000;0.464003
6541.000000;0.462589
6540.000000;0.461239
6539.000000;0.459953
6538.000000;0.458711
6537.000000;0.457470
6536.000000;0.456173
6535.000000;0.454780
6534.000000;0.453284
6533.000000;0.451728
6532.000000;0.450188
6531.000000;0.448729
6530.000000;0.447382
6529.000000;0.446142
6528.000000;0.444982
6527.000000;0.443841
6526.000000;0.442644
6525.000000;0.441358
6524.000000;0.440023
6523.000000;0.438699
6522.000000;0.437409
6521.000000;0.436145
6520.000000;0.434906
6519.000000;0.433687
6518.000000;0.432448
6517.000000;0.431144
6516.000000;0.429791
6515.000000;0.428453
6514.000000;0.427172
6513.000000;0.425929
6512.000000;0.424683
6511.000000;0.423417
6510.000000;0.422137
6509.000000;0.420862
6508.000000;0.419612
6507.000000;0.418394
6506.000000;0.417182
6505.000000;0.415935
6504.000000;0.414645
6503.000000;0.413350
6502.000000;0.412110
6501.000000;0.410953
6500.000000;0.409858
6499.000000;0.408766
6498.000000;0.407629
6497.000000;0.406442
6496.000000;0.405242
6495.000000;0.404064
6494.000000;0.402913
6493.000000;0.401785
6492.000000;0.400692
6491.000000;0.399638
6490.000000;0.398591
6489.000000;0.397504
6488.000000;0.396360
6487.000000;0.395200
6486.000000;0.394075
6485.000000;0.392999
6484.000000;0.391938
6483.000000;0.390839
6482.000000;0.389695
6481.000000;0.388548
6480.000000;0.387442
6479.000000;0.386363
6478.000000;0.385261
6477.000000;0.384125
6476.000000;0.383009
6475.000000;0.381959
6474.000000;0.380952
6473.000000;0.379923
6472.000000;0.378842
6471.000000;0.377737
6470.000000;0.376646
6469.000000;0.375578
6468.000000;0.374521
6467.000000;0.373472
6466.000000;0.372433
6465.000000;0.371414
6464.000000;0.370413
6463.000000;0.369412
6462.000000;0.368393
6461.000000;0.367358
6460.000000;0.366329
6459.000000;0.365320
6458.000000;0.364311
6457.000000;0.363273
6456.000000;0.362204
6455.000000;0.361142
6454.000000;0.360145
6453.000000;0.359242
6452.000000;0.358403
6451.000000;0.357554
6450.000000;0.356646
6449.000000;0.355685
6448.000000;0.354707
6447.000000;0.353725
6446.000000;0.352737
6445.000000;0.351765
6444.000000;0.350840
6443.000000;0.349942
6442.000000;0.349008
6441.000000;0.348011
6440.000000;0.346994
6439.000000;0.346011
6438.000000;0.345067
6437.000000;0.344132
6436.000000;0.343200
6435.000000;0.342283
6434.000000;0.341390
6433.000000;0.340521
6432.000000;0.339664
6431.000000;0.338791
6430.000000;0.337874
6429.000000;0.336926
6428.000000;0.336004
6427.000000;0.335144
6426.000000;0.334324
6425.000000;0.333486
6424.000000;0.332606
6423.000000;0.331701
6422.000000;0.330800
6421.000000;0.329929
6420.000000;0.329109
6419.000000;0.328339
6418.000000;0.327591
6417.000000;0.326825
6416.000000;0.326009
6415.000000;0.325134
6414.000000;0.324218
6413.000000;0.323303
6412.000000;0.322440
6411.000000;0.321640
6410.000000;0.320870
6409.000000;0.320092
6408.000000;0.319293
6407.000000;0.318476
6406.000000;0.317638
6405.000000;0.316800
6404.000000;0.315998
6403.000000;0.315240
6402.000000;0.314490
6401.000000;0.313714
6400.000000;0.312928
6399.000000;0.312175
6398.000000;0.311460
6397.000000;0.310747
6396.000000;0.310002
6395.000000;0.309223
6394.000000;0.308428
6393.000000;0.307637
6392.000000;0.306860
6391.000000;0.306091
6390.000000;0.305319
6389.000000;0.304548
6388.000000;0.303800
6387.000000;0.303076
6386.000000;0.302353
6385.000000;0.301610
6384.000000;0.300860
6383.000000;0.300134
6382.000000;0.299443
6381.000000;0.298763
6380.000000;0.298061
6379.000000;0.297314
6378.000000;0.296531
6377.000000;0.295755
6376.000000;0.295033
6375.000000;0.294370
6374.000000;0.293731
6373.000000;0.293078
6372.000000;0.292401
6371.000000;0.291707
6370.000000;0.291009
6369.000000;0.290324
6368.000000;0.289663
6367.000000;0.289014
6366.000000;0.288359
6365.000000;0.287697
6364.000000;0.287042
6363.000000;0.286369
6362.000000;0.285637
6361.000000;0.284855
6360.000000;0.284108
6359.000000;0.283460
6358.000000;0.282893
6357.000000;0.282334
6356.000000;0.281744
6355.000000;0.281127
6354.000000;0.280506
6353.000000;0.279905
6352.000000;0.279351
6351.000000;0.278838
6350.000000;0.278322
6349.000000;0.277757
6348.000000;0.277153
6347.000000;0.276546
6346.000000;0.275954
6345.000000;0.275365
6344.000000;0.274774
6343.000000;0.274177
6342.000000;0.273563
6341.000000;0.272920
6340.000000;0.272263
6339.000000;0.271617
6338.000000;0.270994
6337.000000;0.270385
6336.000000;0.269792
6335.000000;0.269225
6334.000000;0.268698
6333.000000;0.268209
6332.000000;0.267733
6331.000000;0.267227
6330.000000;0.266659
6329.000000;0.266035
6328.000000;0.265389
6327.000000;0.264740
6326.000000;0.264096
6325.000000;0.263482
6324.000000;0.262930
6323.000000;0.262426
6322.000000;0.261902
6321.000000;0.261328
6320.000000;0.260750
6319.000000;0.260224
6318.000000;0.259741
6317.000000;0.259255
6316.000000;0.258757
6315.000000;0.258264
6314.000000;0.257773
6313.000000;0.257256
6312.000000;0.256705
6311.000000;0.256146
6310.000000;0.255601
6309.000000;0.255085
6308.000000;0.254604
6307.000000;0.254148
6306.000000;0.253671
6305.000000;0.253139
6304.000000;0.252566
6303.000000;0.252003
6302.000000;0.251474
6301.000000;0.250975
6300.000000;0.250507
6299.000000;0.250072
6298.000000;0.249654
6297.000000;0.249226
6296.000000;0.248787
6295.000000;0.248353
6294.000000;0.247919
6293.000000;0.247465
6292.000000;0.246992
6291.000000;0.246520
6290.000000;0.246055
6289.000000;0.245578
6288.000000;0.245077
6287.000000;0.244551
6286.000000;0.244009
6285.000000;0.243472
6284.000000;0.242982
6283.000000;0.242579
6282.000000;0.242249
6281.000000;0.241939
6280.000000;0.241605
6279.000000;0.241231
6278.000000;0.240811
6277.000000;0.240340
6276.000000;0.239843
6275.000000;0.239366
6274.000000;0.238934
6273.000000;0.238535
6272.000000;0.238153
6271.000000;0.237787
6270.000000;0.237430
6269.000000;0.237042
6268.000000;0.236587
6267.000000;0.236076
6266.000000;0.235561
6265.000000;0.235093
6264.000000;0.234689
6263.000000;0.234329
6262.000000;0.233984
6261.000000;0.233624
6260.000000;0.233233
6259.000000;0.232813
6258.000000;0.232379
6257.000000;0.231961
6256.000000;0.231580
6255.000000;0.231231
6254.000000;0.230895
6253.000000;0.230562
6252.000000;0.230234
6251.000000;0.229903
6250.000000;0.229548
6249.000000;0.229163
6248.000000;0.228766
6247.000000;0.228369
6246.000000;0.227961
6245.000000;0.227536
6244.000000;0.227119
6243.000000;0.226731
6242.000000;0.226356
6241.000000;0.225965
6240.000000;0.225569
6239.000000;0.225207
6238.000000;0.224885
6237.000000;0.224565
6236.000000;0.224212
6235.000000;0.223832
6234.000000;0.223449
6233.000000;0.223080
6232.000000;0.222726
6231.000000;0.222385
6230.000000;0.222056
6229.000000;0.221739
6228.000000;0.221430
6227.000000;0.221113
6226.000000;0.220768
6225.000000;0.220386
6224.000000;0.219985
6223.000000;0.219585
6222.000000;0.219187
6221.000000;0.218786
6220.000000;0.218399
6219.000000;0.218051
6218.000000;0.217745
6217.000000;0.217457
6216.000000;0.217172
6215.000000;0.216888
6214.000000;0.216604
6213.000000;0.216321
6212.000000;0.216051
6211.000000;0.215805
6210.000000;0.215563
6209.000000;0.215277
6208.000000;0.214926
6207.000000;0.214540
6206.000000;0.214171
6205.000000;0.213842
6204.000000;0.213541
6203.000000;0.213239
6202.000000;0.212913
6201.000000;0.212563
6200.000000;0.212216
6199.000000;0.211906
6198.000000;0.211647
6197.000000;0.211418
6196.000000;0.211178
6195.000000;0.210903
6194.000000;0.210595
6193.000000;0.210269
6192.000000;0.209936
6191.000000;0.209600
6190.000000;0.209265
6189.000000;0.208948
6188.000000;0.208663
6187.000000;0.208403
6186.000000;0.208146
6185.000000;0.207881
6184.000000;0.207620
6183.000000;0.207382
6182.000000;0.207171
6181.000000;0.206973
6180.000000;0.206771
6179.000000;0.206559
6178.000000;0.206337
6177.000000;0.206098
6176.000000;0.205817
6175.000000;0.205475
6174.000000;0.205087
6173.000000;0.204713
6172.000000;0.204414
6171.000000;0.204194
6170.000000;0.204000
6169.000000;0.203782
6168.000000;0.203535
6167.000000;0.203276
6166.000000;0.203003
6165.000000;0.202701
6164.000000;0.202374
6163.000000;0.202042
6162.000000;0.201733
6161.000000;0.201466
6160.000000;0.201244
6159.000000;0.201057
6158.000000;0.200883
6157.000000;0.200710
6156.000000;0.200540
6155.000000;0.200364
6154.000000;0.200159
6153.000000;0.199919
6152.000000;0.199670
6151.000000;0.199451
6150.000000;0.199265
6149.000000;0.199084
6148.000000;0.198882
6147.000000;0.198654
6146.000000;0.198403
6145.000000;0.198136
6144.000000;0.197862
6143.000000;0.197594
6142.000000;0.197343
6141.000000;0.197118
6140.000000;0.196921
6139.000000;0.196741
6138.000000;0.196562
6137.000000;0.196379
6136.000000;0.196197
6135.000000;0.196010
6134.000000;0.195794
6133.000000;0.195532
6132.000000;0.195239
6131.000000;0.194950
6130.000000;0.194695
6129.000000;0.194484
6128.000000;0.194310
6127.000000;0.194159
6126.000000;0.194018
6125.000000;0.193880
6124.000000;0.193731
6123.000000;0.193543
6122.000000;0.193298
6121.000000;0.193022
6120.000000;0.192777
6119.000000;0.192591
6118.000000;0.192446
6117.000000;0.192306
6116.000000;0.192156
6115.000000;0.191994
6114.000000;0.191809
6113.000000;0.191603
6112.000000;0.191399
6111.000000;0.191220
6110.000000;0.191056
6109.000000;0.190878
6108.000000;0.190672
6107.000000;0.190447
6106.000000;0.190223
6105.000000;0.190024
6104.000000;0.189870
6103.000000;0.189751
6102.000000;0.189636
6101.000000;0.189510
6100.000000;0.189384
6099.000000;0.189269
6098.000000;0.189143
6097.000000;0.188986
6096.000000;0.188810
6095.000000;0.188644
6094.000000;0.188485
6093.000000;0.188301
6092.000000;0.188072
6091.000000;0.187810
6090.000000;0.187557
6089.000000;0.187355
6088.000000;0.187220
6087.000000;0.187121
6086.000000;0.186999
6085.000000;0.186820
6084.000000;0.186604
6083.000000;0.186397
6082.000000;0.186222
6081.000000;0.186073
6080.000000;0.185936
6079.000000;0.185804
6078.000000;0.185680
6077.000000;0.185574
6076.000000;0.185494
6075.000000;0.185423
6074.000000;0.185331
6073.000000;0.185217
6072.000000;0.185111
6071.000000;0.185031
6070.000000;0.184952
6069.000000;0.184840
6068.000000;0.184703
6067.000000;0.184568
6066.000000;0.184452
6065.000000;0.184351
6064.000000;0.184256
6063.000000;0.184154
6062.000000;0.184030
6061.000000;0.183891
6060.000000;0.183771
6059.000000;0.183682
6058.000000;0.183589
6057.000000;0.183463
6056.000000;0.183327
6055.000000;0.183227
6054.000000;0.183163
6053.000000;0.183092
6052.000000;0.182980
6051.000000;0.182835
6050.000000;0.182681
6049.000000;0.182540
6048.000000;0.182436
6047.000000;0.182378
6046.000000;0.182340
6045.000000;0.182283
6044.000000;0.182194
6043.000000;0.182090
6042.000000;0.181985
6041.000000;0.181875
6040.000000;0.181753
6039.000000;0.181624
6038.000000;0.181493
6037.000000;0.181356
6036.000000;0.181216
6035.000000;0.181087
6034.000000;0.180987
6033.000000;0.180929
6032.000000;0.180915
6031.000000;0.180925
6030.000000;0.180913
6029.000000;0.180836
6028.000000;0.180697
6027.000000;0.180534
6026.000000;0.180389
6025.000000;0.180276
6024.000000;0.180191
6023.000000;0.180126
6022.000000;0.180073
6021.000000;0.180030
6020.000000;0.179984
6019.000000;0.179913
6018.000000;0.179805
6017.000000;0.179688
6016.000000;0.179622
6015.000000;0.179635
6014.000000;0.179689
6013.000000;0.179717
6012.000000;0.179692
6011.000000;0.179628
6010.000000;0.179553
6009.000000;0.179482
6008.000000;0.179423
6007.000000;0.179380
6006.000000;0.179344
6005.000000;0.179301
6004.000000;0.179244
6003.000000;0.179181
6002.000000;0.179124
6001.000000;0.179086
6000.000000;0.179074
5999.000000;0.179070
5998.000000;0.179046
5997.000000;0.178988
5996.000000;0.178909
5995.000000;0.178825
5994.000000;0.178745
5993.000000;0.178689
5992.000000;0.178686
5991.000000;0.178736
5990.000000;0.178800
5989.000000;0.178841
5988.000000;0.178861
5987.000000;0.178873
5986.000000;0.178869
5985.000000;0.178837
5984.000000;0.178788
5983.000000;0.178739
5982.000000;0.178682
5981.000000;0.178611
5980.000000;0.178563
5979.000000;0.178577
5978.000000;0.178645
5977.000000;0.178715
5976.000000;0.178762
5975.000000;0.178800
5974.000000;0.178843
5973.000000;0.178879
5972.000000;0.178903
5971.000000;0.178931
5970.000000;0.178975
5969.000000;0.179038
5968.000000;0.179119
5967.000000;0.179214
5966.000000;0.179300
5965.000000;0.179345
5964.000000;0.179339
5963.000000;0.179305
5962.000000;0.179270
5961.000000;0.179254
5960.000000;0.179280
5959.000000;0.179364
5958.000000;0.179495
5957.000000;0.179641
5956.000000;0.179774
5955.000000;0.179877
5954.000000;0.179926
5953.000000;0.179906
5952.000000;0.179841
5951.000000;0.179781
5950.000000;0.179761
5949.000000;0.179786
5948.000000;0.179848
5947.000000;0.179937
5946.000000;0.180037
5945.000000;0.180130
5944.000000;0.180208
5943.000000;0.180282
5942.000000;0.180359
5941.000000;0.180441
5940.000000;0.180534
5939.000000;0.180646
5938.000000;0.180769
5937.000000;0.180882
5936.000000;0.180971
5935.000000;0.181039
5934.000000;0.181097
5933.000000;0.181160
5932.000000;0.181247
5931.000000;0.181370
5930.000000;0.181511
5929.000000;0.181637
5928.000000;0.181734
5927.000000;0.181823
5926.000000;0.181927
5925.000000;0.182046
5924.000000;0.182161
5923.000000;0.182250
5922.000000;0.182313
5921.000000;0.182367
5920.000000;0.182436
5919.000000;0.182527
5918.000000;0.182622
5917.000000;0.182706
5916.000000;0.182785
5915.000000;0.182873
5914.000000;0.182969
5913.000000;0.183061
5912.000000;0.183152
5911.000000;0.183251
5910.000000;0.183358
5909.000000;0.183458
5908.000000;0.183540
5907.000000;0.183608
5906.000000;0.183668
5905.000000;0.183729
5904.000000;0.183796
5903.000000;0.183864
5902.000000;0.183923
5901.000000;0.183977
5900.000000;0.184050
5899.000000;0.184161
5898.000000;0.184296
5897.000000;0.184422
5896.000000;0.184519
5895.000000;0.184600
5894.000000;0.184688
5893.000000;0.184796
5892.000000;0.184925
5891.000000;0.185065
5890.000000;0.185198
5889.000000;0.185327
5888.000000;0.185468
5887.000000;0.185622
5886.000000;0.185762
5885.000000;0.185872
5884.000000;0.185974
5883.000000;0.186102
5882.000000;0.186258
5881.000000;0.186415
5880.000000;0.186551
5879.000000;0.186669
5878.000000;0.186788
5877.000000;0.186928
5876.000000;0.187104
5875.000000;0.187310
5874.000000;0.187519
5873.000000;0.187715
5872.000000;0.187915
5871.000000;0.188137
5870.000000;0.188367
5869.000000;0.188571
5868.000000;0.188736
5867.000000;0.188881
5866.000000;0.189028
5865.000000;0.189185
5864.000000;0.189361
5863.000000;0.189564
5862.000000;0.189778
5861.000000;0.189976
5860.000000;0.190143
5859.000000;0.190292
5858.000000;0.190444
5857.000000;0.190613
5856.000000;0.190805
5855.000000;0.191023
5854.000000;0.191260
5853.000000;0.191506
5852.000000;0.191754
5851.000000;0.192001
5850.000000;0.192244
5849.000000;0.192485
5848.000000;0.192733
5847.000000;0.192992
5846.000000;0.193259
5845.000000;0.193535
5844.000000;0.193832
5843.000000;0.194151
5842.000000;0.194457
5841.000000;0.194711
5840.000000;0.194912
5839.000000;0.195099
5838.000000;0.195311
5837.000000;0.195563
5836.000000;0.195852
5835.000000;0.196158
5834.000000;0.196455
5833.000000;0.196728
5832.000000;0.196992
5831.000000;0.197272
5830.000000;0.197580
5829.000000;0.197910
5828.000000;0.198247
5827.000000;0.198581
5826.000000;0.198910
5825.000000;0.199238
5824.000000;0.199560
5823.000000;0.199854
5822.000000;0.200107
5821.000000;0.200339
5820.000000;0.200606
5819.000000;0.200934
5818.000000;0.201302
5817.000000;0.201672
5816.000000;0.202032
5815.000000;0.202391
5814.000000;0.202753
5813.000000;0.203121
5812.000000;0.203505
5811.000000;0.203901
5810.000000;0.204281
5809.000000;0.204626
5808.000000;0.204963
5807.000000;0.205330
5806.000000;0.205722
5805.000000;0.206100
5804.000000;0.206438
5803.000000;0.206756
5802.000000;0.207082
5801.000000;0.207431
5800.000000;0.207802
5799.000000;0.208184
5798.000000;0.208570
5797.000000;0.208955
5796.000000;0.209337
5795.000000;0.209698
5794.000000;0.210031
5793.000000;0.210362
5792.000000;0.210738
5791.000000;0.211169
5790.000000;0.211611
5789.000000;0.212020
5788.000000;0.212406
5787.000000;0.212808
5786.000000;0.213236
5785.000000;0.213671
5784.000000;0.214101
5783.000000;0.214529
5782.000000;0.214955
5781.000000;0.215380
5780.000000;0.215807
5779.000000;0.216237
5778.000000;0.216652
5777.000000;0.217045
5776.000000;0.217446
5775.000000;0.217894
5774.000000;0.218407
5773.000000;0.218963
5772.000000;0.219528
5771.000000;0.220055
5770.000000;0.220514
5769.000000;0.220920
5768.000000;0.221338
5767.000000;0.221811
5766.000000;0.222316
5765.000000;0.222803
5764.000000;0.223274
5763.000000;0.223767
5762.000000;0.224305
5761.000000;0.224870
5760.000000;0.225444
5759.000000;0.226014
5758.000000;0.226552
5757.000000;0.227031
5756.000000;0.227458
5755.000000;0.227872
5754.000000;0.228310
5753.000000;0.228793
5752.000000;0.229328
5751.000000;0.229908
5750.000000;0.230501
5749.000000;0.231063
5748.000000;0.231576
5747.000000;0.232046
5746.000000;0.232499
5745.000000;0.232969
5744.000000;0.233497
5743.000000;0.234098
5742.000000;0.234742
5741.000000;0.235388
5740.000000;0.236020
5739.000000;0.236635
5738.000000;0.237215
5737.000000;0.237760
5736.000000;0.238305
5735.000000;0.238894
5734.000000;0.239535
5733.000000;0.240199
5732.000000;0.240857
5731.000000;0.241485
5730.000000;0.242070
5729.000000;0.242631
5728.000000;0.243223
5727.000000;0.243886
5726.000000;0.244597
5725.000000;0.245305
5724.000000;0.245989
5723.000000;0.246658
5722.000000;0.247314
5721.000000;0.247952
5720.000000;0.248575
5719.000000;0.249198
5718.000000;0.249821
5717.000000;0.250455
5716.000000;0.251129
5715.000000;0.251854
5714.000000;0.252589
5713.000000;0.253281
5712.000000;0.253939
5711.000000;0.254615
5710.000000;0.255329
5709.000000;0.256053
5708.000000;0.256758
5707.000000;0.257435
5706.000000;0.258079
5705.000000;0.258691
5704.000000;0.259304
5703.000000;0.259968
5702.000000;0.260698
5701.000000;0.261472
5700.000000;0.262266
5699.000000;0.263069
5698.000000;0.263865
5697.000000;0.264628
5696.000000;0.265349
5695.000000;0.266038
5694.000000;0.266707
5693.000000;0.267368
5692.000000;0.268043
5691.000000;0.268745
5690.000000;0.269457
5689.000000;0.270162
5688.000000;0.270877
5687.000000;0.271630
5686.000000;0.272413
5685.000000;0.273189
5684.000000;0.273938
5683.000000;0.274662
5682.000000;0.275362
5681.000000;0.276037
5680.000000;0.276713
5679.000000;0.277417
5678.000000;0.278143
5677.000000;0.278870
5676.000000;0.279599
5675.000000;0.280353
5674.000000;0.281120
5673.000000;0.281853
5672.000000;0.282525
5671.000000;0.283161
5670.000000;0.283806
5669.000000;0.284488
5668.000000;0.285215
5667.000000;0.285977
5666.000000;0.286748
5665.000000;0.287504
5664.000000;0.288246
5663.000000;0.288995
5662.000000;0.289750
5661.000000;0.290499
5660.000000;0.291233
5659.000000;0.291944
5658.000000;0.292619
5657.000000;0.293250
5656.000000;0.293858
5655.000000;0.294469
5654.000000;0.295084
5653.000000;0.295689
5652.000000;0.296291
5651.000000;0.296904
5650.000000;0.297529
5649.000000;0.298163
5648.000000;0.298821
5647.000000;0.299502
5646.000000;0.300168
5645.000000;0.300793
5644.000000;0.301409
5643.000000;0.302064
5642.000000;0.302744
5641.000000;0.303394
5640.000000;0.303996
5639.000000;0.304579
5638.000000;0.305163
5637.000000;0.305734
5636.000000;0.306283
5635.000000;0.306818
5634.000000;0.307345
5633.000000;0.307868
5632.000000;0.308405
5631.000000;0.308957
5630.000000;0.309501
5629.000000;0.310010
5628.000000;0.310498
5627.000000;0.310992
5626.000000;0.311485
5625.000000;0.311961
5624.000000;0.312434
5623.000000;0.312930
5622.000000;0.313434
5621.000000;0.313902
5620.000000;0.314316
5619.000000;0.314692
5618.000000;0.315043
5617.000000;0.315379
5616.000000;0.315719
5615.000000;0.316077
5614.000000;0.316439
5613.000000;0.316793
5612.000000;0.317162
5611.000000;0.317574
5610.000000;0.318009
5609.000000;0.318424
5608.000000;0.318809
5607.000000;0.319177
5606.000000;0.319515
5605.000000;0.319803
5604.000000;0.320065
5603.000000;0.320349
5602.000000;0.320654
5601.000000;0.320951
5600.000000;0.321239
5599.000000;0.321534
5598.000000;0.321817
5597.000000;0.322055
5596.000000;0.322267
5595.000000;0.322507
5594.000000;0.322780
5593.000000;0.323038
5592.000000;0.323262
5591.000000;0.323465
5590.000000;0.323651
5589.000000;0.323812
5588.000000;0.323984
5587.000000;0.324210
5586.000000;0.324461
5585.000000;0.324656
5584.000000;0.324769
5583.000000;0.324849
5582.000000;0.324929
5581.000000;0.325006
5580.000000;0.325096
5579.000000;0.325244
5578.000000;0.325440
5577.000000;0.325606
5576.000000;0.325691
5575.000000;0.325724
5574.000000;0.325735
5573.000000;0.325726
5572.000000;0.325711
5571.000000;0.325726
5570.000000;0.325776
5569.000000;0.325833
5568.000000;0.325889
5567.000000;0.325974
5566.000000;0.326089
5565.000000;0.326186
5564.000000;0.326245
5563.000000;0.326290
5562.000000;0.326336
5561.000000;0.326355
5560.000000;0.326335
5559.000000;0.326298
5558.000000;0.326254
5557.000000;0.326197
5556.000000;0.326150
5555.000000;0.326151
5554.000000;0.326190
5553.000000;0.326215
5552.000000;0.326217
5551.000000;0.326226
5550.000000;0.326239
5549.000000;0.326222
5548.000000;0.326182
5547.000000;0.326163
5546.000000;0.326170
5545.000000;0.326157
5544.000000;0.326117
5543.000000;0.326078
5542.000000;0.326030
5541.000000;0.325937
5540.000000;0.325814
5539.000000;0.325718
5538.000000;0.325668
5537.000000;0.325648
5536.000000;0.325650
5535.000000;0.325670
5534.000000;0.325674
5533.000000;0.325640
5532.000000;0.325608
5531.000000;0.325618
5530.000000;0.325632
5529.000000;0.325586
5528.000000;0.325494
5527.000000;0.325430
5526.000000;0.325419
5525.000000;0.325402
5524.000000;0.325339
5523.000000;0.325245
5522.000000;0.325143
5521.000000;0.325063
5520.000000;0.325042
5519.000000;0.325075
5518.000000;0.325097
5517.000000;0.325051
5516.000000;0.324988
5515.000000;0.324991
5514.000000;0.325051
5513.000000;0.325121
5512.000000;0.325216
5511.000000;0.325358
5510.000000;0.325462
5509.000000;0.325443
5508.000000;0.325354
5507.000000;0.325322
5506.000000;0.325352
5505.000000;0.325330
5504.000000;0.325260
5503.000000;0.325274
5502.000000;0.325408
5501.000000;0.325573
5500.000000;0.325675
5499.000000;0.325717
5498.000000;0.325821
5497.000000;0.326073
5496.000000;0.326398
5495.000000;0.326624
5494.000000;0.326693
5493.000000;0.326760
5492.000000;0.326978
5491.000000;0.327291
5490.000000;0.327495
5489.000000;0.327484
5488.000000;0.327351
5487.000000;0.327244
5486.000000;0.327233
5485.000000;0.327303
5484.000000;0.327458
5483.000000;0.327692
5482.000000;0.327878
5481.000000;0.328003
5480.000000;0.328313
5479.000000;0.328925
5478.000000;0.329566
5477.000000;0.329879
5476.000000;0.329909
5475.000000;0.329944
5474.000000;0.330043
5473.000000;0.330119
5472.000000;0.330225
5471.000000;0.330448
5470.000000;0.330706
5469.000000;0.330957
5468.000000;0.331304
5467.000000;0.331777
5466.000000;0.332266
5465.000000;0.332721
5464.000000;0.333250
5463.000000;0.333861
5462.000000;0.334321
5461.000000;0.334571
5460.000000;0.334904
5459.000000;0.335427
5458.000000;0.335843
5457.000000;0.336003
5456.000000;0.336196
5455.000000;0.336681
5454.000000;0.337374
5453.000000;0.338069
5452.000000;0.338701
5451.000000;0.339326
5450.000000;0.340003
5449.000000;0.340846
5448.000000;0.341791
5447.000000;0.342520
5446.000000;0.342991
5445.000000;0.343606
5444.000000;0.344575
5443.000000;0.345556
5442.000000;0.346146
5441.000000;0.346491
5440.000000;0.347124
5439.000000;0.348253
5438.000000;0.349534
5437.000000;0.350571
5436.000000;0.351320
5435.000000;0.351957
5434.000000;0.352730
5433.000000;0.353874
5432.000000;0.355298
5431.000000;0.356566
5430.000000;0.357532
5429.000000;0.358552
5428.000000;0.359822
5427.000000;0.361103
5426.000000;0.362190
5425.000000;0.363197
5424.000000;0.364343
5423.000000;0.365692
5422.000000;0.367183
5421.000000;0.368703
5420.000000;0.370221
5419.000000;0.371899
5418.000000;0.373826
5417.000000;0.375816
5416.000000;0.377577
5415.000000;0.379127
5414.000000;0.380819
5413.000000;0.382789
5412.000000;0.384785
5411.000000;0.386572
5410.000000;0.388248
5409.000000;0.390097
5408.000000;0.392228
5407.000000;0.394503
5406.000000;0.396724
5405.000000;0.398910
5404.000000;0.401242
5403.000000;0.403730
5402.000000;0.406350
5401.000000;0.409082
5400.000000;0.411762
5399.000000;0.414405
5398.000000;0.417214
5397.000000;0.420259
5396.000000;0.423409
5395.000000;0.426554
5394.000000;0.429796
5393.000000;0.433161
5392.000000;0.436544
5391.000000;0.440001
5390.000000;0.443676
5389.000000;0.447484
5388.000000;0.451207
5387.000000;0.454867
5386.000000;0.458719
5385.000000;0.462928
5384.000000;0.467296
5383.000000;0.471555
5382.000000;0.475911
5381.000000;0.480691
5380.000000;0.485729
5379.000000;0.490663
5378.000000;0.495544
5377.000000;0.500704
5376.000000;0.506168
5375.000000;0.511688
5374.000000;0.517247
5373.000000;0.522969
5372.000000;0.528853
5371.000000;0.534898
5370.000000;0.541201
5369.000000;0.547794
5368.000000;0.554567
5367.000000;0.561451
5366.000000;0.568501
5365.000000;0.575820
5364.000000;0.583373
5363.000000;0.591085
5362.000000;0.599055
5361.000000;0.607285
5360.000000;0.615593
5359.000000;0.624029
5358.000000;0.632933
5357.000000;0.642371
5356.000000;0.651918
5355.000000;0.661361
5354.000000;0.671133
5353.000000;0.681633
5352.000000;0.692485
5351.000000;0.703083
5350.000000;0.713599
5349.000000;0.724726
5348.000000;0.736605
5347.000000;0.748761
5346.000000;0.760934
5345.000000;0.773365
5344.000000;0.786224
5343.000000;0.799391
5342.000000;0.812830
5341.000000;0.826456
5340.000000;0.840105
5339.000000;0.854016
5338.000000;0.868679
5337.000000;0.884179
5336.000000;0.900052
5335.000000;0.915842
5334.000000;0.931563
5333.000000;0.947638
5332.000000;0.964332
5331.000000;0.981473
5330.000000;0.998907
5329.000000;1.016674
5328.000000;1.034743
5327.000000;1.053047
5326.000000;1.071565
5325.000000;1.090196
5324.000000;1.108812
5323.000000;1.127536
5322.000000;1.146738
5321.000000;1.166486
5320.000000;1.186285
5319.000000;1.205733
5318.000000;1.225139
5317.000000;1.244997
5316.000000;1.265160
5315.000000;1.285118
5314.000000;1.304688
5313.000000;1.324031
5312.000000;1.343130
5311.000000;1.361786
5310.000000;1.380090
5309.000000;1.398317
5308.000000;1.416357
5307.000000;1.433792
5306.000000;1.450534
5305.000000;1.466819
5304.000000;1.482584
5303.000000;1.497558
5302.000000;1.511874
5301.000000;1.525915
5300.000000;1.539726
5299.000000;1.553182
5298.000000;1.566357
5297.000000;1.578982
5296.000000;1.590197
5295.000000;1.599576
5294.000000;1.607754
5293.000000;1.615545
5292.000000;1.623063
5291.000000;1.630308
5290.000000;1.637745
5289.000000;1.645405
5288.000000;1.652342
5287.000000;1.657822
5286.000000;1.662314
5285.000000;1.666520
5284.000000;1.670259
5283.000000;1.673354
5282.000000;1.676665
5281.000000;1.680959
5280.000000;1.685546
5279.000000;1.689268
5278.000000;1.692132
5277.000000;1.694727
5276.000000;1.696880
5275.000000;1.698290
5274.000000;1.699608
5273.000000;1.701577
5272.000000;1.703800
5271.000000;1.705418
5270.000000;1.706539
5269.000000;1.707835
5268.000000;1.709169
5267.000000;1.709964
5266.000000;1.710470
5265.000000;1.711458
5264.000000;1.712957
5263.000000;1.714431
5262.000000;1.715733
5261.000000;1.716861
5260.000000;1.717395
5259.000000;1.717294
5258.000000;1.717557
5257.000000;1.719078
5256.000000;1.721334
5255.000000;1.723054
5254.000000;1.723913
5253.000000;1.724574
5252.000000;1.725328
5251.000000;1.725694
5250.000000;1.725605
5249.000000;1.725821
5248.000000;1.726567
5247.000000;1.727167
5246.000000;1.727435
5245.000000;1.728159
5244.000000;1.729792
5243.000000;1.731591
5242.000000;1.732445
5241.000000;1.732093
5240.000000;1.731257
5239.000000;1.730885
5238.000000;1.731347
5237.000000;1.732219
5236.000000;1.732775
5235.000000;1.732579
5234.000000;1.731779
5233.000000;1.730885
5232.000000;1.730350
5231.000000;1.730462
5230.000000;1.731328
5229.000000;1.732625
5228.000000;1.733687
5227.000000;1.734270
5226.000000;1.734861
5225.000000;1.735838
5224.000000;1.736868
5223.000000;1.737476
5222.000000;1.737590
5221.000000;1.737244
5220.000000;1.736457
5219.000000;1.735672
5218.000000;1.735596
5217.000000;1.736282
5216.000000;1.736918
5215.000000;1.736928
5214.000000;1.736796
5213.000000;1.737262
5212.000000;1.738418
5211.000000;1.739967
5210.000000;1.741469
5209.000000;1.742057
5208.000000;1.741026
5207.000000;1.739125
5206.000000;1.738118
5205.000000;1.738592
5204.000000;1.739263
5203.000000;1.738887
5202.000000;1.737782
5201.000000;1.736882
5200.000000;1.736455
5199.000000;1.736538
5198.000000;1.737563
5197.000000;1.739569
5196.000000;1.741372
5195.000000;1.741677
5194.000000;1.740528
5193.000000;1.738734
5192.000000;1.736825
5191.000000;1.735364
5190.000000;1.735174
5189.000000;1.736254
5188.000000;1.737301
5187.000000;1.737301
5186.000000;1.736888
5185.000000;1.737139
5184.000000;1.737819
5183.000000;1.737967
5182.000000;1.737580
5181.000000;1.737439
5180.000000;1.737776
5179.000000;1.738205
5178.000000;1.738475
5177.000000;1.738336
5176.000000;1.737187
5175.000000;1.734927
5174.000000;1.732759
5173.000000;1.732130
5172.000000;1.733091
5171.000000;1.734451
5170.000000;1.735239
5169.000000;1.735296
5168.000000;1.734808
5167.000000;1.734132
5166.000000;1.733838
5165.000000;1.734228
5164.000000;1.734952
5163.000000;1.735569
5162.000000;1.736098
5161.000000;1.736521
5160.000000;1.736339
5159.000000;1.735339
5158.000000;1.734185
5157.000000;1.733475
5156.000000;1.732853
5155.000000;1.731834
5154.000000;1.730876
5153.000000;1.730679
5152.000000;1.730949
5151.000000;1.730759
5150.000000;1.729908
5149.000000;1.729047
5148.000000;1.728617
5147.000000;1.728464
5146.000000;1.728263
5145.000000;1.727667
5144.000000;1.726287
5143.000000;1.724337
5142.000000;1.722982
5141.000000;1.723221
5140.000000;1.724629
5139.000000;1.725945
5138.000000;1.726686
5137.000000;1.727302
5136.000000;1.727891
5135.000000;1.727784
5134.000000;1.726526
5133.000000;1.724524
5132.000000;1.722554
5131.000000;1.721216
5130.000000;1.720864
5129.000000;1.721403
5128.000000;1.722143
5127.000000;1.722380
5126.000000;1.722100
5125.000000;1.721683
5124.000000;1.721119
5123.000000;1.720130
5122.000000;1.718975
5121.000000;1.718404
5120.000000;1.718678
5119.000000;1.719183
5118.000000;1.719194
5117.000000;1.718698
5116.000000;1.718329
5115.000000;1.718676
5114.000000;1.719647
5113.000000;1.720358
5112.000000;1.719840
5111.000000;1.718080
5110.000000;1.716071
5109.000000;1.714651
5108.000000;1.713744
5107.000000;1.712987
5106.000000;1.712504
5105.000000;1.712536
5104.000000;1.712713
5103.000000;1.712453
5102.000000;1.711841
5101.000000;1.711402
5100.000000;1.711086
5099.000000;1.710173
5098.000000;1.708322
5097.000000;1.706124
5096.000000;1.704471
5095.000000;1.703795
5094.000000;1.703999
5093.000000;1.704799
5092.000000;1.705956
5091.000000;1.707233
5090.000000;1.708178
5089.000000;1.708101
5088.000000;1.706655
5087.000000;1.704570
5086.000000;1.703274
5085.000000;1.703439
5084.000000;1.704230
5083.000000;1.704374
5082.000000;1.703616
5081.000000;1.702655
5080.000000;1.701981
5079.000000;1.701422
5078.000000;1.700765
5077.000000;1.700151
5076.000000;1.699750
5075.000000;1.699448
5074.000000;1.698999
5073.000000;1.698302
5072.000000;1.697451
5071.000000;1.696703
5070.000000;1.696340
5069.000000;1.696389
5068.000000;1.696532
5067.000000;1.696407
5066.000000;1.695842
5065.000000;1.694773
5064.000000;1.693226
5063.000000;1.691507
5062.000000;1.690076
5061.000000;1.689037
5060.000000;1.688073
5059.000000;1.687109
5058.000000;1.686594
5057.000000;1.686778
5056.000000;1.687099
5055.000000;1.686757
5054.000000;1.685717
5053.000000;1.684726
5052.000000;1.684434
5051.000000;1.684818
5050.000000;1.685282
5049.000000;1.685049
5048.000000;1.683675
5047.000000;1.681466
5046.000000;1.679259
5045.000000;1.677666
5044.000000;1.676733
5043.000000;1.676329
5042.000000;1.676350
5041.000000;1.676309
5040.000000;1.675356
5039.000000;1.673250
5038.000000;1.670970
5037.000000;1.669841
5036.000000;1.670257
5035.000000;1.671516
5034.000000;1.672534
5033.000000;1.672435
5032.000000;1.670912
5031.000000;1.668606
5030.000000;1.666802
5029.000000;1.666224
5028.000000;1.666301
5027.000000;1.666001
5026.000000;1.665049
5025.000000;1.663818
5024.000000;1.662453
5023.000000;1.660884
5022.000000;1.659460
5021.000000;1.658703
5020.000000;1.658416
5019.000000;1.657738
5018.000000;1.656240
5017.000000;1.654419
5016.000000;1.652946
5015.000000;1.651891
5014.000000;1.650848
5013.000000;1.649441
5012.000000;1.647571
5011.000000;1.645485
5010.000000;1.643666
5009.000000;1.642372
5008.000000;1.641301
5007.000000;1.640004
5006.000000;1.638452
5005.000000;1.636939
5004.000000;1.635482
5003.000000;1.633928
5002.000000;1.632551
5001.000000;1.631789
5000.000000;1.631503
4999.000000;1.630889
4998.000000;1.629389
4997.000000;1.627302
4996.000000;1.625340
4995.000000;1.623937
4994.000000;1.623101
4993.000000;1.622563
4992.000000;1.621909
4991.000000;1.620900
4990.000000;1.619759
4989.000000;1.618810
4988.000000;1.617805
4987.000000;1.616045
4986.000000;1.613323
4985.000000;1.610308
4984.000000;1.607735
4983.000000;1.605617
4982.000000;1.603443
4981.000000;1.600854
4980.000000;1.597844
4979.000000;1.594658
4978.000000;1.591858
4977.000000;1.590144
4976.000000;1.589718
4975.000000;1.589824
4974.000000;1.589307
4973.000000;1.587681
4972.000000;1.585425
4971.000000;1.583267
4970.000000;1.581436
4969.000000;1.579696
4968.000000;1.577812
4967.000000;1.575791
4966.000000;1.573691
4965.000000;1.571385
4964.000000;1.568657
4963.000000;1.565593
4962.000000;1.562711
4961.000000;1.560502
4960.000000;1.558857
4959.000000;1.557170
4958.000000;1.555085
4957.000000;1.552863
4956.000000;1.550889
4955.000000;1.549050
4954.000000;1.546889
4953.000000;1.544243
4952.000000;1.541438
4951.000000;1.538863
4950.000000;1.536571
4949.000000;1.534343
4948.000000;1.531931
4947.000000;1.529236
4946.000000;1.526336
4945.000000;1.523427
4944.000000;1.520643
4943.000000;1.517929
4942.000000;1.515118
4941.000000;1.512114
4940.000000;1.508977
4939.000000;1.505838
4938.000000;1.502858
4937.000000;1.500225
4936.000000;1.498055
4935.000000;1.496250
4934.000000;1.494547
4933.000000;1.492730
4932.000000;1.490689
4931.000000;1.488293
4930.000000;1.485438
4929.000000;1.482348
4928.000000;1.479584
4927.000000;1.477460
4926.000000;1.475515
4925.000000;1.472886
4924.000000;1.469308
4923.000000;1.465477
4922.000000;1.462223
4921.000000;1.459552
4920.000000;1.456750
4919.000000;1.453367
4918.000000;1.449787
4917.000000;1.446731
4916.000000;1.444385
4915.000000;1.442225
4914.000000;1.439630
4913.000000;1.436559
4912.000000;1.433526
4911.000000;1.430961
4910.000000;1.428678
4909.000000;1.426042
4908.000000;1.422610
4907.000000;1.418559
4906.000000;1.414489
4905.000000;1.410950
4904.000000;1.408176
4903.000000;1.406015
4902.000000;1.403968
4901.000000;1.401423
4900.000000;1.398123
4899.000000;1.394436
4898.000000;1.391021
4897.000000;1.388208
4896.000000;1.385821
4895.000000;1.383521
4894.000000;1.381128
4893.000000;1.378568
4892.000000;1.375763
4891.000000;1.372691
4890.000000;1.369421
4889.000000;1.366003
4888.000000;1.362434
4887.000000;1.358838
4886.000000;1.355514
4885.000000;1.352625
4884.000000;1.349944
4883.000000;1.347056
4882.000000;1.343787
4881.000000;1.340293
4880.000000;1.336794
4879.000000;1.333386
4878.000000;1.330129
4877.000000;1.327119
4876.000000;1.324382
4875.000000;1.321770
4874.000000;1.319047
4873.000000;1.316071
4872.000000;1.312848
4871.000000;1.309471
4870.000000;1.306022
4869.000000;1.302537
4868.000000;1.299037
4867.000000;1.295586
4866.000000;1.292296
4865.000000;1.289235
4864.000000;1.286363
4863.000000;1.283576
4862.000000;1.280801
4861.000000;1.277998
4860.000000;1.275132
4859.000000;1.272194
4858.000000;1.269222
4857.000000;1.266200
4856.000000;1.263000
4855.000000;1.259546
4854.000000;1.256029
4853.000000;1.252794
4852.000000;1.249954
4851.000000;1.247227
4850.000000;1.244259
4849.000000;1.241015
4848.000000;1.237728
4847.000000;1.234551
4846.000000;1.231404
4845.000000;1.228167
4844.000000;1.224877
4843.000000;1.221680
4842.000000;1.218680
4841.000000;1.215848
4840.000000;1.213037
4839.000000;1.210062
4838.000000;1.206832
4837.000000;1.203440
4836.000000;1.200038
4835.000000;1.196644
4834.000000;1.193183
4833.000000;1.189732
4832.000000;1.186568
4831.000000;1.183833
4830.000000;1.181260
4829.000000;1.178424
4828.000000;1.175222
4827.000000;1.171946
4826.000000;1.168878
4825.000000;1.166008
4824.000000;1.163168
4823.000000;1.160263
4822.000000;1.157259
4821.000000;1.154096
4820.000000;1.150798
4819.000000;1.147579
4818.000000;1.144685
4817.000000;1.142121
4816.000000;1.139630
4815.000000;1.136949
4814.000000;1.133994
4813.000000;1.130814
4812.000000;1.127478
4811.000000;1.124125
4810.000000;1.120934
4809.000000;1.117991
4808.000000;1.115165
4807.000000;1.112227
4806.000000;1.109109
4805.000000;1.105952
4804.000000;1.102905
4803.000000;1.099945
4802.000000;1.096942
4801.000000;1.093859
4800.000000;1.090808
4799.000000;1.087873
4798.000000;1.084982
4797.000000;1.082022
4796.000000;1.079017
4795.000000;1.076086
4794.000000;1.073208
4793.000000;1.070183
4792.000000;1.066871
4791.000000;1.063410
4790.000000;1.060117
4789.000000;1.057213
4788.000000;1.054690
4787.000000;1.052375
4786.000000;1.050039
4785.000000;1.047506
4784.000000;1.044758
4783.000000;1.041938
4782.000000;1.039194
4781.000000;1.036513
4780.000000;1.033773
4779.000000;1.030935
4778.000000;1.028100
4777.000000;1.025359
4776.000000;1.022674
4775.000000;1.019932
4774.000000;1.017063
4773.000000;1.014097
4772.000000;1.011147
4771.000000;1.008348
4770.000000;1.005764
4769.000000;1.003313
4768.000000;1.000827
4767.000000;0.998207
4766.000000;0.995492
4765.000000;0.992781
4764.000000;0.990132
4763.000000;0.987549
4762.000000;0.984980
4761.000000;0.982305
4760.000000;0.979403
4759.000000;0.976293
4758.000000;0.973174
4757.000000;0.970278
4756.000000;0.967682
4755.000000;0.965292
4754.000000;0.962961
4753.000000;0.960575
4752.000000;0.958079
4751.000000;0.955497
4750.000000;0.952925
4749.000000;0.950450
4748.000000;0.948074
4747.000000;0.945748
4746.000000;0.943454
4745.000000;0.941196
4744.000000;0.938906
4743.000000;0.936457
4742.000000;0.933804
4741.000000;0.931062
4740.000000;0.928393
4739.000000;0.925860
4738.000000;0.923420
4737.000000;0.921043
4736.000000;0.918759
4735.000000;0.916584
4734.000000;0.914457
4733.000000;0.912278
4732.000000;0.910005
4731.000000;0.907662
4730.000000;0.905278
4729.000000;0.902844
4728.000000;0.900346
4727.000000;0.897813
4726.000000;0.895315
4725.000000;0.892912
4724.000000;0.890635
4723.000000;0.888503
4722.000000;0.886511
4721.000000;0.884582
4720.000000;0.882573
4719.000000;0.880395
4718.000000;0.878113
4717.000000;0.875890
4716.000000;0.873817
4715.000000;0.871829
4714.000000;0.869794
4713.000000;0.867650
4712.000000;0.865438
4711.000000;0.863255
4710.000000;0.861194
4709.000000;0.859294
4708.000000;0.857482
4707.000000;0.855616
4706.000000;0.853611
4705.000000;0.851514
4704.000000;0.849429
4703.000000;0.847389
4702.000000;0.845360
4701.000000;0.843323
4700.000000;0.841277
4699.000000;0.839192
4698.000000;0.837059
4697.000000;0.834986
4696.000000;0.833131
4695.000000;0.831503
4694.000000;0.829921
4693.000000;0.828234
4692.000000;0.826503
4691.000000;0.824874
4690.000000;0.823339
4689.000000;0.821726
4688.000000;0.819916
4687.000000;0.817944
4686.000000;0.815923
4685.000000;0.813950
4684.000000;0.812105
4683.000000;0.810444
4682.000000;0.808953
4681.000000;0.807545
4680.000000;0.806144
4679.000000;0.804725
4678.000000;0.803264
4677.000000;0.801708
4676.000000;0.800026
4675.000000;0.798234
4674.000000;0.796384
4673.000000;0.794532
4672.000000;0.792751
4671.000000;0.791097
4670.000000;0.789558
4669.000000;0.788060
4668.000000;0.786569
4667.000000;0.785130
4666.000000;0.783785
4665.000000;0.782507
4664.000000;0.781230
4663.000000;0.779928
4662.000000;0.778608
4661.000000;0.777261
4660.000000;0.775885
4659.000000;0.774521
4658.000000;0.773230
4657.000000;0.772022
4656.000000;0.770830
4655.000000;0.769548
4654.000000;0.768107
4653.000000;0.766526
4652.000000;0.764929
4651.000000;0.763470
4650.000000;0.762221
4649.000000;0.761131
4648.000000;0.760093
4647.000000;0.759041
4646.000000;0.757945
4645.000000;0.756783
4644.000000;0.755544
4643.000000;0.754259
4642.000000;0.752974
4641.000000;0.751700
4640.000000;0.750403
4639.000000;0.749067
4638.000000;0.747731
4637.000000;0.746478
4636.000000;0.745369
4635.000000;0.744386
4634.000000;0.743430
4633.000000;0.742400
4632.000000;0.741275
4631.000000;0.740122
4630.000000;0.739013
4629.000000;0.737971
4628.000000;0.736983
4627.000000;0.736020
4626.000000;0.735033
4625.000000;0.733990
4624.000000;0.732936
4623.000000;0.731966
4622.000000;0.731099
4621.000000;0.730240
4620.000000;0.729299
4619.000000;0.728321
4618.000000;0.727428
4617.000000;0.726681
4616.000000;0.726035
4615.000000;0.725408
4614.000000;0.724724
4613.000000;0.723934
4612.000000;0.723069
4611.000000;0.722253
4610.000000;0.721577
4609.000000;0.720965
4608.000000;0.720255
4607.000000;0.719407
4606.000000;0.718528
4605.000000;0.717703
4604.000000;0.716898
4603.000000;0.716080
4602.000000;0.715320
4601.000000;0.714686
4600.000000;0.714126
4599.000000;0.713532
4598.000000;0.712885
4597.000000;0.712237
4596.000000;0.711577
4595.000000;0.710832
4594.000000;0.710008
4593.000000;0.709232
4592.000000;0.708618
4591.000000;0.708136
4590.000000;0.707667
4589.000000;0.707140
4588.000000;0.706572
4587.000000;0.706022
4586.000000;0.705544
4585.000000;0.705194
4584.000000;0.705001
4583.000000;0.704907
4582.000000;0.704767
4581.000000;0.704473
4580.000000;0.704072
4579.000000;0.703730
4578.000000;0.703546
4577.000000;0.703427
4576.000000;0.703179
4575.000000;0.702715
4574.000000;0.702149
4573.000000;0.701664
4572.000000;0.701345
4571.000000;0.701160
4570.000000;0.701049
4569.000000;0.700984
4568.000000;0.700961
4567.000000;0.700967
4566.000000;0.700991
4565.000000;0.701011
4564.000000;0.700975
4563.000000;0.700844
4562.000000;0.700653
4561.000000;0.700523
4560.000000;0.700550
4559.000000;0.700705
4558.000000;0.700871
4557.000000;0.700966
4556.000000;0.701021
4555.000000;0.701130
4554.000000;0.701345
4553.000000;0.701632
4552.000000;0.701931
4551.000000;0.702224
4550.000000;0.702526
4549.000000;0.702822
4548.000000;0.703041
4547.000000;0.703134
4546.000000;0.703149
4545.000000;0.703216
4544.000000;0.703446
4543.000000;0.703855
4542.000000;0.704369
4541.000000;0.704877
4540.000000;0.705287
4539.000000;0.705577
4538.000000;0.705815
4537.000000;0.706101
4536.000000;0.706463
4535.000000;0.706845
4534.000000;0.707204
4533.000000;0.707583
4532.000000;0.708061
4531.000000;0.708638
4530.000000;0.709208
4529.000000;0.709635
4528.000000;0.709849
4527.000000;0.709908
4526.000000;0.709982
4525.000000;0.710240
4524.000000;0.710696
4523.000000;0.711163
4522.000000;0.711422
4521.000000;0.711447
4520.000000;0.711438
4519.000000;0.711624
4518.000000;0.712056
4517.000000;0.712586
4516.000000;0.713017
4515.000000;0.713261
4514.000000;0.713411
4513.000000;0.713663
4512.000000;0.714152
4511.000000;0.714855
4510.000000;0.715617
4509.000000;0.716266
4508.000000;0.716698
4507.000000;0.716912
4506.000000;0.717023
4505.000000;0.717217
4504.000000;0.717605
4503.000000;0.718134
4502.000000;0.718682
4501.000000;0.719230
4500.000000;0.719837
4499.000000;0.720473
4498.000000;0.721002
4497.000000;0.721398
4496.000000;0.721851
4495.000000;0.722562
4494.000000;0.723500
4493.000000;0.724441
4492.000000;0.725220
4491.000000;0.725859
4490.000000;0.726471
4489.000000;0.727142
4488.000000;0.727890
4487.000000;0.728678
4486.000000;0.729427
4485.000000;0.730084
4484.000000;0.730669
4483.000000;0.731238
4482.000000;0.731847
4481.000000;0.732570
4480.000000;0.733509
4479.000000;0.734674
4478.000000;0.735898
4477.000000;0.736966
4476.000000;0.737858
4475.000000;0.738767
4474.000000;0.739865
4473.000000;0.741118
4472.000000;0.742375
4471.000000;0.743571
4470.000000;0.744776
4469.000000;0.746074
4468.000000;0.747471
4467.000000;0.748904
4466.000000;0.750291
4465.000000;0.751583
4464.000000;0.752780
4463.000000;0.753948
4462.000000;0.755207
4461.000000;0.756649
4460.000000;0.758231
4459.000000;0.759778
4458.000000;0.761142
4457.000000;0.762389
4456.000000;0.763757
4455.000000;0.765385
4454.000000;0.767149
4453.000000;0.768808
4452.000000;0.770271
4451.000000;0.771645
4450.000000;0.773068
4449.000000;0.774592
4448.000000;0.776193
4447.000000;0.777828
4446.000000;0.779467
4445.000000;0.781141
4444.000000;0.782943
4443.000000;0.784913
4442.000000;0.786948
4441.000000;0.788899
4440.000000;0.790736
4439.000000;0.792514
4438.000000;0.794220
4437.000000;0.795789
4436.000000;0.797297
4435.000000;0.798976
4434.000000;0.800979
4433.000000;0.803223
4432.000000;0.805533
4431.000000;0.807833
4430.000000;0.810115
4429.000000;0.812319
4428.000000;0.814355
4427.000000;0.816230
4426.000000;0.818046
4425.000000;0.819902
4424.000000;0.821858
4423.000000;0.823947
4422.000000;0.826154
4421.000000;0.828387
4420.000000;0.830546
4419.000000;0.832628
4418.000000;0.834715
4417.000000;0.836885
4416.000000;0.839176
4415.000000;0.841591
4414.000000;0.844099
4413.000000;0.846634
4412.000000;0.849145
4411.000000;0.851653
4410.000000;0.854200
4409.000000;0.856744
4408.000000;0.859163
4407.000000;0.861400
4406.000000;0.863583
4405.000000;0.865946
4404.000000;0.868603
4403.000000;0.871407
4402.000000;0.874079
4401.000000;0.876478
4400.000000;0.878717
4399.000000;0.880995
4398.000000;0.883385
4397.000000;0.885837
4396.000000;0.888312
4395.000000;0.890808
4394.000000;0.893295
4393.000000;0.895749
4392.000000;0.898273
4391.000000;0.901018
4390.000000;0.903944
4389.000000;0.906766
4388.000000;0.909246
4387.000000;0.911486
4386.000000;0.913834
4385.000000;0.916529
4384.000000;0.919520
4383.000000;0.922571
4382.000000;0.925499
4381.000000;0.928301
4380.000000;0.931106
4379.000000;0.933994
4378.000000;0.936895
4377.000000;0.939699
4376.000000;0.942446
4375.000000;0.945282
4374.000000;0.948197
4373.000000;0.950950
4372.000000;0.953367
4371.000000;0.955647
4370.000000;0.958245
4369.000000;0.961444
4368.000000;0.965123
4367.000000;0.968915
4366.000000;0.972523
4365.000000;0.975911
4364.000000;0.979259
4363.000000;0.982753
4362.000000;0.986336
4361.000000;0.989692
4360.000000;0.992561
4359.000000;0.995081
4358.000000;0.997734
4357.000000;1.000861
4356.000000;1.004304
4355.000000;1.007616
4354.000000;1.010622
4353.000000;1.013663
4352.000000;1.017199
4351.000000;1.021231
4350.000000;1.025242
4349.000000;1.028768
4348.000000;1.031921
4347.000000;1.035230
4346.000000;1.039037
4345.000000;1.043194
4344.000000;1.047301
4343.000000;1.051089
4342.000000;1.054548
4341.000000;1.057843
4340.000000;1.061233
4339.000000;1.064966
4338.000000;1.069105
4337.000000;1.073469
4336.000000;1.077794
4335.000000;1.081954
4334.000000;1.085981
4333.000000;1.089927
4332.000000;1.093798
4331.000000;1.097614
4330.000000;1.101490
4329.000000;1.105591
4328.000000;1.110039
4327.000000;1.114828
4326.000000;1.119849
4325.000000;1.124926
4324.000000;1.129815
4323.000000;1.134224
4322.000000;1.138011
4321.000000;1.141410
4320.000000;1.144893
4319.000000;1.148660
4318.000000;1.152403
4317.000000;1.155748
4316.000000;1.158866
4315.000000;1.162402
4314.000000;1.166799
4313.000000;1.171890
4312.000000;1.177140
4311.000000;1.182078
4310.000000;1.186485
4309.000000;1.190453
4308.000000;1.194393
4307.000000;1.198750
4306.000000;1.203533
4305.000000;1.208264
4304.000000;1.212542
4303.000000;1.216532
4302.000000;1.220716
4301.000000;1.225306
4300.000000;1.230098
4299.000000;1.234827
4298.000000;1.239442
4297.000000;1.244019
4296.000000;1.248609
4295.000000;1.253240
4294.000000;1.257979
4293.000000;1.262912
4292.000000;1.268021
4291.000000;1.273111
4290.000000;1.277896
4289.000000;1.282213
4288.000000;1.286183
4287.000000;1.290117
4286.000000;1.294260
4285.000000;1.298667
4284.000000;1.303276
4283.000000;1.307978
4282.000000;1.312631
4281.000000;1.317149
4280.000000;1.321659
4279.000000;1.326461
4278.000000;1.331751
4277.000000;1.337419
4276.000000;1.343099
4275.000000;1.348447
4274.000000;1.353452
4273.000000;1.358560
4272.000000;1.364309
4271.000000;1.370614
4270.000000;1.376527
4269.000000;1.381067
4268.000000;1.384360
4267.000000;1.387651
4266.000000;1.392082
4265.000000;1.397667
4264.000000;1.403519
4263.000000;1.408877
4262.000000;1.413748
4261.000000;1.418690
4260.000000;1.424145
4259.000000;1.429857
4258.000000;1.434967
4257.000000;1.438903
4256.000000;1.442158
4255.000000;1.445955
4254.000000;1.451149
4253.000000;1.457715
4252.000000;1.465120
4251.000000;1.472669
4250.000000;1.479402
4249.000000;1.484384
4248.000000;1.487616
4247.000000;1.490578
4246.000000;1.495074
4245.000000;1.501448
4244.000000;1.508117
4243.000000;1.513051
4242.000000;1.515804
4241.000000;1.517963
4240.000000;1.521485
4239.000000;1.526770
4238.000000;1.532601
4237.000000;1.537947
4236.000000;1.543305
4235.000000;1.549743
4234.000000;1.557029
4233.000000;1.563489
4232.000000;1.567858
4231.000000;1.570772
4230.000000;1.574189
4229.000000;1.579657
4228.000000;1.587170
4227.000000;1.595239
4226.000000;1.602017
4225.000000;1.606853
4224.000000;1.610860
4223.000000;1.615701
4222.000000;1.621837
4221.000000;1.628149
4220.000000;1.633283
4219.000000;1.637161
4218.000000;1.641154
4217.000000;1.646986
4216.000000;1.655315
4215.000000;1.664822
4214.000000;1.672886
4213.000000;1.677882
4212.000000;1.680498
4211.000000;1.682024
4210.000000;1.682318
4209.000000;1.680949
4208.000000;1.679830
4207.000000;1.682753
4206.000000;1.691677
4205.000000;1.704558
4204.000000;1.717429
4203.000000;1.727923
4202.000000;1.736093
4201.000000;1.742798
4200.000000;1.748647
4199.000000;1.753917
4198.000000;1.758316
4197.000000;1.761248
4196.000000;1.762984
4195.000000;1.764782
4194.000000;1.767362
4193.000000;1.770357
4192.000000;1.773716
4191.000000;1.778387
4190.000000;1.784733
4189.000000;1.791332
4188.000000;1.796694
4187.000000;1.801628
4186.000000;1.808423
4185.000000;1.817922
4184.000000;1.828407
4183.000000;1.837242
4182.000000;1.842956
4181.000000;1.845949
4180.000000;1.847863
4179.000000;1.850150
4178.000000;1.852987
4177.000000;1.856040
4176.000000;1.860091
4175.000000;1.866382
4174.000000;1.874048
4173.000000;1.880128
4172.000000;1.883383
4171.000000;1.886640
4170.000000;1.893663
4169.000000;1.905003
4168.000000;1.918299
4167.000000;1.931028
4166.000000;1.940724
4165.000000;1.944222
4164.000000;1.940629
4163.000000;1.934956
4162.000000;1.934958
4161.000000;1.943199
4160.000000;1.953715
4159.000000;1.957917
4158.000000;1.954026
4157.000000;1.948374
4156.000000;1.948077
4155.000000;1.955480
4154.000000;1.968231
4153.000000;1.982084
4152.000000;1.993386
4151.000000;2.000233
4150.000000;2.003158
4149.000000;2.005367
4148.000000;2.010783
4147.000000;2.020451
4146.000000;2.030708
4145.000000;2.036562
4144.000000;2.037450
4143.000000;2.036970
4142.000000;2.037765
4141.000000;2.039687
4140.000000;2.042638
4139.000000;2.048185
4138.000000;2.056357
4137.000000;2.063102
4136.000000;2.064444
4135.000000;2.062951
4134.000000;2.065915
4133.000000;2.076972
4132.000000;2.092252
4131.000000;2.104391
4130.000000;2.109274
4129.000000;2.108754
4128.000000;2.108004
4127.000000;2.111198
4126.000000;2.118462
4125.000000;2.125893
4124.000000;2.129019
4123.000000;2.127377
4122.000000;2.125450
4121.000000;2.127974
4120.000000;2.135356
4119.000000;2.143881
4118.000000;2.149149
4117.000000;2.149774
4116.000000;2.148607
4115.000000;2.150135
4114.000000;2.156281
4113.000000;2.164461
4112.000000;2.170986
4111.000000;2.175930
4110.000000;2.181503
4109.000000;2.186671
4108.000000;2.188169
4107.000000;2.187076
4106.000000;2.189645
4105.000000;2.199837
4104.000000;2.214062
4103.000000;2.225021
4102.000000;2.229448
4101.000000;2.229792
4100.000000;2.229496
4099.000000;2.230335
4098.000000;2.233796
4097.000000;2.240975
4096.000000;2.250486
4095.000000;2.258827
4094.000000;2.263359
4093.000000;2.263121
4092.000000;2.257756
4091.000000;2.248570
4090.000000;2.239870
4089.000000;2.236371
4088.000000;2.238190
4087.000000;2.239932
4086.000000;2.237057
4085.000000;2.232516
4084.000000;2.234236
4083.000000;2.246287
4082.000000;2.263630
4081.000000;2.276445
4080.000000;2.280546
4079.000000;2.280493
4078.000000;2.281904
4077.000000;2.285711
4076.000000;2.290358
4075.000000;2.295199
4074.000000;2.299651
4073.000000;2.302365
4072.000000;2.304663
4071.000000;2.312679
4070.000000;2.332588
4069.000000;2.363101
4068.000000;2.392830
4067.000000;2.407798
4066.000000;2.404402
4065.000000;2.390817
4064.000000;2.375821
4063.000000;2.361472
4062.000000;2.346021
4061.000000;2.331138
4060.000000;2.322820
4059.000000;2.323658
4058.000000;2.328723
4057.000000;2.332274
4056.000000;2.334504
4055.000000;2.338442
4054.000000;2.344358
4053.000000;2.348898
4052.000000;2.347359
4051.000000;2.337996
4050.000000;2.324932
4049.000000;2.314917
4048.000000;2.312156
4047.000000;2.315456
4046.000000;2.318471
4045.000000;2.318388
4044.000000;2.324321
4043.000000;2.345102
4042.000000;2.372858
4041.000000;2.389610
4040.000000;2.389609
4039.000000;2.384974
4038.000000;2.388630
4037.000000;2.399993
4036.000000;2.407526
4035.000000;2.404415
4034.000000;2.396291
4033.000000;2.392198
4032.000000;2.396208
4031.000000;2.406078
4030.000000;2.415931
4029.000000;2.422427
4028.000000;2.428602
4027.000000;2.438563
4026.000000;2.451504
4025.000000;2.462284
4024.000000;2.469467
4023.000000;2.477940
4022.000000;2.489415
4021.000000;2.498841
4020.000000;2.499997
4019.000000;2.492413
4018.000000;2.480205
4017.000000;2.467082
4016.000000;2.456273
4015.000000;2.451774
4014.000000;2.456470
4013.000000;2.465890
4012.000000;2.468956
4011.000000;2.462590
4010.000000;2.454546
4009.000000;2.450018
4008.000000;2.448733
4007.000000;2.449733
4006.000000;2.451740
4005.000000;2.451889
4004.000000;2.449640
4003.000000;2.455281
4002.000000;2.485476
4001.000000;2.544001
4000.000000;2.608957
3999.000000;2.638438
3998.000000;2.608387
3997.000000;2.548599
3996.000000;2.507632
3995.000000;2.505666
3994.000000;2.528940
3993.000000;2.551917
3992.000000;2.565491
3991.000000;2.578499
3990.000000;2.601400
3989.000000;2.628882
3988.000000;2.638181
3987.000000;2.616971
3986.000000;2.578012
3985.000000;2.537524
3984.000000;2.511307
3983.000000;2.512493
3982.000000;2.533315
3981.000000;2.544807
3980.000000;2.527356
3979.000000;2.486291
3978.000000;2.439059
3977.000000;2.410214
3976.000000;2.419093
3975.000000;2.462799
3974.000000;2.512379
3973.000000;2.530867
3972.000000;2.514050
3971.000000;2.499432
3970.000000;2.515864
3969.000000;2.549651
3968.000000;2.559404
3967.000000;2.524145
3966.000000;2.473065
3965.000000;2.446911
3964.000000;2.453851
3963.000000;2.466913
3962.000000;2.471749
3961.000000;2.481888
3960.000000;2.504603
3959.000000;2.534215
3958.000000;2.552583
3957.000000;2.541412
3956.000000;2.503012
3955.000000;2.454904
3954.000000;2.407452
3953.000000;2.355973
3952.000000;2.298853
3951.000000;2.259441
3950.000000;2.264245
3949.000000;2.299437
3948.000000;2.319442
3947.000000;2.328794
3946.000000;2.378989
3945.000000;2.484986
3944.000000;2.593732
3943.000000;2.647770
3942.000000;2.661392
3941.000000;2.659827
3940.000000;2.661385
3939.000000;2.675325
3938.000000;2.699075
3937.000000;2.738780
3936.000000;2.789298
3935.000000;2.774240
3934.000000;2.709713
3933.000000;2.666828
3932.000000;2.635966
3931.000000;2.647158
3930.000000;2.705930
3929.000000;2.717330
3928.000000;2.584680
3927.000000;2.430431
3926.000000;2.337964
3925.000000;2.319728
3924.000000;2.370260
3923.000000;2.463012
3922.000000;2.556887
3921.000000;2.633044
3920.000000;2.705093
3919.000000;2.738757
3918.000000;2.696734
3917.000000;2.653068
3916.000000;2.674642
3915.000000;2.771134
3914.000000;2.913285
3913.000000;3.028565
3912.000000;3.048154
3911.000000;2.981618
3910.000000;2.884144
3909.000000;2.788387
3908.000000;2.666055
3907.000000;2.547637
3906.000000;2.523293
3905.000000;2.633569
3904.000000;2.738628
3903.000000;2.695387
3902.000000;2.676552
3901.000000;2.717509
3900.000000;2.767192
3899.000000;2.790871
3898.000000;2.784152
3897.000000;2.769063
3896.000000;2.762854
3895.000000;2.769553
3894.000000;2.799652
3893.000000;2.948820
3892.000000;3.403044
3891.000000;3.459708
3890.000000;3.330825
3889.000000;3.093795
3888.000000;2.716946
3887.000000;2.561325
3886.000000;2.470152
3885.000000;2.440331
3884.000000;2.480781
3883.000000;2.609543
3882.000000;2.748873
3881.000000;2.736827
3880.000000;2.665914
3879.000000;2.671958
3878.000000;2.804226
3877.000000;2.997851
3876.000000;2.891683
3875.000000;2.674007
3874.000000;2.544902
3873.000000;2.500125
3872.000000;2.493912
3871.000000;2.472371
3870.000000;2.437703
3869.000000;2.455143
3868.000000;2.568319
3867.000000;2.649588
3866.000000;2.568505
3865.000000;2.516556
3864.000000;2.608525
3863.000000;2.816948
3862.000000;3.073308
3861.000000;3.323236
3860.000000;3.028701
3859.000000;2.732260
3858.000000;2.649978
3857.000000;2.677535
3856.000000;2.733308
3855.000000;2.757652
3854.000000;2.830698
3853.000000;3.182802
3852.000000;3.375838
3851.000000;3.262555
3850.000000;3.301382
3849.000000;3.404888
3848.000000;3.509524
3847.000000;3.666049
3846.000000;4.202626
3845.000000;3.328436
3844.000000;2.982099
3843.000000;2.829737
3842.000000;2.886981
3841.000000;3.029094
3840.000000;2.862212
3839.000000;2.781864
3838.000000;2.913892
3837.000000;3.448847
3836.000000;3.477551
3835.000000;3.057214
3834.000000;3.031376
3833.000000;3.086123
3832.000000;3.246833
3831.000000;3.362910
3830.000000;3.244233
3829.000000;3.097658
3828.000000;3.038034
3827.000000;3.046722
3826.000000;3.035627
3825.000000;2.994349
3824.000000;2.982553
3823.000000;2.963934
3822.000000;2.916113
3821.000000;2.929792
3820.000000;3.125432
3819.000000;3.260824
3818.000000;3.043551
3817.000000;2.897008
3816.000000;2.878043
3815.000000;3.050872
3814.000000;3.227132
3813.000000;3.130005
3812.000000;3.105007
3811.000000;3.106496
3810.000000;3.044889
3809.000000;2.955073
3808.000000;2.839365
3807.000000;2.715584
3806.000000;2.664428
3805.000000;2.723267
3804.000000;2.848003
3803.000000;2.947631
3802.000000;3.013509
3801.000000;3.357161
3800.000000;3.423251
3799.000000;3.172331
3798.000000;3.238604
3797.000000;3.995226
3796.000000;3.272340
3795.000000;2.928451
3794.000000;2.876259
3793.000000;2.994537
3792.000000;3.428074
3791.000000;3.004226
3790.000000;2.614823
3789.000000;2.494678
3788.000000;2.531176
3787.000000;2.668084
3786.000000;2.815291
3785.000000;3.150281
3784.000000;3.581763
3783.000000;3.039736
3782.000000;2.854754
3781.000000;2.802958
3780.000000;2.829861
3779.000000;2.967676
3778.000000;3.112051
3777.000000;3.318843
3776.000000;3.308221
3775.000000;2.892890
3774.000000;2.670719
3773.000000;2.602181
3772.000000;2.598744
3771.000000;2.601137
3770.000000;2.602740
3769.000000;2.651862
3768.000000;2.754137
3767.000000;2.872284
3766.000000;3.011302
3765.000000;3.137232
3764.000000;3.065195
3763.000000;2.876944
3762.000000;2.765666
3761.000000;2.805106
3760.000000;2.926711
3759.000000;2.705375
3758.000000;2.523733
3757.000000;2.492898
3756.000000;2.468674
3755.000000;2.407149
3754.000000;2.315811
3753.000000;2.243663
3752.000000;2.260723
3751.000000;2.365864
3750.000000;2.504434
3749.000000;2.464566
3748.000000;2.342967
3747.000000;2.369464
3746.000000;2.598865
3745.000000;2.531701
3744.000000;2.750273
3743.000000;2.912933
3742.000000;2.909878
3741.000000;3.072380
3740.000000;3.121427
3739.000000;3.189858
3738.000000;3.325691
3737.000000;3.711157
3736.000000;3.252844
3735.000000;2.995919
3734.000000;2.953700
3733.000000;2.919122
3732.000000;2.846061
3731.000000;2.859452
3730.000000;3.084554
3729.000000;3.331964
3728.000000;3.345274
3727.000000;2.881916
3726.000000;2.855910
3725.000000;2.340144
3724.000000;2.379179
3723.000000;2.577241
3722.000000;2.602889
3721.000000;2.704363
3720.000000;2.751445
3719.000000;2.644371
3718.000000;2.445977
3717.000000;2.332861
3716.000000;2.358430
3715.000000;2.547075
3714.000000;2.723775
3713.000000;2.752904
3712.000000;2.770648
3711.000000;2.620720
3710.000000;2.480174
3709.000000;2.478347
3708.000000;2.646077
3707.000000;2.771608
3706.000000;2.751157
3705.000000;3.075408
3704.000000;2.992318
3703.000000;2.581363
3702.000000;2.512322
3701.000000;2.561322
3700.000000;2.675695
3699.000000;3.141632
3698.000000;3.168912
3697.000000;2.611479
3696.000000;2.433378
3695.000000;2.396685
3694.000000;2.453654
3693.000000;2.551865
3692.000000;2.612636
3691.000000;2.592591
3690.000000;2.522440
3689.000000;2.521717
3688.000000;2.550102
3687.000000;2.458162
3686.000000;2.460838
3685.000000;2.648563
3684.000000;2.977433
3683.000000;3.123554
3682.000000;2.895260
3681.000000;2.675901
3680.000000;2.643628
3679.000000;2.988500
3678.000000;2.896835
3677.000000;2.454567
3676.000000;2.294017
3675.000000;2.264645
3674.000000;2.418137
3673.000000;2.941008
3672.000000;3.136846
3671.000000;2.725231
3670.000000;2.563025
3669.000000;2.391108
3668.000000;2.366138
3667.000000;2.469739
3666.000000;2.513137
3665.000000;2.505158
3664.000000;2.486509
3663.000000;2.446674
3662.000000;2.435717
3661.000000;2.618000
3660.000000;2.840065
3659.000000;2.399013
3658.000000;2.181760
3657.000000;2.108249
3656.000000;2.140220
3655.000000;2.263822
3654.000000;2.346876
3653.000000;2.413176
3652.000000;2.596466
3651.000000;2.668973
3650.000000;2.234055
3649.000000;2.021470
3648.000000;2.055885
3647.000000;2.276410
3646.000000;2.667240
3645.000000;2.794150
3644.000000;2.494476
3643.000000;2.373662
3642.000000;2.436296
3641.000000;2.583584
3640.000000;2.580481
3639.000000;2.428698
3638.000000;2.334933
3637.000000;2.349054
3636.000000;2.391614
3635.000000;2.249421
3634.000000;2.029709
3633.000000;1.897738
3632.000000;1.881623
3631.000000;1.996327
3630.000000;2.220146
3629.000000;2.120938
3628.000000;1.953616
3627.000000;1.953296
3626.000000;2.024408
3625.000000;2.109023
3624.000000;2.198826
3623.000000;2.302534
3622.000000;2.276891
3621.000000;2.123428
3620.000000;2.040972
3619.000000;2.148727
3618.000000;2.203318
3617.000000;1.905018
3616.000000;1.729213
3615.000000;1.716348
3614.000000;1.846209
3613.000000;2.187341
3612.000000;2.610830
3611.000000;2.885251
3610.000000;2.711798
3609.000000;2.290956
3608.000000;2.126942
3607.000000;2.119796
3606.000000;2.194625
3605.000000;2.269528
3604.000000;2.294322
3603.000000;2.573028
3602.000000;2.851519
3601.000000;2.287909
3600.000000;2.216882
3599.000000;2.282036
3598.000000;2.272183
3597.000000;2.295419
3596.000000;2.691675
3595.000000;2.487124
3594.000000;1.983720
3593.000000;1.746578
3592.000000;1.661726
3591.000000;1.530942
3590.000000;1.804900
3589.000000;2.590065
3588.000000;1.632618
3587.000000;1.747451
3586.000000;2.527061
3585.000000;2.505043
3584.000000;2.496390
3583.000000;2.456997
3582.000000;2.269404
3581.000000;2.022745
3580.000000;1.894645
3579.000000;1.881610
3578.000000;1.967266
3577.000000;2.184904
3576.000000;2.585460
3575.000000;2.321808
3574.000000;2.214311
3573.000000;2.313406
3572.000000;2.335130
3571.000000;2.277347
3570.000000;2.393768
3569.000000;2.726742
3568.000000;2.520283
3567.000000;2.337034
3566.000000;2.300787
3565.000000;2.239064
3564.000000;2.161637
3563.000000;2.147804
3562.000000;2.228082
3561.000000;2.395872
3560.000000;2.328445
3559.000000;2.295973
3558.000000;2.458027
3557.000000;2.730767
3556.000000;2.733369
3555.000000;2.480651
3554.000000;2.255559
3553.000000;2.048571
3552.000000;1.942142
3551.000000;1.992371
3550.000000;2.327271
3549.000000;2.338998
3548.000000;1.963071
3547.000000;1.940810
3546.000000;2.089957
3545.000000;2.266588
3544.000000;2.377159
3543.000000;2.290545
3542.000000;2.155063
3541.000000;2.077828
3540.000000;2.073992
3539.000000;2.272228
3538.000000;2.541540
3537.000000;2.229360
3536.000000;2.107558
3535.000000;2.172803
3534.000000;2.228129
3533.000000;2.263130
3532.000000;2.212767
3531.000000;2.050247
3530.000000;1.931398
3529.000000;1.922172
3528.000000;2.046547
3527.000000;2.329543
3526.000000;2.305293
3525.000000;2.124019
3524.000000;2.155270
3523.000000;2.385126
3522.000000;2.583911
3521.000000;2.416207
3520.000000;2.270651
3519.000000;2.199957
3518.000000;2.199830
3517.000000;2.295890
3516.000000;2.625974
3515.000000;2.633755
3514.000000;2.221869
3513.000000;2.117890
3512.000000;2.173386
3511.000000;2.525712
3510.000000;3.009074
3509.000000;2.760361
3508.000000;2.659205
3507.000000;2.571029
3506.000000;3.025246
3505.000000;2.680344
3504.000000;2.213968
3503.000000;2.122293
3502.000000;2.145059
3501.000000;2.194612
3500.000000;2.250895
3499.000000;2.355655
3498.000000;2.549463
3497.000000;2.615359
3496.000000;2.350654
3495.000000;2.153243
3494.000000;2.088707
3493.000000;2.204320
3492.000000;2.474959
3491.000000;2.364016
3490.000000;2.210028
3489.000000;2.484793
3488.000000;2.905871
3487.000000;2.472122
3486.000000;2.496322
3485.000000;2.597910
3484.000000;2.535963
3483.000000;2.457994
3482.000000;2.293464
3481.000000;2.236207
3480.000000;2.295236
3479.000000;2.332280
3478.000000;2.279202
3477.000000;2.253677
3476.000000;2.324440
3475.000000;2.506261
3474.000000;2.749440
3473.000000;2.776363
3472.000000;2.733443
3471.000000;3.015399
3470.000000;2.875663
3469.000000;2.462057
3468.000000;2.406704
3467.000000;2.593978
3466.000000;2.682484
3465.000000;2.542201
3464.000000;2.607318
3463.000000;2.850685
3462.000000;2.683224
3461.000000;2.456007
3460.000000;2.433372
3459.000000;2.586503
3458.000000;2.784184
3457.000000;2.713089
3456.000000;2.745758
3455.000000;2.859899
3454.000000;2.605379
3453.000000;2.482594
3452.000000;2.679341
3451.000000;2.834810
3450.000000;2.413927
3449.000000;2.174364
3448.000000;2.102933
3447.000000;2.169990
3446.000000;2.348011
3445.000000;2.386214
3444.000000;2.313861
3443.000000;2.326907
3442.000000;2.381546
3441.000000;2.574771
3440.000000;3.052439
3439.000000;2.775572
3438.000000;2.524832
3437.000000;2.579070
3436.000000;2.767913
3435.000000;2.733294
3434.000000;2.577024
3433.000000;2.573293
3432.000000;2.601011
3431.000000;2.589850
3430.000000;2.545132
3429.000000;2.459916
3428.000000;2.399465
3427.000000;2.433845
3426.000000;2.513306
3425.000000;2.567551
3424.000000;2.619080
3423.000000;2.878238
3422.000000;3.185911
3421.000000;2.650956
3420.000000;2.435061
3419.000000;2.414010
3418.000000;2.486450
3417.000000;2.671586
3416.000000;2.779479
3415.000000;2.596168
3414.000000;2.350814
3413.000000;2.213456
3412.000000;2.207433
3411.000000;2.299451
3410.000000;2.394130
3409.000000;2.408853
3408.000000;2.378441
3407.000000;2.356923
3406.000000;2.383513
3405.000000;2.466449
3404.000000;2.502611
3403.000000;2.422955
3402.000000;2.352337
3401.000000;2.349012
3400.000000;2.437863
3399.000000;2.547145
3398.000000;2.648183
3397.000000;2.838880
3396.000000;2.673372
3395.000000;2.468207
3394.000000;2.425999
3393.000000;2.414697
3392.000000;2.413931
3391.000000;2.446200
3390.000000;2.511457
3389.000000;2.605574
3388.000000;2.826054
3387.000000;3.180779
3386.000000;3.222246
3385.000000;3.210421
3384.000000;3.019806
3383.000000;2.761803
3382.000000;2.721321
3381.000000;2.787735
3380.000000;2.773397
3379.000000;2.690760
3378.000000;2.604881
3377.000000;2.550506
3376.000000;2.504393
3375.000000;2.404657
3374.000000;2.304991
3373.000000;2.270479
3372.000000;2.322716
3371.000000;2.438043
3370.000000;2.587885
3369.000000;2.720118
3368.000000;2.988566
3367.000000;3.496022
3366.000000;2.969987
3365.000000;2.759042
3364.000000;2.770566
3363.000000;2.800440
3362.000000;2.983539
3361.000000;3.290131
3360.000000;2.987367
3359.000000;2.779965
3358.000000;2.806637
3357.000000;2.850839
3356.000000;2.782442
3355.000000;2.734155
3354.000000;2.644766
3353.000000;2.498341
3352.000000;2.436622
3351.000000;2.469937
3350.000000;2.521045
3349.000000;2.539989
3348.000000;2.501782
3347.000000;2.506658
3346.000000;2.575252
3345.000000;2.771918
3344.000000;3.498639
3343.000000;3.052874
3342.000000;2.729007
3341.000000;2.913024
3340.000000;3.282483
3339.000000;3.014776
3338.000000;2.881514
3337.000000;2.898650
3336.000000;2.818731
3335.000000;2.746973
3334.000000;2.692876
3333.000000;2.662307
3332.000000;2.631516
3331.000000;2.575206
3330.000000;2.481019
3329.000000;2.399171
3328.000000;2.403010
3327.000000;2.497009
3326.000000;2.656688
3325.000000;2.817109
3324.000000;2.865054
3323.000000;2.789930
3322.000000;2.715895
3321.000000;2.648624
3320.000000;2.729113
3319.000000;3.244549
3318.000000;3.073632
3317.000000;2.796997
3316.000000;2.982364
3315.000000;3.177478
3314.000000;2.788970
3313.000000;2.535116
3312.000000;2.439672
3311.000000;2.539841
3310.000000;3.014907
3309.000000;2.859227
3308.000000;2.514309
3307.000000;2.412871
3306.000000;2.407775
3305.000000;2.519369
3304.000000;2.763672
3303.000000;3.243044
3302.000000;3.345959
3301.000000;2.970913
3300.000000;2.777079
3299.000000;2.656718
3298.000000;2.635813
3297.000000;2.697824
3296.000000;2.746440
3295.000000;2.685452
3294.000000;2.605359
3293.000000;2.590812
3292.000000;2.637727
3291.000000;2.741672
3290.000000;2.754346
3289.000000;2.676590
3288.000000;2.649110
3287.000000;2.735857
3286.000000;2.943341
3285.000000;2.980539
3284.000000;3.005060
3283.000000;2.990163
3282.000000;2.752695
3281.000000;2.667658
3280.000000;2.725872
3279.000000;2.960163
3278.000000;3.302514
3277.000000;3.044258
3276.000000;2.938962
3275.000000;3.105563
3274.000000;3.020007
3273.000000;2.788777
3272.000000;2.783905
3271.000000;3.080910
3270.000000;3.377678
3269.000000;3.031411
3268.000000;2.823316
3267.000000;2.702445
3266.000000;2.611052
3265.000000;2.585708
3264.000000;2.588965
3263.000000;2.622944
3262.000000;2.669953
3261.000000;2.806979
3260.000000;3.198248
3259.000000;2.959096
3258.000000;2.584671
3257.000000;2.448251
3256.000000;2.450115
3255.000000;2.577576
3254.000000;2.761259
3253.000000;2.839878
3252.000000;2.761742
3251.000000;2.655778
3250.000000;2.601497
3249.000000;2.638584
3248.000000;2.767357
3247.000000;2.945864
3246.000000;3.087683
3245.000000;3.063251
3244.000000;2.964491
3243.000000;2.921915
3242.000000;2.945907
3241.000000;3.014076
3240.000000;3.047250
3239.000000;3.049046
3238.000000;2.925528
3237.000000;2.768948
3236.000000;2.703110
3235.000000;2.776118
3234.000000;2.987605
3233.000000;3.338784
3232.000000;3.676509
3231.000000;2.938246
3230.000000;2.609758
3229.000000;2.539245
3228.000000;2.622125
3227.000000;2.710663
3226.000000;2.574573
3225.000000;2.465292
3224.000000;2.489751
3223.000000;2.767618
3222.000000;3.107086
3221.000000;2.831343
3220.000000;2.769161
3219.000000;2.805004
3218.000000;3.216287
3217.000000;3.368661
3216.000000;2.737238
3215.000000;2.600304
3214.000000;2.574362
3213.000000;2.684191
3212.000000;2.824390
3211.000000;2.707811
3210.000000;2.617326
3209.000000;2.685737
3208.000000;2.831893
3207.000000;2.760768
3206.000000;2.644229
3205.000000;2.681173
3204.000000;2.741138
3203.000000;2.691612
3202.000000;2.735585
3201.000000;2.846791
3200.000000;2.827925
3199.000000;2.892085
3198.000000;3.026187
3197.000000;3.045164
3196.000000;3.246712
3195.000000;3.289850
3194.000000;2.904870
3193.000000;2.726895
3192.000000;2.663804
3191.000000;2.649032
3190.000000;2.647193
3189.000000;2.713607
3188.000000;2.863266
3187.000000;2.779938
3186.000000;2.665377
3185.000000;2.813264
3184.000000;2.935617
3183.000000;2.682824
3182.000000;2.532247
3181.000000;2.499606
3180.000000;2.536595
3179.000000;2.609072
3178.000000;2.668030
3177.000000;2.704585
3176.000000;2.728887
3175.000000;2.766159
3174.000000;2.954501
3173.000000;3.519576
3172.000000;3.342141
3171.000000;3.203899
3170.000000;3.381405
3169.000000;3.155737
3168.000000;3.109910
3167.000000;3.239763
3166.000000;3.119804
3165.000000;2.975580
3164.000000;2.924857
3163.000000;2.811206
3162.000000;2.712506
3161.000000;2.702947
3160.000000;2.696877
3159.000000;2.610510
3158.000000;2.497785
3157.000000;2.451514
3156.000000;2.509572
3155.000000;2.671335
3154.000000;2.905556
3153.000000;3.171379
3152.000000;3.493260
3151.000000;3.787643
3150.000000;3.521623
3149.000000;3.538275
3148.000000;3.417421
3147.000000;2.901921
3146.000000;2.664175
3145.000000;2.598178
3144.000000;2.613627
3143.000000;2.653918
3142.000000;2.687736
3141.000000;2.737564
3140.000000;2.868984
3139.000000;3.095829
3138.000000;3.183871
3137.000000;3.117336
3136.000000;3.026330
3135.000000;2.920822
3134.000000;2.835507
3133.000000;2.759372
3132.000000;2.707944
3131.000000;2.695209
3130.000000;2.676566
3129.000000;2.615611
3128.000000;2.581932
3127.000000;2.589693
3126.000000;2.656829
3125.000000;2.802821
3124.000000;3.152441
3123.000000;4.114663
3122.000000;3.355390
3121.000000;3.001768
3120.000000;2.778299
3119.000000;2.647451
3118.000000;2.668967
3117.000000;2.787176
3116.000000;2.924319
3115.000000;3.069740
3114.000000;3.501726
3113.000000;8.000000
3112.000000;3.667960
3111.000000;3.026001
3110.000000;2.694690
3109.000000;2.546188
3108.000000;2.481953
3107.000000;2.494665
3106.000000;2.582795
3105.000000;2.815335
3104.000000;3.453508
3103.000000;3.146913
3102.000000;2.882741
3101.000000;2.902860
3100.000000;2.800760
3099.000000;2.797181
3098.000000;2.888004
3097.000000;3.131839
3096.000000;3.692962
3095.000000;3.184428
3094.000000;3.079926
3093.000000;3.231690
3092.000000;3.526214
3091.000000;4.078806
3090.000000;3.364967
3089.000000;3.520845
3088.000000;3.434375
3087.000000;2.955139
3086.000000;2.840263
3085.000000;2.819189
3084.000000;2.800836
3083.000000;2.809342
3082.000000;2.918215
3081.000000;3.194528
3080.000000;3.323621
3079.000000;3.119897
3078.000000;2.982276
3077.000000;2.916689
3076.000000;2.955200
3075.000000;3.092374
3074.000000;3.002890
3073.000000;2.811718
3072.000000;2.748584
3071.000000;2.804420
3070.000000;2.982679
3069.000000;3.156694
3068.000000;3.055775
3067.000000;2.918942
3066.000000;2.887190
3065.000000;3.025811
3064.000000;3.298949
3063.000000;3.406443
3062.000000;3.240867
3061.000000;2.891619
3060.000000;2.671499
3059.000000;2.606889
3058.000000;2.671191
3057.000000;2.809426
3056.000000;2.811570
3055.000000;2.688570
3054.000000;2.615519
3053.000000;2.638934
3052.000000;2.750402
3051.000000;2.907723
3050.000000;2.881727
3049.000000;2.751485
3048.000000;2.729926
3047.000000;2.927396
3046.000000;3.450014
3045.000000;3.317657
3044.000000;3.298673
3043.000000;3.289197
3042.000000;3.158388
3041.000000;3.386491
3040.000000;3.095794
3039.000000;2.883410
3038.000000;2.862107
3037.000000;3.115942
3036.000000;3.739916
3035.000000;2.967682
3034.000000;2.707452
3033.000000;2.676516
3032.000000;2.822136
3031.000000;2.999883
3030.000000;2.903708
3029.000000;2.835279
3028.000000;2.760085
3027.000000;2.663742
3026.000000;2.633231
3025.000000;2.695510
3024.000000;2.911067
3023.000000;3.385991
3022.000000;3.213626
3021.000000;2.955859
3020.000000;2.951988
3019.000000;3.032232
3018.000000;3.167395
3017.000000;3.166027
3016.000000;2.999603
3015.000000;2.824503
3014.000000;2.725935
3013.000000;2.731680
3012.000000;2.850637
3011.000000;2.915185
3010.000000;2.797173
3009.000000;2.715581
3008.000000;2.702398
3007.000000;2.725094
3006.000000;2.771380
3005.000000;2.851559
3004.000000;2.967411
3003.000000;3.240035
3002.000000;3.470973
3001.000000;3.121002
3000.000000;2.913538
2999.000000;2.775322
2998.000000;2.680520
2997.000000;2.691830
2996.000000;2.794837
2995.000000;2.864639
2994.000000;2.835263
2993.000000;2.886052
2992.000000;3.058315
2991.000000;3.376053
2990.000000;4.146087
2989.000000;3.592654
2988.000000;3.150164
2987.000000;3.046656
2986.000000;3.156613
2985.000000;3.104269
2984.000000;2.866697
2983.000000;2.908803
2982.000000;3.240526
2981.000000;3.113838
2980.000000;2.879190
2979.000000;2.944231
2978.000000;3.317718
2977.000000;3.265552
2976.000000;2.927233
2975.000000;2.906058
2974.000000;2.873157
2973.000000;2.733124
2972.000000;2.655056
2971.000000;2.662686
2970.000000;2.760823
2969.000000;2.909885
2968.000000;3.002756
2967.000000;2.950774
2966.000000;2.997830
2965.000000;3.158175
2964.000000;2.970850
2963.000000;2.864112
2962.000000;2.948880
2961.000000;3.273381
2960.000000;3.316310
2959.000000;2.813779
2958.000000;2.637555
2957.000000;2.618896
2956.000000;2.704306
2955.000000;2.820067
2954.000000;2.821321
2953.000000;2.817073
2952.000000;3.055071
2951.000000;3.552087
2950.000000;3.093492
2949.000000;2.871811
2948.000000;2.852730
2947.000000;2.910531
2946.000000;3.076525
2945.000000;3.001953
2944.000000;2.795601
2943.000000;2.749406
2942.000000;2.863399
2941.000000;3.019801
2940.000000;2.959755
2939.000000;2.839136
2938.000000;2.843451
2937.000000;2.987565
2936.000000;3.021997
2935.000000;2.874919
2934.000000;2.788083
2933.000000;2.786349
2932.000000;2.859999
2931.000000;2.995999
2930.000000;3.040122
2929.000000;2.870974
2928.000000;2.752917
2927.000000;2.945386
2926.000000;3.312860
2925.000000;2.880050
2924.000000;2.679802
2923.000000;2.659051
2922.000000;2.746793
2921.000000;3.077010
2920.000000;3.553473
2919.000000;3.118258
2918.000000;2.790188
2917.000000;2.661976
2916.000000;2.666452
2915.000000;2.777262
2914.000000;2.907812
2913.000000;2.969562
2912.000000;3.025322
2911.000000;3.207663
2910.000000;3.073840
2909.000000;2.864722
2908.000000;2.818823
2907.000000;2.956483
2906.000000;3.360654
2905.000000;3.174064
2904.000000;2.937608
2903.000000;2.929337
2902.000000;2.966231
2901.000000;2.978818
2900.000000;2.986666
2899.000000;2.908245
2898.000000;2.732379
2897.000000;2.647357
2896.000000;2.664357
2895.000000;2.720534
2894.000000;2.710988
2893.000000;2.655904
2892.000000;2.615044
2891.000000;2.582800
2890.000000;2.584564
2889.000000;2.682350
2888.000000;3.067878
2887.000000;3.333409
2886.000000;3.113864
2885.000000;3.283348
2884.000000;3.185914
2883.000000;3.091365
2882.000000;3.389511
2881.000000;3.577398
2880.000000;3.262668
2879.000000;3.124448
2878.000000;3.096612
2877.000000;3.058543
2876.000000;2.918426
2875.000000;2.815312
2874.000000;2.854478
2873.000000;2.972976
2872.000000;3.023666
2871.000000;2.986271
2870.000000;2.991305
2869.000000;3.093246
2868.000000;3.226499
2867.000000;3.380594
2866.000000;3.114607
2865.000000;2.795453
2864.000000;2.687159
2863.000000;2.737324
2862.000000;2.910368
2861.000000;3.055810
2860.000000;3.041349
2859.000000;3.166499
2858.000000;3.850982
2857.000000;3.277853
2856.000000;2.881069
2855.000000;2.747093
2854.000000;2.695638
2853.000000;2.731613
2852.000000;2.880216
2851.000000;3.169148
2850.000000;3.207660
2849.000000;3.081510
2848.000000;3.117930
2847.000000;3.265203
2846.000000;3.387173
2845.000000;3.408247
2844.000000;3.346688
2843.000000;3.250716
2842.000000;3.233785
2841.000000;3.115156
2840.000000;3.124434
2839.000000;3.410436
2838.000000;3.048129
2837.000000;2.853548
2836.000000;3.055928
2835.000000;3.007122
2834.000000;2.792826
2833.000000;2.788205
2832.000000;2.877046
2831.000000;2.948207
2830.000000;2.925961
2829.000000;2.930923
2828.000000;3.053647
2827.000000;3.001956
2826.000000;2.829563
2825.000000;2.816612
2824.000000;2.999702
2823.000000;3.343255
2822.000000;3.494082
2821.000000;3.693768
2820.000000;3.555691
2819.000000;3.122919
2818.000000;2.956095
2817.000000;2.921434
2816.000000;3.111544
2815.000000;3.293053
2814.000000;3.014200
2813.000000;2.914241
2812.000000;2.958872
2811.000000;3.023027
2810.000000;3.105467
2809.000000;3.255557
2808.000000;3.566418
2807.000000;4.016162
2806.000000;3.568813
2805.000000;3.370060
2804.000000;3.338904
2803.000000;3.075061
2802.000000;2.938198
2801.000000;3.002232
2800.000000;3.045354
2799.000000;2.973697
2798.000000;2.985495
2797.000000;3.146787
2796.000000;3.554419
2795.000000;3.579923
2794.000000;3.215118
2793.000000;3.293328
2792.000000;3.735941
2791.000000;3.503668
2790.000000;3.307984
2789.000000;3.700918
2788.000000;3.604229
2787.000000;3.102637
2786.000000;3.038914
2785.000000;3.173526
2784.000000;3.399262
2783.000000;3.159541
2782.000000;2.883989
2781.000000;2.814500
2780.000000;2.850762
2779.000000;2.873212
2778.000000;2.885291
2777.000000;3.039359
2776.000000;3.165177
2775.000000;2.967445
2774.000000;2.862148
2773.000000;2.902102
2772.000000;2.989248
2771.000000;2.997520
2770.000000;2.902149
2769.000000;2.830583
2768.000000;2.821821
2767.000000;2.833296
2766.000000;2.865030
2765.000000;2.932731
2764.000000;2.912264
2763.000000;2.843693
2762.000000;2.952913
2761.000000;3.081537
2760.000000;2.891691
2759.000000;2.814459
2758.000000;2.917561
2757.000000;3.001369
2756.000000;2.933924
2755.000000;2.882121
2754.000000;2.928871
2753.000000;3.107640
2752.000000;3.591103
2751.000000;3.789010
2750.000000;3.392609
2749.000000;3.260482
2748.000000;3.197923
2747.000000;3.356148
2746.000000;3.639961
2745.000000;3.317280
2744.000000;3.229774
2743.000000;3.207677
2742.000000;3.290707
2741.000000;3.438170
2740.000000;3.103948
2739.000000;2.898697
2738.000000;2.807080
2737.000000;2.779372
2736.000000;2.809347
2735.000000;2.792244
2734.000000;2.688903
2733.000000;2.602166
2732.000000;2.567910
2731.000000;2.590872
2730.000000;2.687184
2729.000000;2.890970
2728.000000;3.317408
2727.000000;3.871241
2726.000000;3.563752
2725.000000;3.452801
2724.000000;3.675606
2723.000000;3.350180
2722.000000;3.002925
2721.000000;2.904251
2720.000000;2.915945
2719.000000;2.954790
2718.000000;3.008620
2717.000000;2.997540
2716.000000;2.893047
2715.000000;2.798009
2714.000000;2.731671
2713.000000;2.673154
2712.000000;2.632446
2711.000000;2.629366
2710.000000;2.667261
2709.000000;2.715371
2708.000000;2.734899
2707.000000;2.750496
2706.000000;2.791176
2705.000000;2.849917
2704.000000;2.906269
2703.000000;2.990413
2702.000000;3.051618
2701.000000;2.980541
2700.000000;2.915906
2699.000000;3.033991
2698.000000;3.520898
2697.000000;3.549639
2696.000000;3.399144
2695.000000;3.283228
2694.000000;3.142542
2693.000000;3.238092
2692.000000;3.328148
2691.000000;3.235728
2690.000000;3.337334
2689.000000;3.383574
2688.000000;3.103460
2687.000000;2.979593
2686.000000;2.991430
2685.000000;3.034647
2684.000000;2.999220
2683.000000;2.973420
2682.000000;2.999709
2681.000000;3.004934
2680.000000;3.009040
2679.000000;3.019561
2678.000000;2.981159
2677.000000;2.915998
2676.000000;2.899340
2675.000000;2.956007
2674.000000;3.011315
2673.000000;2.959570
2672.000000;2.885632
2671.000000;2.888246
2670.000000;2.982315
2669.000000;3.116321
2668.000000;3.098002
2667.000000;2.921681
2666.000000;2.824528
2665.000000;2.856011
2664.000000;3.041829
2663.000000;3.437035
2662.000000;3.124872
2661.000000;2.833952
2660.000000;2.775110
2659.000000;2.918573
2658.000000;3.378427
2657.000000;3.233731
2656.000000;2.919587
2655.000000;2.918635
2654.000000;3.006094
2653.000000;3.073781
2652.000000;3.086886
2651.000000;3.104003
2650.000000;3.176843
2649.000000;3.556701
2648.000000;3.726666
2647.000000;3.255825
2646.000000;3.159678
2645.000000;3.228011
2644.000000;3.346927
2643.000000;3.279702
2642.000000;3.082689
2641.000000;2.975091
2640.000000;2.984087
2639.000000;3.088485
2638.000000;3.149335
2637.000000;3.127982
2636.000000;3.152241
2635.000000;3.174979
2634.000000;3.155747
2633.000000;3.178977
2632.000000;3.365276
2631.000000;3.370914
2630.000000;3.106242
2629.000000;3.054514
2628.000000;3.111656
2627.000000;3.154430
2626.000000;3.167340
2625.000000;3.242913
2624.000000;3.638020
2623.000000;3.715587
2622.000000;3.358218
2621.000000;3.291994
2620.000000;3.091059
2619.000000;2.929156
2618.000000;2.937607
2617.000000;3.105106
2616.000000;3.221292
2615.000000;3.236175
2614.000000;3.310793
2613.000000;3.190218
2612.000000;3.022606
2611.000000;2.942090
2610.000000;2.954175
2609.000000;3.065055
2608.000000;3.209081
2607.000000;3.236254
2606.000000;3.094350
2605.000000;2.951484
2604.000000;2.922362
2603.000000;3.006235
2602.000000;3.106964
2601.000000;3.074012
2600.000000;3.001354
2599.000000;3.188163
2598.000000;3.543309
2597.000000;3.105761
2596.000000;2.910540
2595.000000;2.942476
2594.000000;3.049741
2593.000000;3.101076
2592.000000;3.043138
2591.000000;2.965551
2590.000000;2.915473
2589.000000;2.931854
2588.000000;3.070300
2587.000000;3.409814
2586.000000;3.416184
2585.000000;3.280784
2584.000000;3.309641
2583.000000;3.175239
2582.000000;3.029612
2581.000000;3.002851
2580.000000;3.236476
2579.000000;3.885593
2578.000000;3.109588
2577.000000;2.936212
2576.000000;2.988513
2575.000000;3.162855
2574.000000;3.270006
2573.000000;3.233546
2572.000000;3.256690
2571.000000;3.222414
2570.000000;3.042516
2569.000000;2.938225
2568.000000;3.010059
2567.000000;3.273243
2566.000000;3.544446
2565.000000;3.540650
2564.000000;3.374448
2563.000000;3.127951
2562.000000;2.935372
2561.000000;2.820197
2560.000000;2.768309
2559.000000;2.772268
2558.000000;2.818430
2557.000000;2.901782
2556.000000;3.022470
2555.000000;3.298290
2554.000000;3.876709
2553.000000;3.283869
2552.000000;3.099186
2551.000000;2.988828
2550.000000;2.844883
2549.000000;2.757640
2548.000000;2.762146
2547.000000;2.846926
2546.000000;3.178754
2545.000000;3.489295
2544.000000;3.011790
2543.000000;2.862890
2542.000000;2.834065
2541.000000;2.879814
2540.000000;2.982387
2539.000000;3.083046
2538.000000;3.054869
2537.000000;2.954669
2536.000000;2.952576
2535.000000;3.138941
2534.000000;3.812060
2533.000000;3.284161
2532.000000;2.971116
2531.000000;2.872314
2530.000000;2.848534
2529.000000;2.885810
2528.000000;2.976701
2527.000000;3.163027
2526.000000;3.405096
2525.000000;3.450318
2524.000000;3.464227
2523.000000;3.504543
2522.000000;3.391175
2521.000000;3.295516
2520.000000;3.436743
2519.000000;3.836437
2518.000000;3.497160
2517.000000;3.253470
2516.000000;3.253867
2515.000000;3.222280
2514.000000;3.106746
2513.000000;2.974884
2512.000000;2.878675
2511.000000;2.830240
2510.000000;2.850092
2509.000000;2.934926
2508.000000;2.988796
2507.000000;2.916718
2506.000000;2.827957
2505.000000;2.829593
2504.000000;2.909253
2503.000000;2.886690
2502.000000;2.767999
2501.000000;2.710440
2500.000000;2.727125
2499.000000;2.809251
2498.000000;2.939691
2497.000000;3.062609
2496.000000;3.132821
2495.000000;3.091109
2494.000000;2.970095
2493.000000;2.897996
2492.000000;2.926845
2491.000000;3.140657
2490.000000;3.306974
2489.000000;3.072601
2488.000000;2.961409
2487.000000;2.953489
2486.000000;2.982326
2485.000000;3.066012
2484.000000;3.411028
2483.000000;3.658835
2482.000000;3.200573
2481.000000;3.041779
2480.000000;3.090734
2479.000000;3.434356
2478.000000;3.698878
2477.000000;3.306211
2476.000000;3.159194
2475.000000;3.063345
2474.000000;2.990278
2473.000000;2.940099
2472.000000;2.898755
2471.000000;2.871276
2470.000000;2.889135
2469.000000;3.005775
2468.000000;3.329041
2467.000000;3.443937
2466.000000;3.160817
2465.000000;3.109685
2464.000000;3.048513
2463.000000;2.946447
2462.000000;2.848828
2461.000000;2.799314
2460.000000;2.790034
2459.000000;2.788889
2458.000000;2.816444
2457.000000;2.895214
2456.000000;3.177502
2455.000000;3.328618
2454.000000;2.961794
2453.000000;2.876203
2452.000000;3.033782
2451.000000;3.298316
2450.000000;3.270765
2449.000000;3.126744
2448.000000;3.052980
2447.000000;3.090787
2446.000000;3.324049
2445.000000;3.944781
2444.000000;3.502151
2443.000000;3.347189
2442.000000;3.360204
2441.000000;3.226719
2440.000000;3.119513
2439.000000;3.210254
2438.000000;3.347796
2437.000000;3.750454
2436.000000;3.630963
2435.000000;3.060337
2434.000000;2.887097
2433.000000;2.837297
2432.000000;2.916369
2431.000000;3.156292
2430.000000;3.839099
2429.000000;3.352442
2428.000000;2.994126
2427.000000;2.867771
2426.000000;2.826398
2425.000000;2.852960
2424.000000;2.895278
2423.000000;2.969677
2422.000000;3.121677
2421.000000;3.356570
2420.000000;3.603895
2419.000000;3.653417
2418.000000;3.426204
2417.000000;3.203271
2416.000000;3.106496
2415.000000;3.154339
2414.000000;3.312766
2413.000000;3.331214
2412.000000;3.229225
2411.000000;3.241163
2410.000000;3.332575
2409.000000;3.433548
2408.000000;3.379754
2407.000000;3.210440
2406.000000;3.120664
2405.000000;3.124252
2404.000000;3.120034
2403.000000;3.107596
2402.000000;3.175998
2401.000000;3.405449
2400.000000;3.382180
2399.000000;3.131624
2398.000000;3.059766
2397.000000;3.169041
2396.000000;3.422084
2395.000000;3.453315
2394.000000;3.321861
2393.000000;3.212432
2392.000000;3.208996
2391.000000;3.279308
2390.000000;3.145666
2389.000000;3.023363
2388.000000;3.065783
2387.000000;3.185563
2386.000000;3.199572
2385.000000;3.219924
2384.000000;3.299130
2383.000000;3.307366
2382.000000;3.259715
2381.000000;3.252617
2380.000000;3.306222
2379.000000;3.333472
2378.000000;3.336704
2377.000000;3.396164
2376.000000;3.485150
2375.000000;3.388572
2374.000000;3.270251
2373.000000;3.276860
2372.000000;3.326429
2371.000000;3.296990
2370.000000;3.258912
2369.000000;3.302718
2368.000000;3.301047
2367.000000;3.217969
2366.000000;3.223602
2365.000000;3.480546
2364.000000;4.384597
2363.000000;3.391324
2362.000000;3.298605
2361.000000;3.418085
2360.000000;3.567355
2359.000000;3.342948
2358.000000;3.219289
2357.000000;3.311150
2356.000000;3.551557
2355.000000;3.387183
2354.000000;3.211928
2353.000000;3.181430
2352.000000;3.193600
2351.000000;3.366258
2350.000000;3.427828
2349.000000;3.266302
2348.000000;3.318559
2347.000000;3.437068
2346.000000;3.508347
2345.000000;3.490266
2344.000000;3.470845
2343.000000;3.483172
2342.000000;3.487936
2341.000000;3.435964
2340.000000;3.373319
2339.000000;3.394892
2338.000000;3.564329
2337.000000;4.063788
2336.000000;3.921283
2335.000000;3.809983
2334.000000;3.846920
2333.000000;3.427923
2332.000000;3.230716
2331.000000;3.142925
2330.000000;3.103160
2329.000000;3.104515
2328.000000;3.142561
2327.000000;3.254698
2326.000000;3.466482
2325.000000;4.082611
2324.000000;3.922970
2323.000000;3.455842
2322.000000;3.264959
2321.000000;3.180426
2320.000000;3.191291
2319.000000;3.260633
2318.000000;3.352231
2317.000000;3.484847
2316.000000;3.652752
2315.000000;4.059464
2314.000000;3.956439
2313.000000;3.424474
2312.000000;3.206150
2311.000000;3.158959
2310.000000;3.284320
2309.000000;3.645187
2308.000000;3.620775
2307.000000;3.333399
2306.000000;3.264072
2305.000000;3.257324
2304.000000;3.216202
2303.000000;3.134083
2302.000000;3.089550
2301.000000;3.110487
2300.000000;3.180302
2299.000000;3.224402
2298.000000;3.151875
2297.000000;3.083687
2296.000000;3.111031
2295.000000;3.391792
2294.000000;3.332881
2293.000000;3.071354
2292.000000;3.042545
2291.000000;3.137391
2290.000000;3.173736
2289.000000;3.151558
2288.000000;3.203088
2287.000000;3.342768
2286.000000;3.628425
2285.000000;3.679736
2284.000000;3.359555
2283.000000;3.322687
2282.000000;3.434633
2281.000000;3.490860
2280.000000;3.420415
2279.000000;3.319774
2278.000000;3.456603
2277.000000;3.518216
2276.000000;3.149813
2275.000000;3.071436
2274.000000;3.228004
2273.000000;3.192568
2272.000000;2.979239
2271.000000;2.959868
2270.000000;3.137163
2269.000000;3.498675
2268.000000;3.337079
2267.000000;3.310375
2266.000000;3.581034
2265.000000;3.304487
2264.000000;3.222712
2263.000000;3.658513
2262.000000;3.638832
2261.000000;3.415658
2260.000000;3.932919
2259.000000;3.262840
2258.000000;2.983810
2257.000000;2.921718
2256.000000;3.008500
2255.000000;3.221481
2254.000000;3.476464
2253.000000;3.466181
2252.000000;3.277096
2251.000000;3.378005
2250.000000;3.772425
2249.000000;3.368894
2248.000000;3.159613
2247.000000;3.201597
2246.000000;3.329332
2245.000000;3.450509
2244.000000;3.536331
2243.000000;3.439723
2242.000000;3.322338
2241.000000;3.346544
2240.000000;3.851058
2239.000000;3.809866
2238.000000;3.594947
2237.000000;3.738083
2236.000000;3.370145
2235.000000;3.231170
2234.000000;3.275738
2233.000000;3.319460
2232.000000;3.203395
2231.000000;3.055436
2230.000000;2.992578
2229.000000;3.037574
2228.000000;3.197718
2227.000000;3.491005
2226.000000;3.688599
2225.000000;3.550588
2224.000000;3.488540
2223.000000;3.442581
2222.000000;3.402640
2221.000000;3.395444
2220.000000;3.389530
2219.000000;3.323816
2218.000000;3.287786
2217.000000;3.427777
2216.000000;3.643863
2215.000000;3.538070
2214.000000;3.430904
2213.000000;3.379729
2212.000000;3.396525
2211.000000;3.488263
2210.000000;3.482342
2209.000000;3.440492
2208.000000;3.439663
2207.000000;3.388661
2206.000000;3.311152
2205.000000;3.305401
2204.000000;3.381743
2203.000000;3.476576
2202.000000;3.527193
2201.000000;3.550524
2200.000000;3.382475
2199.000000;3.186155
2198.000000;3.124291
2197.000000;3.179615
2196.000000;3.311611
2195.000000;3.475592
2194.000000;3.653148
2193.000000;3.713146
2192.000000;3.575680
2191.000000;4.004578
2190.000000;3.673220
2189.000000;3.294256
2188.000000;3.318866
2187.000000;3.366372
2186.000000;3.295576
2185.000000;3.261622
2184.000000;3.331738
2183.000000;3.343470
2182.000000;3.196011
2181.000000;3.105493
2180.000000;3.148543
2179.000000;3.322686
2178.000000;3.520015
2177.000000;3.578722
2176.000000;3.591529
2175.000000;3.458803
2174.000000;3.410482
2173.000000;3.418526
2172.000000;3.284003
2171.000000;3.172759
2170.000000;3.191694
2169.000000;3.369776
2168.000000;3.675583
2167.000000;3.773247
2166.000000;4.011235
2165.000000;3.671445
2164.000000;3.339838
2163.000000;3.324616
2162.000000;3.447582
2161.000000;3.876260
2160.000000;4.094113
2159.000000;3.809492
2158.000000;3.892554
2157.000000;3.957592
2156.000000;3.868603
2155.000000;3.773816
2154.000000;3.707201
2153.000000;3.576095
2152.000000;3.370320
2151.000000;3.255274
2150.000000;3.374167
2149.000000;4.076550
2148.000000;3.271677
2147.000000;3.063017
2146.000000;3.052612
2145.000000;3.198286
2144.000000;3.414664
2143.000000;3.490474
2142.000000;3.376283
2141.000000;3.260617
2140.000000;3.207871
2139.000000;3.212213
2138.000000;3.233586
2137.000000;3.274896
2136.000000;3.337693
2135.000000;3.391516
2134.000000;3.327810
2133.000000;3.224454
2132.000000;3.155718
2131.000000;3.112097
2130.000000;3.153241
2129.000000;3.316234
2128.000000;3.547848
2127.000000;3.707312
2126.000000;3.943894
2125.000000;3.831713
2124.000000;3.517832
2123.000000;3.499457
2122.000000;3.747448
2121.000000;3.891518
2120.000000;3.857575
2119.000000;3.646979
2118.000000;3.266240
2117.000000;3.143820
2116.000000;3.145027
2115.000000;3.216051
2114.000000;3.273879
2113.000000;3.291230
2112.000000;3.324742
2111.000000;3.463721
2110.000000;3.346724
2109.000000;3.121387
2108.000000;3.045452
2107.000000;3.034287
2106.000000;3.018333
2105.000000;3.010607
2104.000000;3.042373
2103.000000;3.071060
2102.000000;3.062525
2101.000000;3.091830
2100.000000;3.227922
2099.000000;3.535270
2098.000000;3.478674
2097.000000;3.257959
2096.000000;3.233577
2095.000000;3.300370
2094.000000;3.282059
2093.000000;3.226440
2092.000000;3.216834
2091.000000;3.271940
2090.000000;3.427873
2089.000000;3.564278
2088.000000;3.412373
2087.000000;3.244017
2086.000000;3.178956
2085.000000;3.190555
2084.000000;3.245296
2083.000000;3.535454
2082.000000;3.829024
2081.000000;3.346353
2080.000000;3.164328
2079.000000;3.141701
2078.000000;3.164203
2077.000000;3.212234
2076.000000;3.299982
2075.000000;3.426364
2074.000000;3.577979
2073.000000;3.837606
2072.000000;4.223367
2071.000000;3.659706
2070.000000;3.538010
2069.000000;3.592746
2068.000000;3.675324
2067.000000;3.910248
2066.000000;4.172291
2065.000000;3.493312
2064.000000;3.261858
2063.000000;3.150247
2062.000000;3.116469
2061.000000;3.101559
2060.000000;3.089440
2059.000000;3.089400
2058.000000;3.116040
2057.000000;3.153583
2056.000000;3.181209
2055.000000;3.232070
2054.000000;3.377276
2053.000000;3.748740
2052.000000;4.331341
2051.000000;3.831002
2050.000000;3.364933
2049.000000;3.148448
2048.000000;3.074456
2047.000000;3.066129
2046.000000;3.081705
2045.000000;3.124318
2044.000000;3.164191
2043.000000;3.106254
2042.000000;3.026104
2041.000000;2.983505
2040.000000;2.960610
2039.000000;2.981259
2038.000000;3.093623
2037.000000;3.369221
2036.000000;3.952757
2035.000000;3.978398
2034.000000;3.727020
2033.000000;3.791149
2032.000000;4.189709
2031.000000;3.766384
2030.000000;3.306965
2029.000000;3.082917
2028.000000;2.940864
2027.000000;2.895923
2026.000000;2.934235
2025.000000;3.033334
2024.000000;3.154367
2023.000000;3.282371
2022.000000;3.460679
2021.000000;3.506000
2020.000000;3.480794
2019.000000;3.536593
2018.000000;3.288073
2017.000000;3.113939
2016.000000;3.057769
2015.000000;3.064742
2014.000000;3.097689
2013.000000;3.145191
2012.000000;3.208187
2011.000000;3.322390
2010.000000;3.671579
2009.000000;3.832360
2008.000000;3.362923
2007.000000;3.195030
2006.000000;3.132024
2005.000000;3.196353
2004.000000;3.393927
2003.000000;3.697468
2002.000000;4.081428
2001.000000;4.031176
2000.000000;3.650574
1999.000000;3.537289
1998.000000;3.592028
1997.000000;3.878840
1996.000000;3.770930
1995.000000;3.430429
1994.000000;3.279268
1993.000000;3.191708
1992.000000;3.097784
1991.000000;3.046163
1990.000000;3.057291
1989.000000;3.127610
1988.000000;3.271783
1987.000000;3.423413
1986.000000;3.484437
1985.000000;3.514591
1984.000000;3.576035
1983.000000;3.504463
1982.000000;3.293859
1981.000000;3.199754
1980.000000;3.197905
1979.000000;3.189615
1978.000000;3.105572
1977.000000;3.018211
1976.000000;3.002961
1975.000000;3.082293
1974.000000;3.248959
1973.000000;3.467709
1972.000000;3.527766
1971.000000;3.359353
1970.000000;3.255531
1969.000000;3.282116
1968.000000;3.463150
1967.000000;3.573018
1966.000000;3.312012
1965.000000;3.214347
1964.000000;3.247628
1963.000000;3.267807
1962.000000;3.298208
1961.000000;3.444597
1960.000000;3.766681
1959.000000;3.803690
1958.000000;3.494893
1957.000000;3.353593
1956.000000;3.243450
1955.000000;3.172976
1954.000000;3.178555
1953.000000;3.311841
1952.000000;3.625315
1951.000000;3.896522
1950.000000;3.784475
1949.000000;3.383062
1948.000000;3.089186
1947.000000;2.953773
1946.000000;2.908811
1945.000000;2.934078
1944.000000;3.023396
1943.000000;3.208310
1942.000000;3.328487
1941.000000;3.212891
1940.000000;3.192518
1939.000000;3.218095
1938.000000;3.201950
1937.000000;3.278382
1936.000000;3.412975
1935.000000;3.417151
1934.000000;3.352215
1933.000000;3.303432
1932.000000;3.319033
1931.000000;3.453970
1930.000000;3.568305
1929.000000;3.383613
1928.000000;3.290779
1927.000000;3.383941
1926.000000;3.578966
1925.000000;3.622359
1924.000000;3.631989
1923.000000;3.679213
1922.000000;3.641651
1921.000000;3.598926
1920.000000;3.643239
1919.000000;3.738336
1918.000000;3.624070
1917.000000;3.472955
1916.000000;3.424259
1915.000000;3.473045
1914.000000;3.605047
1913.000000;3.871947
1912.000000;4.096981
1911.000000;3.618702
1910.000000;3.419988
1909.000000;3.413906
1908.000000;3.634929
1907.000000;4.047663
1906.000000;3.690482
1905.000000;3.619803
1904.000000;3.579362
1903.000000;3.298257
1902.000000;3.074086
1901.000000;2.991475
1900.000000;3.005226
1899.000000;3.029055
1898.000000;3.032811
1897.000000;3.113020
1896.000000;3.366224
1895.000000;3.962633
1894.000000;4.317962
1893.000000;4.031471
1892.000000;3.558282
1891.000000;3.281820
1890.000000;3.197766
1889.000000;3.222720
1888.000000;3.366536
1887.000000;3.698659
1886.000000;4.231600
1885.000000;3.767749
1884.000000;3.619476
1883.000000;3.593925
1882.000000;3.828935
1881.000000;3.709373
1880.000000;3.312753
1879.000000;3.190126
1878.000000;3.158703
1877.000000;3.145238
1876.000000;3.089427
1875.000000;3.000105
1874.000000;2.961914
1873.000000;3.037427
1872.000000;3.263082
1871.000000;3.497866
1870.000000;3.475023
1869.000000;3.470882
1868.000000;3.584341
1867.000000;3.873901
1866.000000;4.358052
1865.000000;4.034383
1864.000000;3.863274
1863.000000;3.761199
1862.000000;3.546516
1861.000000;3.438154
1860.000000;3.496811
1859.000000;3.737106
1858.000000;3.872283
1857.000000;3.608712
1856.000000;3.438599
1855.000000;3.372376
1854.000000;3.332166
1853.000000;3.291359
1852.000000;3.291289
1851.000000;3.399485
1850.000000;3.570578
1849.000000;3.493341
1848.000000;3.360664
1847.000000;3.311250
1846.000000;3.269437
1845.000000;3.230151
1844.000000;3.244460
1843.000000;3.343863
1842.000000;3.573779
1841.000000;3.802825
1840.000000;3.663050
1839.000000;3.481965
1838.000000;3.373014
1837.000000;3.318987
1836.000000;3.298791
1835.000000;3.291990
1834.000000;3.274624
1833.000000;3.215978
1832.000000;3.145311
1831.000000;3.109218
1830.000000;3.144538
1829.000000;3.226376
1828.000000;3.183128
1827.000000;3.086267
1826.000000;3.087275
1825.000000;3.191742
1824.000000;3.393417
1823.000000;3.708616
1822.000000;3.808298
1821.000000;3.559924
1820.000000;3.425640
1819.000000;3.362537
1818.000000;3.356254
1817.000000;3.392917
1816.000000;3.530746
1815.000000;3.830998
1814.000000;3.495610
1813.000000;3.193960
1812.000000;3.108194
1811.000000;3.120813
1810.000000;3.224387
1809.000000;3.445964
1808.000000;3.828061
1807.000000;3.604714
1806.000000;3.451207
1805.000000;3.425323
1804.000000;3.422663
1803.000000;3.472075
1802.000000;3.483648
1801.000000;3.517201
1800.000000;3.763395
1799.000000;4.457241
1798.000000;3.725389
1797.000000;3.467858
1796.000000;3.423433
1795.000000;3.563478
1794.000000;3.784294
1793.000000;3.866245
1792.000000;3.793663
1791.000000;3.657624
1790.000000;3.498267
1789.000000;3.322157
1788.000000;3.204234
1787.000000;3.167550
1786.000000;3.197736
1785.000000;3.265821
1784.000000;3.361166
1783.000000;3.567745
1782.000000;3.651786
1781.000000;3.423007
1780.000000;3.311954
1779.000000;3.300435
1778.000000;3.313361
1777.000000;3.326394
1776.000000;3.351002
1775.000000;3.406924
1774.000000;3.445498
1773.000000;3.388870
1772.000000;3.314936
1771.000000;3.292469
1770.000000;3.316474
1769.000000;3.362188
1768.000000;3.374140
1767.000000;3.283096
1766.000000;3.152542
1765.000000;3.100446
1764.000000;3.173916
1763.000000;3.472598
1762.000000;3.652239
1761.000000;3.405529
1760.000000;3.346039
1759.000000;3.411982
1758.000000;3.805248
1757.000000;3.934057
1756.000000;3.469669
1755.000000;3.265064
1754.000000;3.145978
1753.000000;3.104413
1752.000000;3.160999
1751.000000;3.329663
1750.000000;3.634071
1749.000000;3.777370
1748.000000;3.703040
1747.000000;3.515265
1746.000000;3.281653
1745.000000;3.177757
1744.000000;3.214538
1743.000000;3.400809
1742.000000;3.676407
1741.000000;3.746386
1740.000000;3.646925
1739.000000;3.602853
1738.000000;3.828965
1737.000000;3.722586
1736.000000;3.424365
1735.000000;3.381327
1734.000000;3.399482
1733.000000;3.405269
1732.000000;3.424216
1731.000000;3.523181
1730.000000;3.510919
1729.000000;3.426260
1728.000000;3.445265
1727.000000;3.499656
1726.000000;3.543467
1725.000000;3.607895
1724.000000;3.698862
1723.000000;3.772519
1722.000000;3.521112
1721.000000;3.283290
1720.000000;3.204317
1719.000000;3.269867
1718.000000;3.527319
1717.000000;3.985718
1716.000000;3.807824
1715.000000;3.715322
1714.000000;3.629733
1713.000000;3.428735
1712.000000;3.386793
1711.000000;3.470799
1710.000000;3.610093
1709.000000;3.608788
1708.000000;3.494925
1707.000000;3.527830
1706.000000;3.493930
1705.000000;3.352764
1704.000000;3.376560
1703.000000;3.505565
1702.000000;3.510505
1701.000000;3.470244
1700.000000;3.520378
1699.000000;3.851162
1698.000000;4.040710
1697.000000;3.623396
1696.000000;3.504113
1695.000000;3.454696
1694.000000;3.365134
1693.000000;3.286886
1692.000000;3.296288
1691.000000;3.540689
1690.000000;3.926386
1689.000000;3.469527
1688.000000;3.328396
1687.000000;3.336331
1686.000000;3.395374
1685.000000;3.481123
1684.000000;3.583306
1683.000000;4.117839
1682.000000;4.056903
1681.000000;3.499545
1680.000000;3.434426
1679.000000;3.430851
1678.000000;3.411417
1677.000000;3.328145
1676.000000;3.291885
1675.000000;3.363129
1674.000000;3.513403
1673.000000;3.731910
1672.000000;3.967154
1671.000000;3.659337
1670.000000;3.444823
1669.000000;3.381465
1668.000000;3.353928
1667.000000;3.322716
1666.000000;3.297446
1665.000000;3.330609
1664.000000;3.430699
1663.000000;3.575102
1662.000000;3.703851
1661.000000;3.658466
1660.000000;3.532316
1659.000000;3.574613
1658.000000;3.939252
1657.000000;3.795766
1656.000000;3.517423
1655.000000;3.500908
1654.000000;3.504937
1653.000000;3.511872
1652.000000;3.443137
1651.000000;3.312347
1650.000000;3.248156
1649.000000;3.278109
1648.000000;3.401815
1647.000000;3.798848
1646.000000;3.824246
1645.000000;3.325161
1644.000000;3.065970
1643.000000;2.964873
1642.000000;3.007141
1641.000000;3.187128
1640.000000;3.567102
1639.000000;4.090247
1638.000000;3.726956
1637.000000;3.489858
1636.000000;3.335019
1635.000000;3.286859
1634.000000;3.297946
1633.000000;3.253493
1632.000000;3.159302
1631.000000;3.125013
1630.000000;3.221085
1629.000000;3.425145
1628.000000;3.585800
1627.000000;3.509070
1626.000000;3.418476
1625.000000;3.598989
1624.000000;3.537726
1623.000000;3.289363
1622.000000;3.197029
1621.000000;3.092211
1620.000000;2.951096
1619.000000;2.873627
1618.000000;2.909340
1617.000000;3.031680
1616.000000;3.137429
1615.000000;3.133076
1614.000000;3.132392
1613.000000;3.190081
1612.000000;3.220693
1611.000000;3.298329
1610.000000;3.326198
1609.000000;3.145824
1608.000000;2.983163
1607.000000;2.863199
1606.000000;2.774842
1605.000000;2.728274
1604.000000;2.704779
1603.000000;2.690756
1602.000000;2.719513
1601.000000;2.823329
1600.000000;2.926479
1599.000000;2.952085
1598.000000;2.967392
1597.000000;2.941379
1596.000000;2.866331
1595.000000;2.838007
1594.000000;2.913610
1593.000000;3.040498
1592.000000;3.024312
1591.000000;2.901893
1590.000000;2.811445
1589.000000;2.811200
1588.000000;2.922930
1587.000000;3.056738
1586.000000;3.027179
1585.000000;2.895349
1584.000000;2.749659
1583.000000;2.654456
1582.000000;2.660886
1581.000000;2.794428
1580.000000;3.076268
1579.000000;3.158114
1578.000000;3.001670
1577.000000;3.009345
1576.000000;3.143726
1575.000000;3.357602
1574.000000;3.353369
1573.000000;3.022529
1572.000000;2.751769
1571.000000;2.606311
1570.000000;2.586665
1569.000000;2.670448
1568.000000;2.797989
1567.000000;2.893899
1566.000000;2.967930
1565.000000;3.113368
1564.000000;3.285022
1563.000000;3.289364
1562.000000;3.323715
1561.000000;3.530757
1560.000000;3.702612
1559.000000;3.432810
1558.000000;3.235066
1557.000000;3.174695
1556.000000;3.221382
1555.000000;3.499959
1554.000000;4.030941
1553.000000;3.560667
1552.000000;3.347907
1551.000000;3.334268
1550.000000;3.428375
1549.000000;3.565004
1548.000000;3.481115
1547.000000;3.340296
1546.000000;3.454670
1545.000000;3.579847
1544.000000;3.357014
1543.000000;3.289935
1542.000000;3.457593
1541.000000;3.989840
1540.000000;4.050995
1539.000000;3.704284
1538.000000;3.641777
1537.000000;3.782026
1536.000000;4.142520
1535.000000;3.979105
1534.000000;3.547503
1533.000000;3.307509
1532.000000;3.205927
1531.000000;3.196023
1530.000000;3.295246
1529.000000;3.458507
1528.000000;3.428321
1527.000000;3.308698
1526.000000;3.260260
1525.000000;3.324481
1524.000000;3.474749
1523.000000;3.425580
1522.000000;3.327809
1521.000000;3.345892
1520.000000;3.423079
1519.000000;3.515097
1518.000000;3.546360
1517.000000;3.637987
1516.000000;3.868867
1515.000000;4.043988
1514.000000;3.872928
1513.000000;3.940402
1512.000000;4.366846
1511.000000;3.771772
1510.000000;3.509952
1509.000000;3.464007
1508.000000;3.559388
1507.000000;3.871025
1506.000000;4.363187
1505.000000;4.219540
1504.000000;3.699609
1503.000000;3.427613
1502.000000;3.348704
1501.000000;3.365402
1500.000000;3.389535
1499.000000;3.429437
1498.000000;3.512222
1497.000000;3.632620
1496.000000;3.727916
1495.000000;3.705750
1494.000000;3.625260
1493.000000;3.582133
1492.000000;3.564934
1491.000000;3.517310
1490.000000;3.421530
1489.000000;3.312966
1488.000000;3.260415
1487.000000;3.296760
1486.000000;3.420439
1485.000000;3.612986
1484.000000;3.904092
1483.000000;4.257654
1482.000000;4.236018
1481.000000;4.045378
1480.000000;3.984772
1479.000000;4.071056
1478.000000;3.685914
1477.000000;3.405546
1476.000000;3.385609
1475.000000;3.640590
1474.000000;3.813992
1473.000000;3.613134
1472.000000;3.578993
1471.000000;3.494748
1470.000000;3.384252
1469.000000;3.362484
1468.000000;3.405878
1467.000000;3.522625
1466.000000;4.046414
1465.000000;3.947992
1464.000000;3.528322
1463.000000;3.500390
1462.000000;3.504022
1461.000000;3.498152
1460.000000;3.493425
1459.000000;3.483027
1458.000000;3.421687
1457.000000;3.376725
1456.000000;3.399727
1455.000000;3.510668
1454.000000;3.664492
1453.000000;3.631875
1452.000000;3.567222
1451.000000;3.587571
1450.000000;3.707663
1449.000000;3.914428
1448.000000;3.784535
1447.000000;3.456675
1446.000000;3.286687
1445.000000;3.248998
1444.000000;3.304971
1443.000000;3.399434
1442.000000;3.466217
1441.000000;3.504437
1440.000000;3.538667
1439.000000;3.605936
1438.000000;3.716360
1437.000000;3.660469
1436.000000;3.478867
1435.000000;3.380419
1434.000000;3.443647
1433.000000;3.613077
1432.000000;3.641914
1431.000000;3.672688
1430.000000;3.780861
1429.000000;3.874225
1428.000000;3.812048
1427.000000;3.701846
1426.000000;3.688605
1425.000000;3.862853
1424.000000;4.202118
1423.000000;4.051604
1422.000000;4.254747
1421.000000;4.178874
1420.000000;3.726069
1419.000000;3.577868
1418.000000;3.484032
1417.000000;3.441875
1416.000000;3.503704
1415.000000;3.817590
1414.000000;4.135404
1413.000000;3.751757
1412.000000;3.582928
1411.000000;3.551274
1410.000000;3.661395
1409.000000;3.952734
1408.000000;3.916212
1407.000000;3.663056
1406.000000;3.555286
1405.000000;3.610044
1404.000000;3.782739
1403.000000;3.861865
1402.000000;3.751057
1401.000000;3.553652
1400.000000;3.459680
1399.000000;3.504796
1398.000000;3.630787
1397.000000;3.717356
1396.000000;3.689305
1395.000000;3.661306
1394.000000;3.673010
1393.000000;3.670311
1392.000000;3.627829
1391.000000;3.597509
1390.000000;3.620057
1389.000000;3.682899
1388.000000;3.866994
1387.000000;4.215776
1386.000000;4.051943
1385.000000;3.776046
1384.000000;3.674278
1383.000000;3.588035
1382.000000;3.676947
1381.000000;4.108479
1380.000000;3.732008
1379.000000;3.450479
1378.000000;3.438689
1377.000000;3.600141
1376.000000;4.076051
1375.000000;4.076532
1374.000000;3.979723
1373.000000;4.161838
1372.000000;4.059812
1371.000000;3.937175
1370.000000;4.030109
1369.000000;4.247921
1368.000000;3.980778
1367.000000;3.713285
1366.000000;3.586258
1365.000000;3.581909
1364.000000;3.772536
1363.000000;4.017847
1362.000000;3.870304
1361.000000;3.877699
1360.000000;4.284466
1359.000000;3.958745
1358.000000;3.655468
1357.000000;3.676429
1356.000000;3.808434
1355.000000;3.972088
1354.000000;4.158169
1353.000000;4.238936
1352.000000;4.125459
1351.000000;3.893570
1350.000000;3.901214
1349.000000;4.446616
1348.000000;4.077822
1347.000000;3.672380
1346.000000;3.529843
1345.000000;3.496421
1344.000000;3.656991
1343.000000;3.680601
1342.000000;3.443229
1341.000000;3.386467
1340.000000;3.527123
1339.000000;3.862365
1338.000000;3.959256
1337.000000;3.914526
1336.000000;4.029422
1335.000000;3.907163
1334.000000;4.047663
1333.000000;4.457564
1332.000000;4.119016
1331.000000;3.839821
1330.000000;3.848525
1329.000000;3.859775
1328.000000;3.709537
1327.000000;3.701571
1326.000000;3.852123
1325.000000;4.073255
1324.000000;3.771082
1323.000000;3.439859
1322.000000;3.251537
1321.000000;3.165157
1320.000000;3.183383
1319.000000;3.420336
1318.000000;3.785404
1317.000000;3.591591
1316.000000;3.568146
1315.000000;3.447736
1314.000000;3.329217
1313.000000;3.407199
1312.000000;3.841090
1311.000000;4.555990
1310.000000;3.880716
1309.000000;3.914307
1308.000000;3.770159
1307.000000;3.720081
1306.000000;3.871930
1305.000000;3.830636
1304.000000;3.744698
1303.000000;3.766185
1302.000000;3.810083
1301.000000;3.900227
1300.000000;4.264802
1299.000000;4.277300
1298.000000;3.937752
1297.000000;3.758523
1296.000000;3.702629
1295.000000;3.756984
1294.000000;3.821038
1293.000000;3.754894
1292.000000;3.650738
1291.000000;3.603000
1290.000000;3.725855
1289.000000;4.046460
1288.000000;3.863464
1287.000000;3.657252
1286.000000;3.637206
1285.000000;3.798354
1284.000000;4.110559
1283.000000;4.052056
1282.000000;4.301603
1281.000000;4.197701
1280.000000;3.777550
1279.000000;3.791788
1278.000000;4.186117
1277.000000;4.260784
1276.000000;3.713662
1275.000000;3.584622
1274.000000;3.656418
1273.000000;3.680545
1272.000000;3.601670
1271.000000;3.524222
1270.000000;3.448680
1269.000000;3.426324
1268.000000;3.495641
1267.000000;3.722755
1266.000000;4.330028
1265.000000;4.135766
1264.000000;3.888018
1263.000000;3.976597
1262.000000;4.349120
1261.000000;4.533797
1260.000000;4.049357
1259.000000;3.998676
1258.000000;4.034539
1257.000000;3.927616
1256.000000;3.788614
1255.000000;3.757822
1254.000000;4.005174
1253.000000;4.231985
1252.000000;3.923900
1251.000000;3.803228
1250.000000;3.835502
1249.000000;3.984473
1248.000000;4.116460
1247.000000;4.073854
1246.000000;4.104012
1245.000000;4.185355
1244.000000;4.015113
1243.000000;3.778548
1242.000000;3.687477
1241.000000;3.784250
1240.000000;3.977546
1239.000000;3.886677
1238.000000;3.780329
1237.000000;4.003165
1236.000000;4.045973
1235.000000;3.612312
1234.000000;3.451884
1233.000000;3.451278
1232.000000;3.533686
1231.000000;3.628659
1230.000000;3.678452
1229.000000;3.736988
1228.000000;3.860891
1227.000000;4.048801
1226.000000;3.854893
1225.000000;3.604996
1224.000000;3.520296
1223.000000;3.547962
1222.000000;3.641196
1221.000000;3.799666
1220.000000;4.093052
1219.000000;4.096449
1218.000000;4.054819
1217.000000;4.392859
1216.000000;4.186108
1215.000000;3.849626
1214.000000;3.734420
1213.000000;3.775993
1212.000000;3.834015
1211.000000;3.719402
1210.000000;3.605913
1209.000000;3.546588
1208.000000;3.477637
1207.000000;3.391384
1206.000000;3.335267
1205.000000;3.353009
1204.000000;3.463970
1203.000000;3.735681
1202.000000;4.259164
1201.000000;4.222726
1200.000000;3.953858
