Criado como novo conjunto de dados;"0307_DANIEL.spp","65705.2 Secs"
cm-1;Abs
10000.000000;0.580076
9999.000000;0.579091
9998.000000;0.578109
9997.000000;0.577128
9996.000000;0.576150
9995.000000;0.575174
9994.000000;0.574199
9993.000000;0.573230
9992.000000;0.572256
9991.000000;0.571297
9990.000000;0.570315
9989.000000;0.569449
9988.000000;0.568760
9987.000000;0.568064
9986.000000;0.567288
9985.000000;0.566542
9984.000000;0.565977
9983.000000;0.565561
9982.000000;0.565165
9981.000000;0.564742
9980.000000;0.564288
9979.000000;0.563692
9978.000000;0.562788
9977.000000;0.561562
9976.000000;0.560194
9975.000000;0.558885
9974.000000;0.557759
9973.000000;0.556909
9972.000000;0.556383
9971.000000;0.556054
9970.000000;0.555593
9969.000000;0.554694
9968.000000;0.553328
9967.000000;0.551751
9966.000000;0.550308
9965.000000;0.549215
9964.000000;0.548477
9963.000000;0.547925
9962.000000;0.547344
9961.000000;0.546602
9960.000000;0.545709
9959.000000;0.544740
9958.000000;0.543728
9957.000000;0.542650
9956.000000;0.541513
9955.000000;0.540423
9954.000000;0.539546
9953.000000;0.538955
9952.000000;0.538525
9951.000000;0.538005
9950.000000;0.537233
9949.000000;0.536276
9948.000000;0.535328
9947.000000;0.534482
9946.000000;0.533646
9945.000000;0.532660
9944.000000;0.531456
9943.000000;0.530143
9942.000000;0.528966
9941.000000;0.528178
9940.000000;0.527829
9939.000000;0.527661
9938.000000;0.527261
9937.000000;0.526415
9936.000000;0.525290
9935.000000;0.524245
9934.000000;0.523469
9933.000000;0.522820
9932.000000;0.522010
9931.000000;0.520906
9930.000000;0.519676
9929.000000;0.518600
9928.000000;0.517765
9927.000000;0.516945
9926.000000;0.515858
9925.000000;0.514496
9924.000000;0.513114
9923.000000;0.511910
9922.000000;0.510871
9921.000000;0.509966
9920.000000;0.509323
9919.000000;0.509030
9918.000000;0.508862
9917.000000;0.508422
9916.000000;0.507582
9915.000000;0.506584
9914.000000;0.505663
9913.000000;0.504777
9912.000000;0.503801
9911.000000;0.502808
9910.000000;0.501949
9909.000000;0.501146
9908.000000;0.500135
9907.000000;0.498813
9906.000000;0.497381
9905.000000;0.496100
9904.000000;0.495039
9903.000000;0.494116
9902.000000;0.493253
9901.000000;0.492378
9900.000000;0.491358
9899.000000;0.490085
9898.000000;0.488639
9897.000000;0.487287
9896.000000;0.486278
9895.000000;0.485626
9894.000000;0.485089
9893.000000;0.484347
9892.000000;0.483267
9891.000000;0.482007
9890.000000;0.480865
9889.000000;0.479999
9888.000000;0.479305
9887.000000;0.478570
9886.000000;0.477676
9885.000000;0.476633
9884.000000;0.475521
9883.000000;0.474486
9882.000000;0.473698
9881.000000;0.473182
9880.000000;0.472688
9879.000000;0.471841
9878.000000;0.470482
9877.000000;0.468828
9876.000000;0.467270
9875.000000;0.466066
9874.000000;0.465185
9873.000000;0.464387
9872.000000;0.463408
9871.000000;0.462152
9870.000000;0.460779
9869.000000;0.459547
9868.000000;0.458555
9867.000000;0.457653
9866.000000;0.456640
9865.000000;0.455515
9864.000000;0.454481
9863.000000;0.453709
9862.000000;0.453119
9861.000000;0.452405
9860.000000;0.451317
9859.000000;0.449912
9858.000000;0.448504
9857.000000;0.447303
9856.000000;0.446167
9855.000000;0.444837
9854.000000;0.443377
9853.000000;0.442168
9852.000000;0.441415
9851.000000;0.440821
9850.000000;0.439927
9849.000000;0.438660
9848.000000;0.437357
9847.000000;0.436293
9846.000000;0.435395
9845.000000;0.434444
9844.000000;0.433375
9843.000000;0.432293
9842.000000;0.431301
9841.000000;0.430391
9840.000000;0.429465
9839.000000;0.428417
9838.000000;0.427236
9837.000000;0.426053
9836.000000;0.425003
9835.000000;0.424038
9834.000000;0.422951
9833.000000;0.421618
9832.000000;0.420147
9831.000000;0.418735
9830.000000;0.417496
9829.000000;0.416466
9828.000000;0.415642
9827.000000;0.414891
9826.000000;0.413918
9825.000000;0.412510
9824.000000;0.410821
9823.000000;0.409276
9822.000000;0.408144
9821.000000;0.407301
9820.000000;0.406418
9819.000000;0.405273
9818.000000;0.403838
9817.000000;0.402186
9816.000000;0.400466
9815.000000;0.398910
9814.000000;0.397728
9813.000000;0.396901
9812.000000;0.396147
9811.000000;0.395172
9810.000000;0.393966
9809.000000;0.392805
9808.000000;0.391909
9807.000000;0.391149
9806.000000;0.390147
9805.000000;0.388688
9804.000000;0.386954
9803.000000;0.385301
9802.000000;0.383880
9801.000000;0.382551
9800.000000;0.381153
9799.000000;0.379726
9798.000000;0.378413
9797.000000;0.377256
9796.000000;0.376156
9795.000000;0.375023
9794.000000;0.373865
9793.000000;0.372728
9792.000000;0.371613
9791.000000;0.370479
9790.000000;0.369284
9789.000000;0.367983
9788.000000;0.366535
9787.000000;0.364975
9786.000000;0.363466
9785.000000;0.362214
9784.000000;0.361283
9783.000000;0.360495
9782.000000;0.359540
9781.000000;0.358207
9780.000000;0.356559
9779.000000;0.354890
9778.000000;0.353500
9777.000000;0.352431
9776.000000;0.351416
9775.000000;0.350114
9774.000000;0.348448
9773.000000;0.346691
9772.000000;0.345197
9771.000000;0.344045
9770.000000;0.342973
9769.000000;0.341675
9768.000000;0.340135
9767.000000;0.338626
9766.000000;0.337399
9765.000000;0.336405
9764.000000;0.335367
9763.000000;0.334094
9762.000000;0.332652
9761.000000;0.331195
9760.000000;0.329707
9759.000000;0.328038
9758.000000;0.326173
9757.000000;0.324362
9756.000000;0.322901
9755.000000;0.321832
9754.000000;0.320885
9753.000000;0.319711
9752.000000;0.318156
9751.000000;0.316360
9750.000000;0.314630
9749.000000;0.313199
9748.000000;0.312042
9747.000000;0.310936
9746.000000;0.309685
9745.000000;0.308246
9744.000000;0.306673
9743.000000;0.305037
9742.000000;0.303443
9741.000000;0.301996
9740.000000;0.300672
9739.000000;0.299298
9738.000000;0.297760
9737.000000;0.296177
9736.000000;0.294726
9735.000000;0.293390
9734.000000;0.292017
9733.000000;0.290560
9732.000000;0.289099
9731.000000;0.287638
9730.000000;0.286100
9729.000000;0.284539
9728.000000;0.283145
9727.000000;0.281946
9726.000000;0.280715
9725.000000;0.279302
9724.000000;0.277890
9723.000000;0.276707
9722.000000;0.275609
9721.000000;0.274175
9720.000000;0.272198
9719.000000;0.269901
9718.000000;0.267668
9717.000000;0.265739
9716.000000;0.264155
9715.000000;0.262812
9714.000000;0.261492
9713.000000;0.259997
9712.000000;0.258372
9711.000000;0.256923
9710.000000;0.255892
9709.000000;0.255146
9708.000000;0.254261
9707.000000;0.252930
9706.000000;0.251196
9705.000000;0.249320
9704.000000;0.247502
9703.000000;0.245800
9702.000000;0.244225
9701.000000;0.242777
9700.000000;0.241366
9699.000000;0.239811
9698.000000;0.238017
9697.000000;0.236109
9696.000000;0.234314
9695.000000;0.232721
9694.000000;0.231233
9693.000000;0.229750
9692.000000;0.228254
9691.000000;0.226713
9690.000000;0.225025
9689.000000;0.223148
9688.000000;0.221188
9687.000000;0.219271
9686.000000;0.217400
9685.000000;0.215534
9684.000000;0.213729
9683.000000;0.212096
9682.000000;0.210656
9681.000000;0.209332
9680.000000;0.208023
9679.000000;0.206602
9678.000000;0.204901
9677.000000;0.202861
9676.000000;0.200647
9675.000000;0.198489
9674.000000;0.196423
9673.000000;0.194342
9672.000000;0.192299
9671.000000;0.190530
9670.000000;0.189135
9669.000000;0.187891
9668.000000;0.186513
9667.000000;0.184950
9666.000000;0.183310
9665.000000;0.181641
9664.000000;0.179939
9663.000000;0.178279
9662.000000;0.176731
9661.000000;0.175165
9660.000000;0.173320
9659.000000;0.171132
9658.000000;0.168835
9657.000000;0.166697
9656.000000;0.164766
9655.000000;0.162941
9654.000000;0.161163
9653.000000;0.159424
9652.000000;0.157648
9651.000000;0.155722
9650.000000;0.153674
9649.000000;0.151725
9648.000000;0.150107
9647.000000;0.148829
9646.000000;0.147656
9645.000000;0.146303
9644.000000;0.144655
9643.000000;0.142787
9642.000000;0.140794
9641.000000;0.138679
9640.000000;0.136432
9639.000000;0.134176
9638.000000;0.132107
9637.000000;0.130300
9636.000000;0.128657
9635.000000;0.127088
9634.000000;0.125632
9633.000000;0.124303
9632.000000;0.122897
9631.000000;0.121109
9630.000000;0.118846
9629.000000;0.116337
9628.000000;0.113910
9627.000000;0.111748
9626.000000;0.109850
9625.000000;0.108084
9624.000000;0.106229
9623.000000;0.104099
9622.000000;0.101760
9621.000000;0.099574
9620.000000;0.097887
9619.000000;0.096673
9618.000000;0.095531
9617.000000;0.094035
9616.000000;0.092048
9615.000000;0.089735
9614.000000;0.087345
9613.000000;0.084981
9612.000000;0.082559
9611.000000;0.080004
9610.000000;0.077494
9609.000000;0.075418
9608.000000;0.073994
9607.000000;0.072946
9606.000000;0.071689
9605.000000;0.069852
9604.000000;0.067548
9603.000000;0.065127
9602.000000;0.062791
9601.000000;0.060528
9600.000000;0.058316
9599.000000;0.056257
9598.000000;0.054461
9597.000000;0.052842
9596.000000;0.051130
9595.000000;0.049132
9594.000000;0.046952
9593.000000;0.044862
9592.000000;0.042956
9591.000000;0.041040
9590.000000;0.038933
9589.000000;0.036731
9588.000000;0.034656
9587.000000;0.032728
9586.000000;0.030790
9585.000000;0.028794
9584.000000;0.026882
9583.000000;0.025153
9582.000000;0.023507
9581.000000;0.021762
9580.000000;0.019803
9579.000000;0.017585
9578.000000;0.015153
9577.000000;0.012699
9576.000000;0.010433
9575.000000;0.008338
9574.000000;0.006213
9573.000000;0.004016
9572.000000;0.001985
9571.000000;0.000284
9570.000000;-0.001302
9569.000000;-0.003140
9568.000000;-0.005346
9567.000000;-0.007760
9566.000000;-0.010197
9565.000000;-0.012525
9564.000000;-0.014575
9563.000000;-0.016241
9562.000000;-0.017698
9561.000000;-0.019324
9560.000000;-0.021341
9559.000000;-0.023639
9558.000000;-0.025970
9557.000000;-0.028176
9556.000000;-0.030207
9555.000000;-0.032081
9554.000000;-0.033890
9553.000000;-0.035760
9552.000000;-0.037691
9551.000000;-0.039549
9550.000000;-0.041267
9549.000000;-0.042991
9548.000000;-0.044939
9547.000000;-0.047142
9546.000000;-0.049399
9545.000000;-0.051489
9544.000000;-0.053358
9543.000000;-0.055136
9542.000000;-0.057009
9541.000000;-0.059063
9540.000000;-0.061220
9539.000000;-0.063302
9538.000000;-0.065173
9537.000000;-0.066855
9536.000000;-0.068515
9535.000000;-0.070325
9534.000000;-0.072320
9533.000000;-0.074402
9532.000000;-0.076483
9531.000000;-0.078590
9530.000000;-0.080756
9529.000000;-0.082862
9528.000000;-0.084692
9527.000000;-0.086169
9526.000000;-0.087454
9525.000000;-0.088769
9524.000000;-0.090218
9523.000000;-0.091806
9522.000000;-0.093527
9521.000000;-0.095324
9520.000000;-0.097067
9519.000000;-0.098698
9518.000000;-0.100368
9517.000000;-0.102269
9516.000000;-0.104339
9515.000000;-0.106245
9514.000000;-0.107695
9513.000000;-0.108736
9512.000000;-0.109711
9511.000000;-0.110996
9510.000000;-0.112720
9509.000000;-0.114692
9508.000000;-0.116581
9507.000000;-0.118225
9506.000000;-0.119737
9505.000000;-0.121261
9504.000000;-0.122720
9503.000000;-0.123932
9502.000000;-0.124948
9501.000000;-0.126093
9500.000000;-0.127626
9499.000000;-0.129473
9498.000000;-0.131373
9497.000000;-0.133142
9496.000000;-0.134733
9495.000000;-0.136146
9494.000000;-0.137388
9493.000000;-0.138466
9492.000000;-0.139331
9491.000000;-0.139905
9490.000000;-0.140270
9489.000000;-0.140742
9488.000000;-0.141623
9487.000000;-0.142889
9486.000000;-0.144253
9485.000000;-0.145540
9484.000000;-0.146847
9483.000000;-0.148298
9482.000000;-0.149762
9481.000000;-0.150944
9480.000000;-0.151701
9479.000000;-0.152155
9478.000000;-0.152529
9477.000000;-0.152963
9476.000000;-0.153524
9475.000000;-0.154263
9474.000000;-0.155179
9473.000000;-0.156137
9472.000000;-0.156955
9471.000000;-0.157582
9470.000000;-0.158151
9469.000000;-0.158823
9468.000000;-0.159627
9467.000000;-0.160464
9466.000000;-0.161222
9465.000000;-0.161826
9464.000000;-0.162234
9463.000000;-0.162454
9462.000000;-0.162559
9461.000000;-0.162618
9460.000000;-0.162636
9459.000000;-0.162601
9458.000000;-0.162599
9457.000000;-0.162788
9456.000000;-0.163244
9455.000000;-0.163864
9454.000000;-0.164437
9453.000000;-0.164800
9452.000000;-0.164906
9451.000000;-0.164835
9450.000000;-0.164765
9449.000000;-0.164842
9448.000000;-0.165032
9447.000000;-0.165129
9446.000000;-0.164982
9445.000000;-0.164692
9444.000000;-0.164499
9443.000000;-0.164489
9442.000000;-0.164489
9441.000000;-0.164255
9440.000000;-0.163729
9439.000000;-0.163080
9438.000000;-0.162571
9437.000000;-0.162354
9436.000000;-0.162325
9435.000000;-0.162173
9434.000000;-0.161642
9433.000000;-0.160828
9432.000000;-0.160131
9431.000000;-0.159843
9430.000000;-0.159822
9429.000000;-0.159641
9428.000000;-0.159023
9427.000000;-0.158046
9426.000000;-0.156966
9425.000000;-0.155984
9424.000000;-0.155197
9423.000000;-0.154631
9422.000000;-0.154208
9421.000000;-0.153772
9420.000000;-0.153219
9419.000000;-0.152571
9418.000000;-0.151887
9417.000000;-0.151162
9416.000000;-0.150404
9415.000000;-0.149713
9414.000000;-0.149165
9413.000000;-0.148641
9412.000000;-0.147921
9411.000000;-0.146951
9410.000000;-0.145898
9409.000000;-0.144891
9408.000000;-0.143849
9407.000000;-0.142653
9406.000000;-0.141354
9405.000000;-0.140097
9404.000000;-0.138899
9403.000000;-0.137663
9402.000000;-0.136387
9401.000000;-0.135235
9400.000000;-0.134332
9399.000000;-0.133578
9398.000000;-0.132740
9397.000000;-0.131679
9396.000000;-0.130463
9395.000000;-0.129284
9394.000000;-0.128302
9393.000000;-0.127517
9392.000000;-0.126728
9391.000000;-0.125684
9390.000000;-0.124321
9389.000000;-0.122865
9388.000000;-0.121597
9387.000000;-0.120502
9386.000000;-0.119216
9385.000000;-0.117425
9384.000000;-0.115284
9383.000000;-0.113362
9382.000000;-0.112125
9381.000000;-0.111522
9380.000000;-0.111102
9379.000000;-0.110439
9378.000000;-0.109390
9377.000000;-0.108000
9376.000000;-0.106323
9375.000000;-0.104400
9374.000000;-0.102352
9373.000000;-0.100409
9372.000000;-0.098803
9371.000000;-0.097613
9370.000000;-0.096709
9369.000000;-0.095867
9368.000000;-0.094943
9367.000000;-0.093919
9366.000000;-0.092775
9365.000000;-0.091437
9364.000000;-0.089909
9363.000000;-0.088378
9362.000000;-0.087032
9361.000000;-0.085816
9360.000000;-0.084504
9359.000000;-0.083027
9358.000000;-0.081560
9357.000000;-0.080231
9356.000000;-0.078925
9355.000000;-0.077496
9354.000000;-0.076043
9353.000000;-0.074799
9352.000000;-0.073806
9351.000000;-0.072848
9350.000000;-0.071703
9349.000000;-0.070346
9348.000000;-0.068901
9347.000000;-0.067473
9346.000000;-0.066067
9345.000000;-0.064604
9344.000000;-0.063027
9343.000000;-0.061407
9342.000000;-0.059877
9341.000000;-0.058444
9340.000000;-0.056955
9339.000000;-0.055340
9338.000000;-0.053789
9337.000000;-0.052538
9336.000000;-0.051525
9335.000000;-0.050425
9334.000000;-0.049014
9333.000000;-0.047387
9332.000000;-0.045788
9331.000000;-0.044365
9330.000000;-0.043095
9329.000000;-0.041834
9328.000000;-0.040396
9327.000000;-0.038689
9326.000000;-0.036827
9325.000000;-0.035034
9324.000000;-0.033416
9323.000000;-0.031927
9322.000000;-0.030568
9321.000000;-0.029447
9320.000000;-0.028565
9319.000000;-0.027647
9318.000000;-0.026328
9317.000000;-0.024509
9316.000000;-0.022486
9315.000000;-0.020736
9314.000000;-0.019558
9313.000000;-0.018825
9312.000000;-0.018063
9311.000000;-0.016842
9310.000000;-0.015166
9309.000000;-0.013437
9308.000000;-0.011997
9307.000000;-0.010811
9306.000000;-0.009621
9305.000000;-0.008295
9304.000000;-0.006896
9303.000000;-0.005499
9302.000000;-0.004080
9301.000000;-0.002584
9300.000000;-0.001013
9299.000000;0.000576
9298.000000;0.002085
9297.000000;0.003426
9296.000000;0.004627
9295.000000;0.005848
9294.000000;0.007217
9293.000000;0.008648
9292.000000;0.009928
9291.000000;0.010981
9290.000000;0.011962
9289.000000;0.013044
9288.000000;0.014213
9287.000000;0.015331
9286.000000;0.016329
9285.000000;0.017279
9284.000000;0.018284
9283.000000;0.019397
9282.000000;0.020657
9281.000000;0.022122
9280.000000;0.023781
9279.000000;0.025460
9278.000000;0.026899
9277.000000;0.027983
9276.000000;0.028858
9275.000000;0.029789
9274.000000;0.030906
9273.000000;0.032164
9272.000000;0.033497
9271.000000;0.034913
9270.000000;0.036408
9269.000000;0.037898
9268.000000;0.039287
9267.000000;0.040567
9266.000000;0.041772
9265.000000;0.042887
9264.000000;0.043876
9263.000000;0.044799
9262.000000;0.045793
9261.000000;0.046917
9260.000000;0.048077
9259.000000;0.049142
9258.000000;0.050083
9257.000000;0.050986
9256.000000;0.051955
9255.000000;0.053035
9254.000000;0.054197
9253.000000;0.055344
9252.000000;0.056365
9251.000000;0.057237
9250.000000;0.058083
9249.000000;0.059091
9248.000000;0.060345
9247.000000;0.061755
9246.000000;0.063144
9245.000000;0.064384
9244.000000;0.065441
9243.000000;0.066359
9242.000000;0.067253
9241.000000;0.068267
9240.000000;0.069454
9239.000000;0.070684
9238.000000;0.071752
9237.000000;0.072602
9236.000000;0.073401
9235.000000;0.074362
9234.000000;0.075547
9233.000000;0.076869
9232.000000;0.078233
9231.000000;0.079594
9230.000000;0.080902
9229.000000;0.082073
9228.000000;0.083033
9227.000000;0.083782
9226.000000;0.084408
9225.000000;0.085064
9224.000000;0.085913
9223.000000;0.087056
9222.000000;0.088467
9221.000000;0.090001
9220.000000;0.091434
9219.000000;0.092557
9218.000000;0.093278
9217.000000;0.093698
9216.000000;0.094026
9215.000000;0.094418
9214.000000;0.094918
9213.000000;0.095554
9212.000000;0.096393
9211.000000;0.097438
9210.000000;0.098542
9209.000000;0.099536
9208.000000;0.100414
9207.000000;0.101355
9206.000000;0.102551
9205.000000;0.104058
9204.000000;0.105731
9203.000000;0.107260
9202.000000;0.108359
9201.000000;0.109017
9200.000000;0.109529
9199.000000;0.110199
9198.000000;0.111025
9197.000000;0.111774
9196.000000;0.112307
9195.000000;0.112736
9194.000000;0.113266
9193.000000;0.114030
9192.000000;0.115075
9191.000000;0.116358
9190.000000;0.117719
9189.000000;0.118944
9188.000000;0.119932
9187.000000;0.120737
9186.000000;0.121444
9185.000000;0.122093
9184.000000;0.122750
9183.000000;0.123519
9182.000000;0.124420
9181.000000;0.125316
9180.000000;0.126019
9179.000000;0.126439
9178.000000;0.126640
9177.000000;0.126847
9176.000000;0.127380
9175.000000;0.128445
9174.000000;0.129912
9173.000000;0.131392
9172.000000;0.132589
9171.000000;0.133482
9170.000000;0.134170
9169.000000;0.134702
9168.000000;0.135169
9167.000000;0.135764
9166.000000;0.136589
9165.000000;0.137504
9164.000000;0.138327
9163.000000;0.139107
9162.000000;0.140002
9161.000000;0.140961
9160.000000;0.141755
9159.000000;0.142316
9158.000000;0.142851
9157.000000;0.143552
9156.000000;0.144385
9155.000000;0.145231
9154.000000;0.146093
9153.000000;0.147022
9152.000000;0.147948
9151.000000;0.148718
9150.000000;0.149252
9149.000000;0.149575
9148.000000;0.149753
9147.000000;0.149892
9146.000000;0.150185
9145.000000;0.150810
9144.000000;0.151767
9143.000000;0.152865
9142.000000;0.153882
9141.000000;0.154694
9140.000000;0.155279
9139.000000;0.155722
9138.000000;0.156223
9137.000000;0.156992
9136.000000;0.158040
9135.000000;0.159109
9134.000000;0.159914
9133.000000;0.160439
9132.000000;0.160902
9131.000000;0.161467
9130.000000;0.162082
9129.000000;0.162630
9128.000000;0.163126
9127.000000;0.163664
9126.000000;0.164265
9125.000000;0.164882
9124.000000;0.165516
9123.000000;0.166246
9122.000000;0.167107
9121.000000;0.168023
9120.000000;0.168878
9119.000000;0.169591
9118.000000;0.170120
9117.000000;0.170462
9116.000000;0.170694
9115.000000;0.170964
9114.000000;0.171388
9113.000000;0.171997
9112.000000;0.172779
9111.000000;0.173710
9110.000000;0.174698
9109.000000;0.175556
9108.000000;0.176111
9107.000000;0.176367
9106.000000;0.176529
9105.000000;0.176849
9104.000000;0.177441
9103.000000;0.178206
9102.000000;0.178917
9101.000000;0.179413
9100.000000;0.179740
9099.000000;0.180087
9098.000000;0.180587
9097.000000;0.181217
9096.000000;0.181882
9095.000000;0.182536
9094.000000;0.183177
9093.000000;0.183776
9092.000000;0.184279
9091.000000;0.184674
9090.000000;0.185008
9089.000000;0.185347
9088.000000;0.185749
9087.000000;0.186264
9086.000000;0.186900
9085.000000;0.187601
9084.000000;0.188293
9083.000000;0.188932
9082.000000;0.189489
9081.000000;0.189918
9080.000000;0.190207
9079.000000;0.190470
9078.000000;0.190897
9077.000000;0.191575
9076.000000;0.192367
9075.000000;0.193039
9074.000000;0.193488
9073.000000;0.193825
9072.000000;0.194221
9071.000000;0.194709
9070.000000;0.195166
9069.000000;0.195487
9068.000000;0.195758
9067.000000;0.196190
9066.000000;0.196874
9065.000000;0.197633
9064.000000;0.198187
9063.000000;0.198446
9062.000000;0.198578
9061.000000;0.198786
9060.000000;0.199086
9059.000000;0.199362
9058.000000;0.199567
9057.000000;0.199807
9056.000000;0.200210
9055.000000;0.200783
9054.000000;0.201395
9053.000000;0.201880
9052.000000;0.202164
9051.000000;0.202338
9050.000000;0.202582
9049.000000;0.203020
9048.000000;0.203613
9047.000000;0.204221
9046.000000;0.204736
9045.000000;0.205118
9044.000000;0.205372
9043.000000;0.205547
9042.000000;0.205750
9041.000000;0.206038
9040.000000;0.206311
9039.000000;0.206435
9038.000000;0.206486
9037.000000;0.206751
9036.000000;0.207393
9035.000000;0.208241
9034.000000;0.208994
9033.000000;0.209559
9032.000000;0.210065
9031.000000;0.210623
9030.000000;0.211209
9029.000000;0.211747
9028.000000;0.212177
9027.000000;0.212444
9026.000000;0.212540
9025.000000;0.212559
9024.000000;0.212597
9023.000000;0.212620
9022.000000;0.212534
9021.000000;0.212403
9020.000000;0.212457
9019.000000;0.212847
9018.000000;0.213502
9017.000000;0.214244
9016.000000;0.214929
9015.000000;0.215449
9014.000000;0.215749
9013.000000;0.215913
9012.000000;0.216149
9011.000000;0.216583
9010.000000;0.217140
9009.000000;0.217658
9008.000000;0.218042
9007.000000;0.218285
9006.000000;0.218443
9005.000000;0.218646
9004.000000;0.219006
9003.000000;0.219453
9002.000000;0.219757
9001.000000;0.219798
9000.000000;0.219738
8999.000000;0.219813
8998.000000;0.220076
8997.000000;0.220429
8996.000000;0.220810
8995.000000;0.221226
8994.000000;0.221622
8993.000000;0.221880
8992.000000;0.221922
8991.000000;0.221771
8990.000000;0.221543
8989.000000;0.221436
8988.000000;0.221642
8987.000000;0.222163
8986.000000;0.222762
8985.000000;0.223169
8984.000000;0.223303
8983.000000;0.223253
8982.000000;0.223138
8981.000000;0.223102
8980.000000;0.223330
8979.000000;0.223907
8978.000000;0.224699
8977.000000;0.225504
8976.000000;0.226214
8975.000000;0.226731
8974.000000;0.226844
8973.000000;0.226452
8972.000000;0.225868
8971.000000;0.225619
8970.000000;0.225880
8969.000000;0.226315
8968.000000;0.226530
8967.000000;0.226513
8966.000000;0.226507
8965.000000;0.226652
8964.000000;0.226903
8963.000000;0.227205
8962.000000;0.227558
8961.000000;0.227933
8960.000000;0.228232
8959.000000;0.228352
8958.000000;0.228277
8957.000000;0.228120
8956.000000;0.228083
8955.000000;0.228339
8954.000000;0.228880
8953.000000;0.229512
8952.000000;0.229990
8951.000000;0.230175
8950.000000;0.230106
8949.000000;0.229996
8948.000000;0.230098
8947.000000;0.230457
8946.000000;0.230809
8945.000000;0.230848
8944.000000;0.230619
8943.000000;0.230516
8942.000000;0.230848
8941.000000;0.231527
8940.000000;0.232224
8939.000000;0.232703
8938.000000;0.232905
8937.000000;0.232845
8936.000000;0.232578
8935.000000;0.232232
8934.000000;0.231957
8933.000000;0.231819
8932.000000;0.231815
8931.000000;0.231938
8930.000000;0.232180
8929.000000;0.232492
8928.000000;0.232813
8927.000000;0.233104
8926.000000;0.233315
8925.000000;0.233362
8924.000000;0.233218
8923.000000;0.232993
8922.000000;0.232865
8921.000000;0.232933
8920.000000;0.233158
8919.000000;0.233427
8918.000000;0.233616
8917.000000;0.233660
8916.000000;0.233621
8915.000000;0.233691
8914.000000;0.234037
8913.000000;0.234604
8912.000000;0.235139
8911.000000;0.235421
8910.000000;0.235440
8909.000000;0.235329
8908.000000;0.235176
8907.000000;0.234988
8906.000000;0.234785
8905.000000;0.234658
8904.000000;0.234674
8903.000000;0.234778
8902.000000;0.234861
8901.000000;0.234919
8900.000000;0.235045
8899.000000;0.235242
8898.000000;0.235310
8897.000000;0.235045
8896.000000;0.234506
8895.000000;0.234028
8894.000000;0.233924
8893.000000;0.234231
8892.000000;0.234713
8891.000000;0.235073
8890.000000;0.235163
8889.000000;0.235093
8888.000000;0.235140
8887.000000;0.235483
8886.000000;0.235988
8885.000000;0.236325
8884.000000;0.236352
8883.000000;0.236283
8882.000000;0.236411
8881.000000;0.236708
8880.000000;0.236843
8879.000000;0.236580
8878.000000;0.236046
8877.000000;0.235525
8876.000000;0.235145
8875.000000;0.234864
8874.000000;0.234717
8873.000000;0.234878
8872.000000;0.235409
8871.000000;0.236061
8870.000000;0.236477
8869.000000;0.236560
8868.000000;0.236546
8867.000000;0.236694
8866.000000;0.236995
8865.000000;0.237219
8864.000000;0.237172
8863.000000;0.236828
8862.000000;0.236306
8861.000000;0.235802
8860.000000;0.235517
8859.000000;0.235559
8858.000000;0.235870
8857.000000;0.236267
8856.000000;0.236563
8855.000000;0.236664
8854.000000;0.236598
8853.000000;0.236471
8852.000000;0.236385
8851.000000;0.236336
8850.000000;0.236239
8849.000000;0.236056
8848.000000;0.235864
8847.000000;0.235746
8846.000000;0.235656
8845.000000;0.235464
8844.000000;0.235125
8843.000000;0.234754
8842.000000;0.234524
8841.000000;0.234518
8840.000000;0.234678
8839.000000;0.234865
8838.000000;0.234985
8837.000000;0.235068
8836.000000;0.235187
8835.000000;0.235313
8834.000000;0.235317
8833.000000;0.235145
8832.000000;0.234917
8831.000000;0.234790
8830.000000;0.234811
8829.000000;0.234942
8828.000000;0.235135
8827.000000;0.235285
8826.000000;0.235207
8825.000000;0.234821
8824.000000;0.234318
8823.000000;0.234019
8822.000000;0.234035
8821.000000;0.234209
8820.000000;0.234353
8819.000000;0.234411
8818.000000;0.234394
8817.000000;0.234307
8816.000000;0.234219
8815.000000;0.234275
8814.000000;0.234526
8813.000000;0.234840
8812.000000;0.235040
8811.000000;0.235093
8810.000000;0.235059
8809.000000;0.234943
8808.000000;0.234701
8807.000000;0.234371
8806.000000;0.234105
8805.000000;0.234023
8804.000000;0.234083
8803.000000;0.234134
8802.000000;0.234076
8801.000000;0.233933
8800.000000;0.233778
8799.000000;0.233610
8798.000000;0.233355
8797.000000;0.232997
8796.000000;0.232635
8795.000000;0.232368
8794.000000;0.232181
8793.000000;0.231993
8792.000000;0.231799
8791.000000;0.231667
8790.000000;0.231626
8789.000000;0.231628
8788.000000;0.231633
8787.000000;0.231631
8786.000000;0.231584
8785.000000;0.231443
8784.000000;0.231250
8783.000000;0.231148
8782.000000;0.231206
8781.000000;0.231294
8780.000000;0.231183
8779.000000;0.230760
8778.000000;0.230143
8777.000000;0.229582
8776.000000;0.229282
8775.000000;0.229267
8774.000000;0.229392
8773.000000;0.229502
8772.000000;0.229569
8771.000000;0.229659
8770.000000;0.229779
8769.000000;0.229857
8768.000000;0.229875
8767.000000;0.229915
8766.000000;0.230020
8765.000000;0.230072
8764.000000;0.229909
8763.000000;0.229528
8762.000000;0.229104
8761.000000;0.228790
8760.000000;0.228574
8759.000000;0.228345
8758.000000;0.228057
8757.000000;0.227769
8756.000000;0.227561
8755.000000;0.227471
8754.000000;0.227524
8753.000000;0.227722
8752.000000;0.227969
8751.000000;0.228036
8750.000000;0.227737
8749.000000;0.227147
8748.000000;0.226560
8747.000000;0.226207
8746.000000;0.226060
8745.000000;0.225943
8744.000000;0.225742
8743.000000;0.225464
8742.000000;0.225204
8741.000000;0.225100
8740.000000;0.225238
8739.000000;0.225494
8738.000000;0.225580
8737.000000;0.225364
8736.000000;0.225060
8735.000000;0.224946
8734.000000;0.224969
8733.000000;0.224814
8732.000000;0.224338
8731.000000;0.223733
8730.000000;0.223239
8729.000000;0.222885
8728.000000;0.222600
8727.000000;0.222376
8726.000000;0.222244
8725.000000;0.222185
8724.000000;0.222164
8723.000000;0.222159
8722.000000;0.222086
8721.000000;0.221816
8720.000000;0.221374
8719.000000;0.221012
8718.000000;0.220953
8717.000000;0.221134
8716.000000;0.221279
8715.000000;0.221190
8714.000000;0.220855
8713.000000;0.220352
8712.000000;0.219775
8711.000000;0.219244
8710.000000;0.218852
8709.000000;0.218590
8708.000000;0.218396
8707.000000;0.218279
8706.000000;0.218298
8705.000000;0.218414
8704.000000;0.218460
8703.000000;0.218319
8702.000000;0.218066
8701.000000;0.217882
8700.000000;0.217853
8699.000000;0.217901
8698.000000;0.217876
8697.000000;0.217704
8696.000000;0.217419
8695.000000;0.217098
8694.000000;0.216794
8693.000000;0.216533
8692.000000;0.216330
8691.000000;0.216170
8690.000000;0.215978
8689.000000;0.215655
8688.000000;0.215180
8687.000000;0.214651
8686.000000;0.214222
8685.000000;0.214001
8684.000000;0.213987
8683.000000;0.214067
8682.000000;0.214076
8681.000000;0.213907
8680.000000;0.213604
8679.000000;0.213316
8678.000000;0.213144
8677.000000;0.213051
8676.000000;0.212908
8675.000000;0.212602
8674.000000;0.212112
8673.000000;0.211535
8672.000000;0.211061
8671.000000;0.210855
8670.000000;0.210915
8669.000000;0.211042
8668.000000;0.210970
8667.000000;0.210542
8666.000000;0.209817
8665.000000;0.209049
8664.000000;0.208556
8663.000000;0.208491
8662.000000;0.208697
8661.000000;0.208850
8660.000000;0.208789
8659.000000;0.208632
8658.000000;0.208535
8657.000000;0.208435
8656.000000;0.208130
8655.000000;0.207558
8654.000000;0.206876
8653.000000;0.206272
8652.000000;0.205837
8651.000000;0.205603
8650.000000;0.205605
8649.000000;0.205809
8648.000000;0.206058
8647.000000;0.206156
8646.000000;0.205986
8645.000000;0.205529
8644.000000;0.204851
8643.000000;0.204118
8642.000000;0.203563
8641.000000;0.203300
8640.000000;0.203189
8639.000000;0.202971
8638.000000;0.202564
8637.000000;0.202165
8636.000000;0.202020
8635.000000;0.202170
8634.000000;0.202449
8633.000000;0.202666
8632.000000;0.202701
8631.000000;0.202497
8630.000000;0.202068
8629.000000;0.201528
8628.000000;0.201040
8627.000000;0.200688
8626.000000;0.200450
8625.000000;0.200273
8624.000000;0.200115
8623.000000;0.199909
8622.000000;0.199567
8621.000000;0.199079
8620.000000;0.198567
8619.000000;0.198202
8618.000000;0.198079
8617.000000;0.198171
8616.000000;0.198338
8615.000000;0.198358
8614.000000;0.198037
8613.000000;0.197370
8612.000000;0.196569
8611.000000;0.195879
8610.000000;0.195394
8609.000000;0.195082
8608.000000;0.194903
8607.000000;0.194840
8606.000000;0.194840
8605.000000;0.194792
8604.000000;0.194590
8603.000000;0.194182
8602.000000;0.193616
8601.000000;0.193069
8600.000000;0.192745
8599.000000;0.192671
8598.000000;0.192629
8597.000000;0.192404
8596.000000;0.192067
8595.000000;0.191874
8594.000000;0.191898
8593.000000;0.191905
8592.000000;0.191644
8591.000000;0.191157
8590.000000;0.190691
8589.000000;0.190398
8588.000000;0.190213
8587.000000;0.190007
8586.000000;0.189730
8585.000000;0.189394
8584.000000;0.188994
8583.000000;0.188503
8582.000000;0.187951
8581.000000;0.187463
8580.000000;0.187170
8579.000000;0.187081
8578.000000;0.187050
8577.000000;0.186920
8576.000000;0.186661
8575.000000;0.186350
8574.000000;0.186031
8573.000000;0.185672
8572.000000;0.185248
8571.000000;0.184805
8570.000000;0.184403
8569.000000;0.184041
8568.000000;0.183686
8567.000000;0.183340
8566.000000;0.183028
8565.000000;0.182753
8564.000000;0.182505
8563.000000;0.182313
8562.000000;0.182231
8561.000000;0.182241
8560.000000;0.182215
8559.000000;0.182007
8558.000000;0.181604
8557.000000;0.181161
8556.000000;0.180860
8555.000000;0.180725
8554.000000;0.180578
8553.000000;0.180189
8552.000000;0.179493
8551.000000;0.178663
8550.000000;0.177979
8549.000000;0.177601
8548.000000;0.177479
8547.000000;0.177454
8546.000000;0.177422
8545.000000;0.177358
8544.000000;0.177214
8543.000000;0.176896
8542.000000;0.176392
8541.000000;0.175846
8540.000000;0.175434
8539.000000;0.175176
8538.000000;0.174962
8537.000000;0.174723
8536.000000;0.174500
8535.000000;0.174322
8534.000000;0.174129
8533.000000;0.173865
8532.000000;0.173566
8531.000000;0.173292
8530.000000;0.173034
8529.000000;0.172763
8528.000000;0.172519
8527.000000;0.172374
8526.000000;0.172325
8525.000000;0.172288
8524.000000;0.172173
8523.000000;0.171928
8522.000000;0.171519
8521.000000;0.170943
8520.000000;0.170237
8519.000000;0.169466
8518.000000;0.168706
8517.000000;0.168063
8516.000000;0.167656
8515.000000;0.167532
8514.000000;0.167608
8513.000000;0.167738
8512.000000;0.167820
8511.000000;0.167814
8510.000000;0.167717
8509.000000;0.167533
8508.000000;0.167261
8507.000000;0.166878
8506.000000;0.166391
8505.000000;0.165932
8504.000000;0.165707
8503.000000;0.165760
8502.000000;0.165877
8501.000000;0.165802
8500.000000;0.165522
8499.000000;0.165205
8498.000000;0.164910
8497.000000;0.164491
8496.000000;0.163848
8495.000000;0.163126
8494.000000;0.162605
8493.000000;0.162432
8492.000000;0.162497
8491.000000;0.162531
8490.000000;0.162285
8489.000000;0.161691
8488.000000;0.160923
8487.000000;0.160289
8486.000000;0.160006
8485.000000;0.160014
8484.000000;0.160008
8483.000000;0.159689
8482.000000;0.159044
8481.000000;0.158371
8480.000000;0.157997
8479.000000;0.157961
8478.000000;0.157992
8477.000000;0.157802
8476.000000;0.157351
8475.000000;0.156803
8474.000000;0.156327
8473.000000;0.155988
8472.000000;0.155780
8471.000000;0.155665
8470.000000;0.155592
8469.000000;0.155525
8468.000000;0.155439
8467.000000;0.155262
8466.000000;0.154902
8465.000000;0.154357
8464.000000;0.153774
8463.000000;0.153300
8462.000000;0.152945
8461.000000;0.152626
8460.000000;0.152318
8459.000000;0.152072
8458.000000;0.151933
8457.000000;0.151912
8456.000000;0.151994
8455.000000;0.152080
8454.000000;0.151964
8453.000000;0.151495
8452.000000;0.150778
8451.000000;0.150099
8450.000000;0.149650
8449.000000;0.149391
8448.000000;0.149175
8447.000000;0.148915
8446.000000;0.148601
8445.000000;0.148265
8444.000000;0.147968
8443.000000;0.147758
8442.000000;0.147588
8441.000000;0.147323
8440.000000;0.146866
8439.000000;0.146257
8438.000000;0.145637
8437.000000;0.145158
8436.000000;0.144921
8435.000000;0.144943
8434.000000;0.145144
8433.000000;0.145382
8432.000000;0.145508
8431.000000;0.145410
8430.000000;0.145039
8429.000000;0.144460
8428.000000;0.143847
8427.000000;0.143365
8426.000000;0.143027
8425.000000;0.142716
8424.000000;0.142331
8423.000000;0.141883
8422.000000;0.141462
8421.000000;0.141151
8420.000000;0.140969
8419.000000;0.140854
8418.000000;0.140690
8417.000000;0.140427
8416.000000;0.140152
8415.000000;0.140005
8414.000000;0.140017
8413.000000;0.140076
8412.000000;0.140036
8411.000000;0.139841
8410.000000;0.139532
8409.000000;0.139184
8408.000000;0.138837
8407.000000;0.138477
8406.000000;0.138086
8405.000000;0.137710
8404.000000;0.137431
8403.000000;0.137248
8402.000000;0.137052
8401.000000;0.136750
8400.000000;0.136365
8399.000000;0.135972
8398.000000;0.135607
8397.000000;0.135306
8396.000000;0.135134
8395.000000;0.135068
8394.000000;0.134931
8393.000000;0.134564
8392.000000;0.134031
8391.000000;0.133521
8390.000000;0.133102
8389.000000;0.132710
8388.000000;0.132366
8387.000000;0.132201
8386.000000;0.132247
8385.000000;0.132338
8384.000000;0.132292
8383.000000;0.132087
8382.000000;0.131789
8381.000000;0.131441
8380.000000;0.131059
8379.000000;0.130675
8378.000000;0.130290
8377.000000;0.129865
8376.000000;0.129425
8375.000000;0.129096
8374.000000;0.128981
8373.000000;0.129025
8372.000000;0.129048
8371.000000;0.128900
8370.000000;0.128553
8369.000000;0.128099
8368.000000;0.127689
8367.000000;0.127427
8366.000000;0.127299
8365.000000;0.127220
8364.000000;0.127140
8363.000000;0.127057
8362.000000;0.126921
8361.000000;0.126635
8360.000000;0.126172
8359.000000;0.125658
8358.000000;0.125252
8357.000000;0.125010
8356.000000;0.124852
8355.000000;0.124654
8354.000000;0.124348
8353.000000;0.123976
8352.000000;0.123659
8351.000000;0.123481
8350.000000;0.123396
8349.000000;0.123285
8348.000000;0.123095
8347.000000;0.122859
8346.000000;0.122608
8345.000000;0.122338
8344.000000;0.122075
8343.000000;0.121876
8342.000000;0.121757
8341.000000;0.121681
8340.000000;0.121629
8339.000000;0.121580
8338.000000;0.121434
8337.000000;0.121068
8336.000000;0.120529
8335.000000;0.120046
8334.000000;0.119791
8333.000000;0.119689
8332.000000;0.119547
8331.000000;0.119279
8330.000000;0.118941
8329.000000;0.118619
8328.000000;0.118351
8327.000000;0.118142
8326.000000;0.117977
8325.000000;0.117828
8324.000000;0.117685
8323.000000;0.117539
8322.000000;0.117321
8321.000000;0.116941
8320.000000;0.116434
8319.000000;0.115997
8318.000000;0.115805
8317.000000;0.115829
8316.000000;0.115893
8315.000000;0.115872
8314.000000;0.115765
8313.000000;0.115616
8312.000000;0.115436
8311.000000;0.115210
8310.000000;0.114938
8309.000000;0.114650
8308.000000;0.114389
8307.000000;0.114161
8306.000000;0.113896
8305.000000;0.113532
8304.000000;0.113124
8303.000000;0.112816
8302.000000;0.112662
8301.000000;0.112574
8300.000000;0.112462
8299.000000;0.112353
8298.000000;0.112287
8297.000000;0.112208
8296.000000;0.112040
8295.000000;0.111808
8294.000000;0.111586
8293.000000;0.111359
8292.000000;0.111059
8291.000000;0.110711
8290.000000;0.110422
8289.000000;0.110241
8288.000000;0.110101
8287.000000;0.109924
8286.000000;0.109698
8285.000000;0.109451
8284.000000;0.109231
8283.000000;0.109092
8282.000000;0.109046
8281.000000;0.109008
8280.000000;0.108878
8279.000000;0.108660
8278.000000;0.108440
8277.000000;0.108251
8276.000000;0.108048
8275.000000;0.107830
8274.000000;0.107665
8273.000000;0.107575
8272.000000;0.107475
8271.000000;0.107283
8270.000000;0.107027
8269.000000;0.106770
8268.000000;0.106520
8267.000000;0.106278
8266.000000;0.106117
8265.000000;0.106127
8264.000000;0.106276
8263.000000;0.106407
8262.000000;0.106375
8261.000000;0.106141
8260.000000;0.105756
8259.000000;0.105332
8258.000000;0.105001
8257.000000;0.104856
8256.000000;0.104883
8255.000000;0.104968
8254.000000;0.104999
8253.000000;0.104924
8252.000000;0.104751
8251.000000;0.104524
8250.000000;0.104313
8249.000000;0.104170
8248.000000;0.104066
8247.000000;0.103927
8246.000000;0.103722
8245.000000;0.103492
8244.000000;0.103270
8243.000000;0.103027
8242.000000;0.102731
8241.000000;0.102421
8240.000000;0.102170
8239.000000;0.102002
8238.000000;0.101887
8237.000000;0.101782
8236.000000;0.101657
8235.000000;0.101494
8234.000000;0.101305
8233.000000;0.101132
8232.000000;0.100984
8231.000000;0.100789
8230.000000;0.100480
8229.000000;0.100104
8228.000000;0.099779
8227.000000;0.099549
8226.000000;0.099372
8225.000000;0.099243
8224.000000;0.099228
8223.000000;0.099322
8222.000000;0.099364
8221.000000;0.099217
8220.000000;0.098956
8219.000000;0.098796
8218.000000;0.098835
8217.000000;0.098959
8216.000000;0.099003
8215.000000;0.098921
8214.000000;0.098769
8213.000000;0.098588
8212.000000;0.098366
8211.000000;0.098103
8210.000000;0.097866
8209.000000;0.097736
8208.000000;0.097718
8207.000000;0.097710
8206.000000;0.097587
8205.000000;0.097329
8204.000000;0.097049
8203.000000;0.096868
8202.000000;0.096790
8201.000000;0.096727
8200.000000;0.096617
8199.000000;0.096467
8198.000000;0.096294
8197.000000;0.096090
8196.000000;0.095856
8195.000000;0.095642
8194.000000;0.095505
8193.000000;0.095445
8192.000000;0.095414
8191.000000;0.095372
8190.000000;0.095328
8189.000000;0.095313
8188.000000;0.095338
8187.000000;0.095377
8186.000000;0.095405
8185.000000;0.095409
8184.000000;0.095372
8183.000000;0.095265
8182.000000;0.095064
8181.000000;0.094786
8180.000000;0.094473
8179.000000;0.094178
8178.000000;0.093966
8177.000000;0.093900
8176.000000;0.093961
8175.000000;0.094012
8174.000000;0.093918
8173.000000;0.093693
8172.000000;0.093472
8171.000000;0.093324
8170.000000;0.093179
8169.000000;0.092957
8168.000000;0.092716
8167.000000;0.092592
8166.000000;0.092646
8165.000000;0.092825
8164.000000;0.093030
8163.000000;0.093168
8162.000000;0.093167
8161.000000;0.093012
8160.000000;0.092769
8159.000000;0.092543
8158.000000;0.092405
8157.000000;0.092371
8156.000000;0.092403
8155.000000;0.092400
8154.000000;0.092250
8153.000000;0.091938
8152.000000;0.091588
8151.000000;0.091331
8150.000000;0.091169
8149.000000;0.091013
8148.000000;0.090827
8147.000000;0.090693
8146.000000;0.090698
8145.000000;0.090826
8144.000000;0.090963
8143.000000;0.090985
8142.000000;0.090856
8141.000000;0.090653
8140.000000;0.090469
8139.000000;0.090318
8138.000000;0.090156
8137.000000;0.089995
8136.000000;0.089907
8135.000000;0.089905
8134.000000;0.089900
8133.000000;0.089830
8132.000000;0.089756
8131.000000;0.089745
8130.000000;0.089754
8129.000000;0.089710
8128.000000;0.089662
8127.000000;0.089707
8126.000000;0.089813
8125.000000;0.089824
8124.000000;0.089670
8123.000000;0.089447
8122.000000;0.089273
8121.000000;0.089158
8120.000000;0.089051
8119.000000;0.088937
8118.000000;0.088846
8117.000000;0.088812
8116.000000;0.088853
8115.000000;0.088950
8114.000000;0.089034
8113.000000;0.089034
8112.000000;0.088927
8111.000000;0.088730
8110.000000;0.088453
8109.000000;0.088139
8108.000000;0.087904
8107.000000;0.087847
8106.000000;0.087915
8105.000000;0.087946
8104.000000;0.087845
8103.000000;0.087654
8102.000000;0.087449
8101.000000;0.087261
8100.000000;0.087136
8099.000000;0.087150
8098.000000;0.087304
8097.000000;0.087488
8096.000000;0.087599
8095.000000;0.087631
8094.000000;0.087607
8093.000000;0.087501
8092.000000;0.087318
8091.000000;0.087177
8090.000000;0.087199
8089.000000;0.087324
8088.000000;0.087333
8087.000000;0.087092
8086.000000;0.086705
8085.000000;0.086408
8084.000000;0.086337
8083.000000;0.086426
8082.000000;0.086503
8081.000000;0.086464
8080.000000;0.086346
8079.000000;0.086251
8078.000000;0.086221
8077.000000;0.086209
8076.000000;0.086148
8075.000000;0.086032
8074.000000;0.085908
8073.000000;0.085829
8072.000000;0.085820
8071.000000;0.085875
8070.000000;0.085977
8069.000000;0.086119
8068.000000;0.086297
8067.000000;0.086460
8066.000000;0.086498
8065.000000;0.086330
8064.000000;0.086009
8063.000000;0.085701
8062.000000;0.085546
8061.000000;0.085556
8060.000000;0.085642
8059.000000;0.085704
8058.000000;0.085677
8057.000000;0.085547
8056.000000;0.085356
8055.000000;0.085185
8054.000000;0.085108
8053.000000;0.085157
8052.000000;0.085296
8051.000000;0.085430
8050.000000;0.085442
8049.000000;0.085290
8048.000000;0.085060
8047.000000;0.084882
8046.000000;0.084784
8045.000000;0.084687
8044.000000;0.084535
8043.000000;0.084395
8042.000000;0.084385
8041.000000;0.084556
8040.000000;0.084850
8039.000000;0.085149
8038.000000;0.085322
8037.000000;0.085289
8036.000000;0.085071
8035.000000;0.084782
8034.000000;0.084532
8033.000000;0.084341
8032.000000;0.084157
8031.000000;0.083956
8030.000000;0.083798
8029.000000;0.083777
8028.000000;0.083921
8027.000000;0.084140
8026.000000;0.084288
8025.000000;0.084288
8024.000000;0.084188
8023.000000;0.084080
8022.000000;0.083998
8021.000000;0.083895
8020.000000;0.083732
8019.000000;0.083540
8018.000000;0.083394
8017.000000;0.083330
8016.000000;0.083313
8015.000000;0.083278
8014.000000;0.083198
8013.000000;0.083114
8012.000000;0.083090
8011.000000;0.083140
8010.000000;0.083215
8009.000000;0.083271
8008.000000;0.083317
8007.000000;0.083391
8006.000000;0.083497
8005.000000;0.083599
8004.000000;0.083627
8003.000000;0.083513
8002.000000;0.083236
8001.000000;0.082889
8000.000000;0.082635
7999.000000;0.082560
7998.000000;0.082603
7997.000000;0.082674
7996.000000;0.082782
7995.000000;0.082989
7994.000000;0.083258
7993.000000;0.083450
7992.000000;0.083472
7991.000000;0.083355
7990.000000;0.083188
7989.000000;0.083026
7988.000000;0.082900
7987.000000;0.082839
7986.000000;0.082850
7985.000000;0.082894
7984.000000;0.082919
7983.000000;0.082897
7982.000000;0.082844
7981.000000;0.082830
7980.000000;0.082950
7979.000000;0.083222
7978.000000;0.083514
7977.000000;0.083620
7976.000000;0.083443
7975.000000;0.083077
7974.000000;0.082708
7973.000000;0.082475
7972.000000;0.082410
7971.000000;0.082457
7970.000000;0.082533
7969.000000;0.082591
7968.000000;0.082637
7967.000000;0.082662
7966.000000;0.082588
7965.000000;0.082355
7964.000000;0.082034
7963.000000;0.081790
7962.000000;0.081728
7961.000000;0.081827
7960.000000;0.082003
7959.000000;0.082189
7958.000000;0.082317
7957.000000;0.082326
7956.000000;0.082204
7955.000000;0.081998
7954.000000;0.081761
7953.000000;0.081535
7952.000000;0.081400
7951.000000;0.081452
7950.000000;0.081685
7949.000000;0.081951
7948.000000;0.082098
7947.000000;0.082105
7946.000000;0.082064
7945.000000;0.082047
7944.000000;0.082044
7943.000000;0.082001
7942.000000;0.081894
7941.000000;0.081764
7940.000000;0.081698
7939.000000;0.081743
7938.000000;0.081830
7937.000000;0.081820
7936.000000;0.081649
7935.000000;0.081401
7934.000000;0.081228
7933.000000;0.081237
7932.000000;0.081432
7931.000000;0.081714
7930.000000;0.081916
7929.000000;0.081910
7928.000000;0.081720
7927.000000;0.081514
7926.000000;0.081428
7925.000000;0.081460
7924.000000;0.081522
7923.000000;0.081563
7922.000000;0.081579
7921.000000;0.081560
7920.000000;0.081498
7919.000000;0.081427
7918.000000;0.081404
7917.000000;0.081435
7916.000000;0.081466
7915.000000;0.081438
7914.000000;0.081333
7913.000000;0.081167
7912.000000;0.080987
7911.000000;0.080857
7910.000000;0.080809
7909.000000;0.080819
7908.000000;0.080848
7907.000000;0.080886
7906.000000;0.080949
7905.000000;0.081033
7904.000000;0.081121
7903.000000;0.081213
7902.000000;0.081320
7901.000000;0.081399
7900.000000;0.081367
7899.000000;0.081194
7898.000000;0.080967
7897.000000;0.080812
7896.000000;0.080762
7895.000000;0.080742
7894.000000;0.080688
7893.000000;0.080634
7892.000000;0.080646
7891.000000;0.080698
7890.000000;0.080687
7889.000000;0.080582
7888.000000;0.080493
7887.000000;0.080547
7886.000000;0.080722
7885.000000;0.080857
7884.000000;0.080835
7883.000000;0.080703
7882.000000;0.080605
7881.000000;0.080618
7880.000000;0.080690
7879.000000;0.080718
7878.000000;0.080666
7877.000000;0.080587
7876.000000;0.080535
7875.000000;0.080475
7874.000000;0.080319
7873.000000;0.080053
7872.000000;0.079785
7871.000000;0.079649
7870.000000;0.079700
7869.000000;0.079902
7868.000000;0.080180
7867.000000;0.080433
7866.000000;0.080568
7865.000000;0.080572
7864.000000;0.080527
7863.000000;0.080496
7862.000000;0.080423
7861.000000;0.080237
7860.000000;0.080001
7859.000000;0.079885
7858.000000;0.079969
7857.000000;0.080148
7856.000000;0.080269
7855.000000;0.080273
7854.000000;0.080194
7853.000000;0.080094
7852.000000;0.080032
7851.000000;0.080049
7850.000000;0.080120
7849.000000;0.080163
7848.000000;0.080138
7847.000000;0.080102
7846.000000;0.080122
7845.000000;0.080171
7844.000000;0.080156
7843.000000;0.080047
7842.000000;0.079922
7841.000000;0.079878
7840.000000;0.079929
7839.000000;0.080009
7838.000000;0.080068
7837.000000;0.080128
7836.000000;0.080234
7835.000000;0.080358
7834.000000;0.080396
7833.000000;0.080282
7832.000000;0.080076
7831.000000;0.079895
7830.000000;0.079779
7829.000000;0.079692
7828.000000;0.079629
7827.000000;0.079647
7826.000000;0.079757
7825.000000;0.079864
7824.000000;0.079875
7823.000000;0.079818
7822.000000;0.079804
7821.000000;0.079865
7820.000000;0.079899
7819.000000;0.079787
7818.000000;0.079532
7817.000000;0.079268
7816.000000;0.079129
7815.000000;0.079126
7814.000000;0.079162
7813.000000;0.079163
7812.000000;0.079150
7811.000000;0.079167
7810.000000;0.079184
7809.000000;0.079136
7808.000000;0.079039
7807.000000;0.079001
7806.000000;0.079099
7805.000000;0.079273
7804.000000;0.079387
7803.000000;0.079361
7802.000000;0.079230
7801.000000;0.079098
7800.000000;0.079038
7799.000000;0.079043
7798.000000;0.079037
7797.000000;0.078970
7796.000000;0.078859
7795.000000;0.078746
7794.000000;0.078633
7793.000000;0.078511
7792.000000;0.078425
7791.000000;0.078434
7790.000000;0.078515
7789.000000;0.078583
7788.000000;0.078602
7787.000000;0.078636
7786.000000;0.078739
7785.000000;0.078861
7784.000000;0.078903
7783.000000;0.078825
7782.000000;0.078667
7781.000000;0.078493
7780.000000;0.078353
7779.000000;0.078276
7778.000000;0.078255
7777.000000;0.078236
7776.000000;0.078167
7775.000000;0.078052
7774.000000;0.077966
7773.000000;0.078005
7772.000000;0.078199
7771.000000;0.078467
7770.000000;0.078651
7769.000000;0.078648
7768.000000;0.078511
7767.000000;0.078383
7766.000000;0.078352
7765.000000;0.078397
7764.000000;0.078465
7763.000000;0.078533
7762.000000;0.078583
7761.000000;0.078594
7760.000000;0.078572
7759.000000;0.078562
7758.000000;0.078575
7757.000000;0.078575
7756.000000;0.078546
7755.000000;0.078526
7754.000000;0.078535
7753.000000;0.078523
7752.000000;0.078417
7751.000000;0.078211
7750.000000;0.077967
7749.000000;0.077766
7748.000000;0.077676
7747.000000;0.077735
7746.000000;0.077895
7745.000000;0.078026
7744.000000;0.078025
7743.000000;0.077915
7742.000000;0.077801
7741.000000;0.077756
7740.000000;0.077774
7739.000000;0.077815
7738.000000;0.077852
7737.000000;0.077868
7736.000000;0.077860
7735.000000;0.077842
7734.000000;0.077829
7733.000000;0.077823
7732.000000;0.077840
7731.000000;0.077916
7730.000000;0.078055
7729.000000;0.078185
7728.000000;0.078200
7727.000000;0.078074
7726.000000;0.077901
7725.000000;0.077816
7724.000000;0.077877
7723.000000;0.078023
7722.000000;0.078121
7721.000000;0.078066
7720.000000;0.077877
7719.000000;0.077682
7718.000000;0.077612
7717.000000;0.077690
7716.000000;0.077817
7715.000000;0.077878
7714.000000;0.077835
7713.000000;0.077747
7712.000000;0.077696
7711.000000;0.077702
7710.000000;0.077708
7709.000000;0.077647
7708.000000;0.077508
7707.000000;0.077342
7706.000000;0.077215
7705.000000;0.077173
7704.000000;0.077224
7703.000000;0.077325
7702.000000;0.077397
7701.000000;0.077396
7700.000000;0.077364
7699.000000;0.077380
7698.000000;0.077452
7697.000000;0.077507
7696.000000;0.077494
7695.000000;0.077448
7694.000000;0.077427
7693.000000;0.077429
7692.000000;0.077402
7691.000000;0.077327
7690.000000;0.077248
7689.000000;0.077218
7688.000000;0.077237
7687.000000;0.077249
7686.000000;0.077207
7685.000000;0.077134
7684.000000;0.077104
7683.000000;0.077147
7682.000000;0.077197
7681.000000;0.077169
7680.000000;0.077064
7679.000000;0.076959
7678.000000;0.076906
7677.000000;0.076899
7676.000000;0.076934
7675.000000;0.077027
7674.000000;0.077157
7673.000000;0.077234
7672.000000;0.077187
7671.000000;0.077039
7670.000000;0.076867
7669.000000;0.076737
7668.000000;0.076679
7667.000000;0.076710
7666.000000;0.076808
7665.000000;0.076906
7664.000000;0.076951
7663.000000;0.076954
7662.000000;0.076954
7661.000000;0.076945
7660.000000;0.076887
7659.000000;0.076777
7658.000000;0.076679
7657.000000;0.076665
7656.000000;0.076737
7655.000000;0.076814
7654.000000;0.076790
7653.000000;0.076638
7652.000000;0.076441
7651.000000;0.076319
7650.000000;0.076323
7649.000000;0.076415
7648.000000;0.076550
7647.000000;0.076702
7646.000000;0.076829
7645.000000;0.076866
7644.000000;0.076798
7643.000000;0.076695
7642.000000;0.076634
7641.000000;0.076629
7640.000000;0.076644
7639.000000;0.076642
7638.000000;0.076585
7637.000000;0.076431
7636.000000;0.076194
7635.000000;0.075972
7634.000000;0.075869
7633.000000;0.075901
7632.000000;0.075997
7631.000000;0.076089
7630.000000;0.076149
7629.000000;0.076175
7628.000000;0.076185
7627.000000;0.076208
7626.000000;0.076260
7625.000000;0.076308
7624.000000;0.076295
7623.000000;0.076196
7622.000000;0.076049
7621.000000;0.075933
7620.000000;0.075915
7619.000000;0.076007
7618.000000;0.076148
7617.000000;0.076248
7616.000000;0.076275
7615.000000;0.076267
7614.000000;0.076267
7613.000000;0.076260
7612.000000;0.076213
7611.000000;0.076127
7610.000000;0.076040
7609.000000;0.075975
7608.000000;0.075934
7607.000000;0.075919
7606.000000;0.075940
7605.000000;0.076000
7604.000000;0.076094
7603.000000;0.076209
7602.000000;0.076311
7601.000000;0.076344
7600.000000;0.076273
7599.000000;0.076110
7598.000000;0.075898
7597.000000;0.075688
7596.000000;0.075549
7595.000000;0.075533
7594.000000;0.075618
7593.000000;0.075697
7592.000000;0.075679
7591.000000;0.075577
7590.000000;0.075482
7589.000000;0.075462
7588.000000;0.075517
7587.000000;0.075591
7586.000000;0.075616
7585.000000;0.075553
7584.000000;0.075428
7583.000000;0.075316
7582.000000;0.075260
7581.000000;0.075243
7580.000000;0.075241
7579.000000;0.075264
7578.000000;0.075321
7577.000000;0.075386
7576.000000;0.075435
7575.000000;0.075487
7574.000000;0.075550
7573.000000;0.075578
7572.000000;0.075507
7571.000000;0.075352
7570.000000;0.075190
7569.000000;0.075087
7568.000000;0.075056
7567.000000;0.075082
7566.000000;0.075140
7565.000000;0.075196
7564.000000;0.075217
7563.000000;0.075187
7562.000000;0.075101
7561.000000;0.074969
7560.000000;0.074844
7559.000000;0.074803
7558.000000;0.074861
7557.000000;0.074944
7556.000000;0.074977
7555.000000;0.074972
7554.000000;0.074984
7553.000000;0.075013
7552.000000;0.075011
7551.000000;0.074971
7550.000000;0.074936
7549.000000;0.074934
7548.000000;0.074953
7547.000000;0.074984
7546.000000;0.075024
7545.000000;0.075053
7544.000000;0.075034
7543.000000;0.074953
7542.000000;0.074826
7541.000000;0.074666
7540.000000;0.074496
7539.000000;0.074354
7538.000000;0.074278
7537.000000;0.074273
7536.000000;0.074333
7535.000000;0.074454
7534.000000;0.074602
7533.000000;0.074686
7532.000000;0.074632
7531.000000;0.074467
7530.000000;0.074284
7529.000000;0.074140
7528.000000;0.074036
7527.000000;0.073962
7526.000000;0.073926
7525.000000;0.073933
7524.000000;0.073983
7523.000000;0.074078
7522.000000;0.074184
7521.000000;0.074221
7520.000000;0.074147
7519.000000;0.074031
7518.000000;0.073977
7517.000000;0.073995
7516.000000;0.074008
7515.000000;0.073987
7514.000000;0.073982
7513.000000;0.074021
7512.000000;0.074054
7511.000000;0.074038
7510.000000;0.074016
7509.000000;0.074062
7508.000000;0.074194
7507.000000;0.074349
7506.000000;0.074421
7505.000000;0.074325
7504.000000;0.074056
7503.000000;0.073727
7502.000000;0.073501
7501.000000;0.073463
7500.000000;0.073574
7499.000000;0.073739
7498.000000;0.073877
7497.000000;0.073933
7496.000000;0.073883
7495.000000;0.073755
7494.000000;0.073614
7493.000000;0.073514
7492.000000;0.073487
7491.000000;0.073533
7490.000000;0.073720
7489.000000;0.073806
7488.000000;0.073833
7487.000000;0.073812
7486.000000;0.073751
7485.000000;0.073628
7484.000000;0.073440
7483.000000;0.073275
7482.000000;0.073229
7481.000000;0.073271
7480.000000;0.073268
7479.000000;0.073174
7478.000000;0.073083
7477.000000;0.073095
7476.000000;0.073186
7475.000000;0.073280
7474.000000;0.073342
7473.000000;0.073374
7472.000000;0.073361
7471.000000;0.073304
7470.000000;0.073251
7469.000000;0.073250
7468.000000;0.073294
7467.000000;0.073345
7466.000000;0.073377
7465.000000;0.073374
7464.000000;0.073310
7463.000000;0.073185
7462.000000;0.073042
7461.000000;0.072935
7460.000000;0.072891
7459.000000;0.072911
7458.000000;0.072974
7457.000000;0.073038
7456.000000;0.073065
7455.000000;0.073051
7454.000000;0.073007
7453.000000;0.072928
7452.000000;0.072824
7451.000000;0.072760
7450.000000;0.072797
7449.000000;0.072899
7448.000000;0.072947
7447.000000;0.072871
7446.000000;0.072712
7445.000000;0.072569
7444.000000;0.072517
7443.000000;0.072584
7442.000000;0.072721
7441.000000;0.072822
7440.000000;0.072826
7439.000000;0.072806
7438.000000;0.072887
7437.000000;0.073065
7436.000000;0.073203
7435.000000;0.073202
7434.000000;0.073105
7433.000000;0.072983
7432.000000;0.072846
7431.000000;0.072703
7430.000000;0.072630
7429.000000;0.072687
7428.000000;0.072831
7427.000000;0.072960
7426.000000;0.072994
7425.000000;0.072922
7424.000000;0.072814
7423.000000;0.072798
7422.000000;0.072973
7421.000000;0.073290
7420.000000;0.073569
7419.000000;0.073683
7418.000000;0.073718
7417.000000;0.073877
7416.000000;0.074222
7415.000000;0.074569
7414.000000;0.074674
7413.000000;0.074474
7412.000000;0.074142
7411.000000;0.073912
7410.000000;0.073877
7409.000000;0.073971
7408.000000;0.074114
7407.000000;0.074304
7406.000000;0.074486
7405.000000;0.074477
7404.000000;0.074197
7403.000000;0.073919
7402.000000;0.074057
7401.000000;0.074685
7400.000000;0.075383
7399.000000;0.075635
7398.000000;0.075321
7397.000000;0.074803
7396.000000;0.074624
7395.000000;0.075094
7394.000000;0.075974
7393.000000;0.076614
7392.000000;0.076678
7391.000000;0.076521
7390.000000;0.076598
7389.000000;0.076855
7388.000000;0.077060
7387.000000;0.077390
7386.000000;0.078204
7385.000000;0.079344
7384.000000;0.080253
7383.000000;0.080750
7382.000000;0.081146
7381.000000;0.081528
7380.000000;0.081641
7379.000000;0.081665
7378.000000;0.082452
7377.000000;0.084413
7376.000000;0.086443
7375.000000;0.086778
7374.000000;0.085070
7373.000000;0.083062
7372.000000;0.082876
7371.000000;0.084847
7370.000000;0.087239
7369.000000;0.087903
7368.000000;0.086184
7367.000000;0.083478
7366.000000;0.081996
7365.000000;0.082722
7364.000000;0.084592
7363.000000;0.085721
7362.000000;0.085116
7361.000000;0.083152
7360.000000;0.081069
7359.000000;0.080277
7358.000000;0.081624
7357.000000;0.084638
7356.000000;0.087300
7355.000000;0.087433
7354.000000;0.084982
7353.000000;0.082454
7352.000000;0.082480
7351.000000;0.085253
7350.000000;0.088625
7349.000000;0.090149
7348.000000;0.089064
7347.000000;0.086855
7346.000000;0.086172
7345.000000;0.088506
7344.000000;0.092673
7343.000000;0.096148
7342.000000;0.097944
7341.000000;0.099282
7340.000000;0.101130
7339.000000;0.102590
7338.000000;0.102513
7337.000000;0.101550
7336.000000;0.101207
7335.000000;0.101457
7334.000000;0.100635
7333.000000;0.097706
7332.000000;0.093745
7331.000000;0.090833
7330.000000;0.090217
7329.000000;0.091455
7328.000000;0.092552
7327.000000;0.091502
7326.000000;0.088809
7325.000000;0.087587
7324.000000;0.089852
7323.000000;0.093588
7322.000000;0.095000
7321.000000;0.093139
7320.000000;0.090605
7319.000000;0.089959
7318.000000;0.090899
7317.000000;0.091250
7316.000000;0.089545
7315.000000;0.086266
7314.000000;0.083205
7313.000000;0.081882
7312.000000;0.082227
7311.000000;0.082728
7310.000000;0.082376
7309.000000;0.082318
7308.000000;0.084269
7307.000000;0.087440
7306.000000;0.088920
7305.000000;0.087591
7304.000000;0.085905
7303.000000;0.086787
7302.000000;0.090054
7301.000000;0.092850
7300.000000;0.092732
7299.000000;0.089721
7298.000000;0.086104
7297.000000;0.084781
7296.000000;0.087040
7295.000000;0.091221
7294.000000;0.093023
7293.000000;0.090934
7292.000000;0.086044
7291.000000;0.085343
7290.000000;0.085323
7289.000000;0.070912
7288.000000;0.072824
7287.000000;0.072265
7286.000000;0.072104
7285.000000;0.071061
7284.000000;0.070515
7283.000000;0.070348
7282.000000;0.070511
7281.000000;0.070585
7280.000000;0.070321
7279.000000;0.070189
7278.000000;0.069821
7277.000000;0.070465
7276.000000;0.074227
7275.000000;0.073981
7274.000000;0.074136
7273.000000;0.073879
7272.000000;0.073671
7271.000000;0.073540
7270.000000;0.073794
7269.000000;0.074338
7268.000000;0.074832
7267.000000;0.074849
7266.000000;0.074432
7265.000000;0.074262
7264.000000;0.074993
7263.000000;0.076367
7262.000000;0.077279
7261.000000;0.076934
7260.000000;0.075782
7259.000000;0.074991
7258.000000;0.075170
7257.000000;0.075925
7256.000000;0.076578
7255.000000;0.076940
7254.000000;0.077209
7253.000000;0.077398
7252.000000;0.077302
7251.000000;0.076986
7250.000000;0.076881
7249.000000;0.077233
7248.000000;0.077734
7247.000000;0.078068
7246.000000;0.078633
7245.000000;0.080462
7244.000000;0.083980
7243.000000;0.087754
7242.000000;0.089551
7241.000000;0.089086
7240.000000;0.088737
7239.000000;0.090685
7238.000000;0.094113
7237.000000;0.096128
7236.000000;0.095374
7235.000000;0.093858
7234.000000;0.094593
7233.000000;0.097855
7232.000000;0.100631
7231.000000;0.100110
7230.000000;0.097095
7229.000000;0.095121
7228.000000;0.096390
7227.000000;0.099312
7226.000000;0.100161
7225.000000;0.097279
7224.000000;0.092993
7223.000000;0.090823
7222.000000;0.091741
7221.000000;0.093610
7220.000000;0.093555
7219.000000;0.090561
7218.000000;0.086317
7217.000000;0.083640
7216.000000;0.083797
7215.000000;0.085376
7214.000000;0.085930
7213.000000;0.084494
7212.000000;0.082184
7211.000000;0.080622
7210.000000;0.080318
7209.000000;0.080633
7208.000000;0.080867
7207.000000;0.080988
7206.000000;0.081248
7205.000000;0.081586
7204.000000;0.081671
7203.000000;0.081360
7202.000000;0.081010
7201.000000;0.081192
7200.000000;0.081912
7199.000000;0.082327
7198.000000;0.081630
7197.000000;0.080115
7196.000000;0.078868
7195.000000;0.078438
7194.000000;0.078293
7193.000000;0.077690
7192.000000;0.076629
7191.000000;0.075620
7190.000000;0.074857
7189.000000;0.074092
7188.000000;0.073236
7187.000000;0.072610
7186.000000;0.072550
7185.000000;0.073213
7184.000000;0.074728
7183.000000;0.077014
7182.000000;0.079312
7181.000000;0.080475
7180.000000;0.080408
7179.000000;0.080619
7178.000000;0.082595
7177.000000;0.085791
7176.000000;0.087915
7175.000000;0.087233
7174.000000;0.084334
7173.000000;0.081487
7172.000000;0.080508
7171.000000;0.081367
7170.000000;0.082652
7169.000000;0.082913
7168.000000;0.081782
7167.000000;0.080133
7166.000000;0.079205
7165.000000;0.079640
7164.000000;0.081307
7163.000000;0.083821
7162.000000;0.086533
7161.000000;0.088207
7160.000000;0.087986
7159.000000;0.086836
7158.000000;0.086892
7157.000000;0.088808
7156.000000;0.090620
7155.000000;0.089820
7154.000000;0.086233
7153.000000;0.082108
7152.000000;0.079531
7151.000000;0.078501
7150.000000;0.077684
7149.000000;0.076199
7148.000000;0.074338
7147.000000;0.073042
7146.000000;0.072792
7145.000000;0.073101
7144.000000;0.073300
7143.000000;0.073702
7142.000000;0.075363
7141.000000;0.078571
7140.000000;0.081929
7139.000000;0.083421
7138.000000;0.082693
7137.000000;0.081729
7136.000000;0.082647
7135.000000;0.085112
7134.000000;0.086678
7133.000000;0.085620
7132.000000;0.082754
7131.000000;0.080184
7130.000000;0.078952
7129.000000;0.078397
7128.000000;0.077371
7127.000000;0.075507
7126.000000;0.073294
7125.000000;0.071425
7124.000000;0.070338
7123.000000;0.069976
7122.000000;0.069924
7121.000000;0.070041
7120.000000;0.070868
7119.000000;0.072880
7118.000000;0.075338
7117.000000;0.076680
7116.000000;0.076496
7115.000000;0.076378
7114.000000;0.078042
7113.000000;0.080963
7112.000000;0.082716
7111.000000;0.081747
7110.000000;0.079157
7109.000000;0.077342
7108.000000;0.077397
7107.000000;0.078334
7106.000000;0.078444
7105.000000;0.076961
7104.000000;0.074554
7103.000000;0.072621
7102.000000;0.072079
7101.000000;0.072575
7100.000000;0.072970
7099.000000;0.072711
7098.000000;0.072340
7097.000000;0.072647
7096.000000;0.073652
7095.000000;0.074533
7094.000000;0.074592
7093.000000;0.074150
7092.000000;0.074165
7091.000000;0.074992
7090.000000;0.075846
7089.000000;0.075621
7088.000000;0.074136
7087.000000;0.072340
7086.000000;0.071271
7085.000000;0.071043
7084.000000;0.070962
7083.000000;0.070426
7082.000000;0.069454
7081.000000;0.068386
7080.000000;0.067440
7079.000000;0.066717
7078.000000;0.066375
7077.000000;0.066524
7076.000000;0.066991
7075.000000;0.067376
7074.000000;0.067480
7073.000000;0.067584
7072.000000;0.068028
7071.000000;0.068708
7070.000000;0.069295
7069.000000;0.069744
7068.000000;0.070279
7067.000000;0.070921
7066.000000;0.071308
7065.000000;0.071083
7064.000000;0.070322
7063.000000;0.069451
7062.000000;0.068818
7061.000000;0.068421
7060.000000;0.068011
7059.000000;0.067376
7058.000000;0.066529
7057.000000;0.065694
7056.000000;0.065142
7055.000000;0.064934
7054.000000;0.064838
7053.000000;0.064647
7052.000000;0.064438
7051.000000;0.064459
7050.000000;0.064862
7049.000000;0.065531
7048.000000;0.066100
7047.000000;0.066262
7046.000000;0.066121
7045.000000;0.066123
7044.000000;0.066564
7043.000000;0.067203
7042.000000;0.067462
7041.000000;0.067058
7040.000000;0.066293
7039.000000;0.065677
7038.000000;0.065395
7037.000000;0.065249
7036.000000;0.065007
7035.000000;0.064614
7034.000000;0.064124
7033.000000;0.063616
7032.000000;0.063175
7031.000000;0.062850
7030.000000;0.062635
7029.000000;0.062509
7028.000000;0.062462
7027.000000;0.062479
7026.000000;0.062544
7025.000000;0.062681
7024.000000;0.062909
7023.000000;0.063127
7022.000000;0.063143
7021.000000;0.062921
7020.000000;0.062703
7019.000000;0.062732
7018.000000;0.062948
7017.000000;0.063061
7016.000000;0.062910
7015.000000;0.062611
7014.000000;0.062354
7013.000000;0.062191
7012.000000;0.062045
7011.000000;0.061845
7010.000000;0.061581
7009.000000;0.061308
7008.000000;0.061117
7007.000000;0.061058
7006.000000;0.061065
7005.000000;0.061034
7004.000000;0.060961
7003.000000;0.060924
7002.000000;0.060945
7001.000000;0.060961
7000.000000;0.060939
6999.000000;0.060916
6998.000000;0.060919
6997.000000;0.060928
6996.000000;0.060929
6995.000000;0.060934
6994.000000;0.060896
6993.000000;0.060706
6992.000000;0.060338
6991.000000;0.059941
6990.000000;0.059711
6989.000000;0.059709
6988.000000;0.059831
6987.000000;0.059929
6986.000000;0.059933
6985.000000;0.059895
6984.000000;0.059946
6983.000000;0.060184
6982.000000;0.060533
6981.000000;0.060729
6980.000000;0.060575
6979.000000;0.060191
6978.000000;0.059907
6977.000000;0.059921
6976.000000;0.060095
6975.000000;0.060154
6974.000000;0.060010
6973.000000;0.059824
6972.000000;0.059736
6971.000000;0.059676
6970.000000;0.059509
6969.000000;0.059269
6968.000000;0.059098
6967.000000;0.059008
6966.000000;0.058851
6965.000000;0.058547
6964.000000;0.058203
6963.000000;0.057980
6962.000000;0.057903
6961.000000;0.057866
6960.000000;0.057798
6959.000000;0.057729
6958.000000;0.057716
6957.000000;0.057772
6956.000000;0.057863
6955.000000;0.057900
6954.000000;0.057829
6953.000000;0.057727
6952.000000;0.057731
6951.000000;0.057856
6950.000000;0.057962
6949.000000;0.057937
6948.000000;0.057808
6947.000000;0.057645
6946.000000;0.057464
6945.000000;0.057283
6944.000000;0.057172
6943.000000;0.057126
6942.000000;0.057006
6941.000000;0.056720
6940.000000;0.056413
6939.000000;0.056328
6938.000000;0.056475
6937.000000;0.056592
6936.000000;0.056472
6935.000000;0.056203
6934.000000;0.056022
6933.000000;0.056042
6932.000000;0.056166
6931.000000;0.056209
6930.000000;0.056062
6929.000000;0.055793
6928.000000;0.055590
6927.000000;0.055545
6926.000000;0.055551
6925.000000;0.055430
6924.000000;0.055159
6923.000000;0.054884
6922.000000;0.054753
6921.000000;0.054799
6920.000000;0.055002
6919.000000;0.055348
6918.000000;0.055733
6917.000000;0.055921
6916.000000;0.055783
6915.000000;0.055522
6914.000000;0.055480
6913.000000;0.055735
6912.000000;0.055988
6911.000000;0.055890
6910.000000;0.055413
6909.000000;0.054867
6908.000000;0.054562
6907.000000;0.054511
6906.000000;0.054485
6905.000000;0.054283
6904.000000;0.053915
6903.000000;0.053539
6902.000000;0.053286
6901.000000;0.053177
6900.000000;0.053151
6899.000000;0.053148
6898.000000;0.053143
6897.000000;0.053151
6896.000000;0.053222
6895.000000;0.053390
6894.000000;0.053586
6893.000000;0.053687
6892.000000;0.053655
6891.000000;0.053585
6890.000000;0.053577
6889.000000;0.053613
6888.000000;0.053601
6887.000000;0.053491
6886.000000;0.053324
6885.000000;0.053181
6884.000000;0.053107
6883.000000;0.053072
6882.000000;0.052981
6881.000000;0.052759
6880.000000;0.052441
6879.000000;0.052145
6878.000000;0.051963
6877.000000;0.051871
6876.000000;0.051778
6875.000000;0.051650
6874.000000;0.051542
6873.000000;0.051536
6872.000000;0.051626
6871.000000;0.051684
6870.000000;0.051609
6869.000000;0.051469
6868.000000;0.051434
6867.000000;0.051542
6866.000000;0.051625
6865.000000;0.051517
6864.000000;0.051270
6863.000000;0.051069
6862.000000;0.050993
6861.000000;0.050962
6860.000000;0.050885
6859.000000;0.050767
6858.000000;0.050656
6857.000000;0.050575
6856.000000;0.050515
6855.000000;0.050455
6854.000000;0.050351
6853.000000;0.050184
6852.000000;0.050001
6851.000000;0.049884
6850.000000;0.049871
6849.000000;0.049911
6848.000000;0.049920
6847.000000;0.049868
6846.000000;0.049811
6845.000000;0.049832
6844.000000;0.049938
6843.000000;0.050026
6842.000000;0.049977
6841.000000;0.049783
6840.000000;0.049564
6839.000000;0.049429
6838.000000;0.049376
6837.000000;0.049348
6836.000000;0.049344
6835.000000;0.049387
6834.000000;0.049434
6833.000000;0.049419
6832.000000;0.049366
6831.000000;0.049359
6830.000000;0.049402
6829.000000;0.049397
6828.000000;0.049286
6827.000000;0.049140
6826.000000;0.049048
6825.000000;0.048988
6824.000000;0.048878
6823.000000;0.048722
6822.000000;0.048610
6821.000000;0.048599
6820.000000;0.048641
6819.000000;0.048648
6818.000000;0.048580
6817.000000;0.048458
6816.000000;0.048323
6815.000000;0.048210
6814.000000;0.048130
6813.000000;0.048073
6812.000000;0.048023
6811.000000;0.047971
6810.000000;0.047910
6809.000000;0.047848
6808.000000;0.047812
6807.000000;0.047828
6806.000000;0.047885
6805.000000;0.047905
6804.000000;0.047810
6803.000000;0.047651
6802.000000;0.047601
6801.000000;0.047780
6800.000000;0.048087
6799.000000;0.048267
6798.000000;0.048177
6797.000000;0.047943
6796.000000;0.047817
6795.000000;0.047899
6794.000000;0.048057
6793.000000;0.048100
6792.000000;0.047965
6791.000000;0.047737
6790.000000;0.047547
6789.000000;0.047468
6788.000000;0.047474
6787.000000;0.047451
6786.000000;0.047288
6785.000000;0.046982
6784.000000;0.046659
6783.000000;0.046457
6782.000000;0.046395
6781.000000;0.046368
6780.000000;0.046267
6779.000000;0.046083
6778.000000;0.045885
6777.000000;0.045729
6776.000000;0.045606
6775.000000;0.045470
6774.000000;0.045331
6773.000000;0.045269
6772.000000;0.045336
6771.000000;0.045464
6770.000000;0.045525
6769.000000;0.045483
6768.000000;0.045437
6767.000000;0.045467
6766.000000;0.045521
6765.000000;0.045500
6764.000000;0.045415
6763.000000;0.045367
6762.000000;0.045399
6761.000000;0.045441
6760.000000;0.045405
6759.000000;0.045276
6758.000000;0.045118
6757.000000;0.045024
6756.000000;0.045036
6755.000000;0.045091
6754.000000;0.045070
6753.000000;0.044932
6752.000000;0.044786
6751.000000;0.044767
6750.000000;0.044853
6749.000000;0.044884
6748.000000;0.044770
6747.000000;0.044587
6746.000000;0.044464
6745.000000;0.044434
6744.000000;0.044427
6743.000000;0.044357
6742.000000;0.044197
6741.000000;0.043998
6740.000000;0.043853
6739.000000;0.043811
6738.000000;0.043820
6737.000000;0.043779
6736.000000;0.043644
6735.000000;0.043471
6734.000000;0.043340
6733.000000;0.043272
6732.000000;0.043237
6731.000000;0.043205
6730.000000;0.043179
6729.000000;0.043174
6728.000000;0.043197
6727.000000;0.043217
6726.000000;0.043167
6725.000000;0.043021
6724.000000;0.042853
6723.000000;0.042781
6722.000000;0.042844
6721.000000;0.042958
6720.000000;0.043011
6719.000000;0.042967
6718.000000;0.042866
6717.000000;0.042760
6716.000000;0.042668
6715.000000;0.042588
6714.000000;0.042503
6713.000000;0.042398
6712.000000;0.042281
6711.000000;0.042178
6710.000000;0.042101
6709.000000;0.042034
6708.000000;0.041966
6707.000000;0.041901
6706.000000;0.041862
6705.000000;0.041868
6704.000000;0.041848
6703.000000;0.041817
6702.000000;0.041797
6701.000000;0.041758
6700.000000;0.041714
6699.000000;0.041660
6698.000000;0.041621
6697.000000;0.041438
6696.000000;0.041343
6695.000000;0.041331
6694.000000;0.041308
6693.000000;0.041309
6692.000000;0.041285
6691.000000;0.041230
6690.000000;0.041136
6689.000000;0.041026
6688.000000;0.040928
6687.000000;0.040868
6686.000000;0.040840
6685.000000;0.040823
6684.000000;0.040800
6683.000000;0.040765
6682.000000;0.040716
6681.000000;0.040660
6680.000000;0.040624
6679.000000;0.040628
6678.000000;0.040659
6677.000000;0.040678
6676.000000;0.040654
6675.000000;0.040589
6674.000000;0.040493
6673.000000;0.040379
6672.000000;0.040267
6671.000000;0.040174
6670.000000;0.040104
6669.000000;0.040045
6668.000000;0.039997
6667.000000;0.039971
6666.000000;0.039965
6665.000000;0.039963
6664.000000;0.039946
6663.000000;0.039915
6662.000000;0.039872
6661.000000;0.039828
6660.000000;0.039797
6659.000000;0.039788
6658.000000;0.039787
6657.000000;0.039772
6656.000000;0.039736
6655.000000;0.039686
6654.000000;0.039617
6653.000000;0.039519
6652.000000;0.039401
6651.000000;0.039279
6650.000000;0.039160
6649.000000;0.039053
6648.000000;0.038981
6647.000000;0.038967
6646.000000;0.038992
6645.000000;0.039009
6644.000000;0.038994
6643.000000;0.038963
6642.000000;0.038928
6641.000000;0.038883
6640.000000;0.038830
6639.000000;0.038792
6638.000000;0.038782
6637.000000;0.038778
6636.000000;0.038744
6635.000000;0.038671
6634.000000;0.038583
6633.000000;0.038515
6632.000000;0.038480
6631.000000;0.038461
6630.000000;0.038423
6629.000000;0.038351
6628.000000;0.038271
6627.000000;0.038229
6626.000000;0.038247
6625.000000;0.038309
6624.000000;0.038383
6623.000000;0.038438
6622.000000;0.038451
6621.000000;0.038422
6620.000000;0.038364
6619.000000;0.038283
6618.000000;0.038167
6617.000000;0.038020
6616.000000;0.037891
6615.000000;0.037824
6614.000000;0.037810
6613.000000;0.037793
6612.000000;0.037748
6611.000000;0.037702
6610.000000;0.037680
6609.000000;0.037674
6608.000000;0.037650
6607.000000;0.037583
6606.000000;0.037473
6605.000000;0.037345
6604.000000;0.037242
6603.000000;0.037196
6602.000000;0.037193
6601.000000;0.037201
6600.000000;0.037210
6599.000000;0.037239
6598.000000;0.037276
6597.000000;0.037271
6596.000000;0.037191
6595.000000;0.037067
6594.000000;0.036968
6593.000000;0.036930
6592.000000;0.036937
6591.000000;0.036953
6590.000000;0.036944
6589.000000;0.036900
6588.000000;0.036828
6587.000000;0.036756
6586.000000;0.036713
6585.000000;0.036722
6584.000000;0.036779
6583.000000;0.036843
6582.000000;0.036864
6581.000000;0.036822
6580.000000;0.036740
6579.000000;0.036658
6578.000000;0.036586
6577.000000;0.036514
6576.000000;0.036437
6575.000000;0.036361
6574.000000;0.036285
6573.000000;0.036203
6572.000000;0.036119
6571.000000;0.036047
6570.000000;0.035990
6569.000000;0.035940
6568.000000;0.035885
6567.000000;0.035826
6566.000000;0.035767
6565.000000;0.035728
6564.000000;0.035731
6563.000000;0.035782
6562.000000;0.035851
6561.000000;0.035898
6560.000000;0.035906
6559.000000;0.035884
6558.000000;0.035837
6557.000000;0.035771
6556.000000;0.035708
6555.000000;0.035670
6554.000000;0.035657
6553.000000;0.035650
6552.000000;0.035634
6551.000000;0.035604
6550.000000;0.035559
6549.000000;0.035503
6548.000000;0.035452
6547.000000;0.035410
6546.000000;0.035360
6545.000000;0.035291
6544.000000;0.035229
6543.000000;0.035218
6542.000000;0.035250
6541.000000;0.035269
6540.000000;0.035239
6539.000000;0.035186
6538.000000;0.035161
6537.000000;0.035180
6536.000000;0.035211
6535.000000;0.035214
6534.000000;0.035175
6533.000000;0.035113
6532.000000;0.035042
6531.000000;0.034955
6530.000000;0.034847
6529.000000;0.034739
6528.000000;0.034669
6527.000000;0.034634
6526.000000;0.034587
6525.000000;0.034508
6524.000000;0.034436
6523.000000;0.034413
6522.000000;0.034428
6521.000000;0.034434
6520.000000;0.034419
6519.000000;0.034400
6518.000000;0.034376
6517.000000;0.034329
6516.000000;0.034264
6515.000000;0.034212
6514.000000;0.034179
6513.000000;0.034141
6512.000000;0.034091
6511.000000;0.034053
6510.000000;0.034041
6509.000000;0.034031
6508.000000;0.034001
6507.000000;0.033966
6506.000000;0.033948
6505.000000;0.033945
6504.000000;0.033933
6503.000000;0.033893
6502.000000;0.033834
6501.000000;0.033784
6500.000000;0.033770
6499.000000;0.033793
6498.000000;0.033822
6497.000000;0.033824
6496.000000;0.033804
6495.000000;0.033790
6494.000000;0.033796
6493.000000;0.033814
6492.000000;0.033827
6491.000000;0.033819
6490.000000;0.033775
6489.000000;0.033697
6488.000000;0.033612
6487.000000;0.033545
6486.000000;0.033487
6485.000000;0.033417
6484.000000;0.033342
6483.000000;0.033287
6482.000000;0.033251
6481.000000;0.033217
6480.000000;0.033180
6479.000000;0.033158
6478.000000;0.033149
6477.000000;0.033129
6476.000000;0.033095
6475.000000;0.033070
6474.000000;0.033062
6473.000000;0.033037
6472.000000;0.032966
6471.000000;0.032868
6470.000000;0.032791
6469.000000;0.032763
6468.000000;0.032779
6467.000000;0.032823
6466.000000;0.032870
6465.000000;0.032904
6464.000000;0.032923
6463.000000;0.032945
6462.000000;0.032981
6461.000000;0.033022
6460.000000;0.033048
6459.000000;0.033033
6458.000000;0.032967
6457.000000;0.032865
6456.000000;0.032769
6455.000000;0.032717
6454.000000;0.032702
6453.000000;0.032688
6452.000000;0.032650
6451.000000;0.032596
6450.000000;0.032534
6449.000000;0.032460
6448.000000;0.032380
6447.000000;0.032317
6446.000000;0.032288
6445.000000;0.032288
6444.000000;0.032302
6443.000000;0.032320
6442.000000;0.032338
6441.000000;0.032342
6440.000000;0.032322
6439.000000;0.032272
6438.000000;0.032207
6437.000000;0.032148
6436.000000;0.032119
6435.000000;0.032122
6434.000000;0.032133
6433.000000;0.032126
6432.000000;0.032105
6431.000000;0.032088
6430.000000;0.032088
6429.000000;0.032101
6428.000000;0.032117
6427.000000;0.032129
6426.000000;0.032121
6425.000000;0.032081
6424.000000;0.032019
6423.000000;0.031962
6422.000000;0.031929
6421.000000;0.031921
6420.000000;0.031928
6419.000000;0.031932
6418.000000;0.031918
6417.000000;0.031890
6416.000000;0.031868
6415.000000;0.031860
6414.000000;0.031841
6413.000000;0.031774
6412.000000;0.031672
6411.000000;0.031584
6410.000000;0.031551
6409.000000;0.031564
6408.000000;0.031593
6407.000000;0.031612
6406.000000;0.031616
6405.000000;0.031611
6404.000000;0.031612
6403.000000;0.031624
6402.000000;0.031635
6401.000000;0.031632
6400.000000;0.031618
6399.000000;0.031604
6398.000000;0.031583
6397.000000;0.031531
6396.000000;0.031450
6395.000000;0.031373
6394.000000;0.031330
6393.000000;0.031320
6392.000000;0.031325
6391.000000;0.031328
6390.000000;0.031325
6389.000000;0.031323
6388.000000;0.031328
6387.000000;0.031338
6386.000000;0.031345
6385.000000;0.031342
6384.000000;0.031336
6383.000000;0.031328
6382.000000;0.031304
6381.000000;0.031255
6380.000000;0.031206
6379.000000;0.031193
6378.000000;0.031223
6377.000000;0.031266
6376.000000;0.031287
6375.000000;0.031272
6374.000000;0.031227
6373.000000;0.031164
6372.000000;0.031097
6371.000000;0.031038
6370.000000;0.030991
6369.000000;0.030952
6368.000000;0.030920
6367.000000;0.030895
6366.000000;0.030875
6365.000000;0.030862
6364.000000;0.030854
6363.000000;0.030840
6362.000000;0.030802
6361.000000;0.030732
6360.000000;0.030643
6359.000000;0.030559
6358.000000;0.030495
6357.000000;0.030465
6356.000000;0.030483
6355.000000;0.030532
6354.000000;0.030563
6353.000000;0.030538
6352.000000;0.030478
6351.000000;0.030440
6350.000000;0.030450
6349.000000;0.030488
6348.000000;0.030524
6347.000000;0.030535
6346.000000;0.030516
6345.000000;0.030478
6344.000000;0.030451
6343.000000;0.030462
6342.000000;0.030513
6341.000000;0.030580
6340.000000;0.030640
6339.000000;0.030671
6338.000000;0.030649
6337.000000;0.030568
6336.000000;0.030465
6335.000000;0.030388
6334.000000;0.030343
6333.000000;0.030310
6332.000000;0.030279
6331.000000;0.030268
6330.000000;0.030286
6329.000000;0.030307
6328.000000;0.030305
6327.000000;0.030278
6326.000000;0.030249
6325.000000;0.030239
6324.000000;0.030250
6323.000000;0.030260
6322.000000;0.030236
6321.000000;0.030165
6320.000000;0.030076
6319.000000;0.030006
6318.000000;0.029966
6317.000000;0.029944
6316.000000;0.029929
6315.000000;0.029923
6314.000000;0.029923
6313.000000;0.029927
6312.000000;0.029938
6311.000000;0.029952
6310.000000;0.029949
6309.000000;0.029915
6308.000000;0.029865
6307.000000;0.029822
6306.000000;0.029784
6305.000000;0.029739
6304.000000;0.029695
6303.000000;0.029674
6302.000000;0.029680
6301.000000;0.029690
6300.000000;0.029693
6299.000000;0.029691
6298.000000;0.029686
6297.000000;0.029669
6296.000000;0.029644
6295.000000;0.029624
6294.000000;0.029619
6293.000000;0.029626
6292.000000;0.029644
6291.000000;0.029663
6290.000000;0.029660
6289.000000;0.029621
6288.000000;0.029558
6287.000000;0.029497
6286.000000;0.029445
6285.000000;0.029402
6284.000000;0.029388
6283.000000;0.029427
6282.000000;0.029506
6281.000000;0.029580
6280.000000;0.029619
6279.000000;0.029633
6278.000000;0.029638
6277.000000;0.029630
6276.000000;0.029595
6275.000000;0.029530
6274.000000;0.029453
6273.000000;0.029391
6272.000000;0.029367
6271.000000;0.029376
6270.000000;0.029382
6269.000000;0.029358
6268.000000;0.029312
6267.000000;0.029270
6266.000000;0.029235
6265.000000;0.029199
6264.000000;0.029175
6263.000000;0.029191
6262.000000;0.029246
6261.000000;0.029297
6260.000000;0.029299
6259.000000;0.029241
6258.000000;0.029146
6257.000000;0.029052
6256.000000;0.028996
6255.000000;0.028989
6254.000000;0.029014
6253.000000;0.029047
6252.000000;0.029079
6251.000000;0.029113
6250.000000;0.029138
6249.000000;0.029146
6248.000000;0.029145
6247.000000;0.029137
6246.000000;0.029107
6245.000000;0.029048
6244.000000;0.028987
6243.000000;0.028956
6242.000000;0.028943
6241.000000;0.028913
6240.000000;0.028864
6239.000000;0.028828
6238.000000;0.028815
6237.000000;0.028804
6236.000000;0.028786
6235.000000;0.028776
6234.000000;0.028777
6233.000000;0.028767
6232.000000;0.028734
6231.000000;0.028695
6230.000000;0.028672
6229.000000;0.028661
6228.000000;0.028658
6227.000000;0.028672
6226.000000;0.028705
6225.000000;0.028739
6224.000000;0.028749
6223.000000;0.028730
6222.000000;0.028695
6221.000000;0.028659
6220.000000;0.028630
6219.000000;0.028608
6218.000000;0.028580
6217.000000;0.028533
6216.000000;0.028477
6215.000000;0.028443
6214.000000;0.028449
6213.000000;0.028483
6212.000000;0.028518
6211.000000;0.028537
6210.000000;0.028536
6209.000000;0.028521
6208.000000;0.028499
6207.000000;0.028470
6206.000000;0.028423
6205.000000;0.028355
6204.000000;0.028284
6203.000000;0.028236
6202.000000;0.028216
6201.000000;0.028205
6200.000000;0.028182
6199.000000;0.028144
6198.000000;0.028108
6197.000000;0.028099
6196.000000;0.028132
6195.000000;0.028195
6194.000000;0.028241
6193.000000;0.028232
6192.000000;0.028167
6191.000000;0.028076
6190.000000;0.027986
6189.000000;0.027916
6188.000000;0.027877
6187.000000;0.027875
6186.000000;0.027889
6185.000000;0.027895
6184.000000;0.027893
6183.000000;0.027905
6182.000000;0.027935
6181.000000;0.027964
6180.000000;0.027973
6179.000000;0.027954
6178.000000;0.027912
6177.000000;0.027855
6176.000000;0.027797
6175.000000;0.027748
6174.000000;0.027694
6173.000000;0.027627
6172.000000;0.027564
6171.000000;0.027543
6170.000000;0.027577
6169.000000;0.027642
6168.000000;0.027708
6167.000000;0.027756
6166.000000;0.027773
6165.000000;0.027743
6164.000000;0.027655
6163.000000;0.027527
6162.000000;0.027405
6161.000000;0.027340
6160.000000;0.027356
6159.000000;0.027429
6158.000000;0.027505
6157.000000;0.027543
6156.000000;0.027550
6155.000000;0.027543
6154.000000;0.027511
6153.000000;0.027431
6152.000000;0.027315
6151.000000;0.027221
6150.000000;0.027191
6149.000000;0.027210
6148.000000;0.027234
6147.000000;0.027232
6146.000000;0.027209
6145.000000;0.027190
6144.000000;0.027186
6143.000000;0.027189
6142.000000;0.027181
6141.000000;0.027163
6140.000000;0.027147
6139.000000;0.027139
6138.000000;0.027131
6137.000000;0.027119
6136.000000;0.027111
6135.000000;0.027108
6134.000000;0.027096
6133.000000;0.027065
6132.000000;0.027025
6131.000000;0.026987
6130.000000;0.026937
6129.000000;0.026865
6128.000000;0.026787
6127.000000;0.026727
6126.000000;0.026693
6125.000000;0.026675
6124.000000;0.026672
6123.000000;0.026678
6122.000000;0.026673
6121.000000;0.026632
6120.000000;0.026568
6119.000000;0.026523
6118.000000;0.026522
6117.000000;0.026558
6116.000000;0.026606
6115.000000;0.026641
6114.000000;0.026641
6113.000000;0.026604
6112.000000;0.026548
6111.000000;0.026491
6110.000000;0.026437
6109.000000;0.026384
6108.000000;0.026345
6107.000000;0.026329
6106.000000;0.026320
6105.000000;0.026294
6104.000000;0.026250
6103.000000;0.026203
6102.000000;0.026163
6101.000000;0.026137
6100.000000;0.026144
6099.000000;0.026197
6098.000000;0.026275
6097.000000;0.026331
6096.000000;0.026329
6095.000000;0.026267
6094.000000;0.026161
6093.000000;0.026041
6092.000000;0.025946
6091.000000;0.025897
6090.000000;0.025881
6089.000000;0.025873
6088.000000;0.025857
6087.000000;0.025834
6086.000000;0.025803
6085.000000;0.025762
6084.000000;0.025723
6083.000000;0.025702
6082.000000;0.025696
6081.000000;0.025695
6080.000000;0.025692
6079.000000;0.025683
6078.000000;0.025656
6077.000000;0.025598
6076.000000;0.025519
6075.000000;0.025438
6074.000000;0.025373
6073.000000;0.025346
6072.000000;0.025382
6071.000000;0.025464
6070.000000;0.025520
6069.000000;0.025490
6068.000000;0.025387
6067.000000;0.025284
6066.000000;0.025235
6065.000000;0.025232
6064.000000;0.025243
6063.000000;0.025240
6062.000000;0.025214
6061.000000;0.025178
6060.000000;0.025155
6059.000000;0.025150
6058.000000;0.025138
6057.000000;0.025094
6056.000000;0.025034
6055.000000;0.024987
6054.000000;0.024956
6053.000000;0.024920
6052.000000;0.024877
6051.000000;0.024844
6050.000000;0.024829
6049.000000;0.024812
6048.000000;0.024784
6047.000000;0.024750
6046.000000;0.024715
6045.000000;0.024681
6044.000000;0.024656
6043.000000;0.024645
6042.000000;0.024636
6041.000000;0.024603
6040.000000;0.024544
6039.000000;0.024472
6038.000000;0.024391
6037.000000;0.024300
6036.000000;0.024208
6035.000000;0.024140
6034.000000;0.024112
6033.000000;0.024117
6032.000000;0.024134
6031.000000;0.024139
6030.000000;0.024114
6029.000000;0.024066
6028.000000;0.024028
6027.000000;0.024023
6026.000000;0.024035
6025.000000;0.024032
6024.000000;0.024011
6023.000000;0.023983
6022.000000;0.023946
6021.000000;0.023885
6020.000000;0.023808
6019.000000;0.023736
6018.000000;0.023681
6017.000000;0.023645
6016.000000;0.023640
6015.000000;0.023669
6014.000000;0.023708
6013.000000;0.023716
6012.000000;0.023678
6011.000000;0.023607
6010.000000;0.023524
6009.000000;0.023448
6008.000000;0.023407
6007.000000;0.023420
6006.000000;0.023466
6005.000000;0.023501
6004.000000;0.023499
6003.000000;0.023464
6002.000000;0.023395
6001.000000;0.023290
6000.000000;0.023170
5999.000000;0.023068
5998.000000;0.022997
5997.000000;0.022941
5996.000000;0.022890
5995.000000;0.022850
5994.000000;0.022821
5993.000000;0.022796
5992.000000;0.022778
5991.000000;0.022774
5990.000000;0.022768
5989.000000;0.022729
5988.000000;0.022655
5987.000000;0.022584
5986.000000;0.022555
5985.000000;0.022568
5984.000000;0.022595
5983.000000;0.022605
5982.000000;0.022579
5981.000000;0.022518
5980.000000;0.022443
5979.000000;0.022376
5978.000000;0.022321
5977.000000;0.022274
5976.000000;0.022238
5975.000000;0.022219
5974.000000;0.022211
5973.000000;0.022198
5972.000000;0.022171
5971.000000;0.022121
5970.000000;0.022041
5969.000000;0.021937
5968.000000;0.021841
5967.000000;0.021781
5966.000000;0.021745
5965.000000;0.021703
5964.000000;0.021647
5963.000000;0.021589
5962.000000;0.021532
5961.000000;0.021468
5960.000000;0.021404
5959.000000;0.021362
5958.000000;0.021351
5957.000000;0.021359
5956.000000;0.021371
5955.000000;0.021367
5954.000000;0.021327
5953.000000;0.021252
5952.000000;0.021176
5951.000000;0.021131
5950.000000;0.021107
5949.000000;0.021068
5948.000000;0.021008
5947.000000;0.020946
5946.000000;0.020894
5945.000000;0.020841
5944.000000;0.020792
5943.000000;0.020772
5942.000000;0.020782
5941.000000;0.020797
5940.000000;0.020790
5939.000000;0.020759
5938.000000;0.020708
5937.000000;0.020633
5936.000000;0.020538
5935.000000;0.020438
5934.000000;0.020354
5933.000000;0.020294
5932.000000;0.020261
5931.000000;0.020244
5930.000000;0.020224
5929.000000;0.020193
5928.000000;0.020162
5927.000000;0.020149
5926.000000;0.020140
5925.000000;0.020108
5924.000000;0.020046
5923.000000;0.019970
5922.000000;0.019899
5921.000000;0.019841
5920.000000;0.019801
5919.000000;0.019779
5918.000000;0.019754
5917.000000;0.019701
5916.000000;0.019617
5915.000000;0.019521
5914.000000;0.019434
5913.000000;0.019375
5912.000000;0.019358
5911.000000;0.019374
5910.000000;0.019388
5909.000000;0.019364
5908.000000;0.019299
5907.000000;0.019212
5906.000000;0.019118
5905.000000;0.019029
5904.000000;0.018959
5903.000000;0.018911
5902.000000;0.018852
5901.000000;0.018748
5900.000000;0.018608
5899.000000;0.018480
5898.000000;0.018401
5897.000000;0.018371
5896.000000;0.018367
5895.000000;0.018362
5894.000000;0.018332
5893.000000;0.018275
5892.000000;0.018220
5891.000000;0.018191
5890.000000;0.018175
5889.000000;0.018136
5888.000000;0.018060
5887.000000;0.017971
5886.000000;0.017899
5885.000000;0.017857
5884.000000;0.017838
5883.000000;0.017822
5882.000000;0.017785
5881.000000;0.017726
5880.000000;0.017666
5879.000000;0.017616
5878.000000;0.017556
5877.000000;0.017477
5876.000000;0.017404
5875.000000;0.017364
5874.000000;0.017343
5873.000000;0.017306
5872.000000;0.017250
5871.000000;0.017191
5870.000000;0.017123
5869.000000;0.017022
5868.000000;0.016893
5867.000000;0.016775
5866.000000;0.016694
5865.000000;0.016637
5864.000000;0.016568
5863.000000;0.016469
5862.000000;0.016360
5861.000000;0.016290
5860.000000;0.016299
5859.000000;0.016367
5858.000000;0.016426
5857.000000;0.016429
5856.000000;0.016387
5855.000000;0.016335
5854.000000;0.016275
5853.000000;0.016200
5852.000000;0.016130
5851.000000;0.016088
5850.000000;0.016061
5849.000000;0.016017
5848.000000;0.015945
5847.000000;0.015864
5846.000000;0.015781
5845.000000;0.015697
5844.000000;0.015624
5843.000000;0.015567
5842.000000;0.015488
5841.000000;0.015351
5840.000000;0.015177
5839.000000;0.015033
5838.000000;0.014953
5837.000000;0.014912
5836.000000;0.014871
5835.000000;0.014808
5834.000000;0.014711
5833.000000;0.014581
5832.000000;0.014440
5831.000000;0.014329
5830.000000;0.014261
5829.000000;0.014217
5828.000000;0.014167
5827.000000;0.014088
5826.000000;0.013974
5825.000000;0.013851
5824.000000;0.013771
5823.000000;0.013766
5822.000000;0.013801
5821.000000;0.013811
5820.000000;0.013765
5819.000000;0.013679
5818.000000;0.013577
5817.000000;0.013474
5816.000000;0.013392
5815.000000;0.013352
5814.000000;0.013350
5813.000000;0.013361
5812.000000;0.013362
5811.000000;0.013342
5810.000000;0.013291
5809.000000;0.013205
5808.000000;0.013101
5807.000000;0.013002
5806.000000;0.012905
5805.000000;0.012802
5804.000000;0.012697
5803.000000;0.012597
5802.000000;0.012491
5801.000000;0.012372
5800.000000;0.012261
5799.000000;0.012178
5798.000000;0.012110
5797.000000;0.012033
5796.000000;0.011954
5795.000000;0.011890
5794.000000;0.011832
5793.000000;0.011760
5792.000000;0.011679
5791.000000;0.011605
5790.000000;0.011529
5789.000000;0.011433
5788.000000;0.011328
5787.000000;0.011242
5786.000000;0.011176
5785.000000;0.011103
5784.000000;0.011023
5783.000000;0.010956
5782.000000;0.010901
5781.000000;0.010826
5780.000000;0.010714
5779.000000;0.010580
5778.000000;0.010445
5777.000000;0.010323
5776.000000;0.010228
5775.000000;0.010157
5774.000000;0.010084
5773.000000;0.009988
5772.000000;0.009886
5771.000000;0.009807
5770.000000;0.009746
5769.000000;0.009677
5768.000000;0.009599
5767.000000;0.009524
5766.000000;0.009443
5765.000000;0.009333
5764.000000;0.009191
5763.000000;0.009039
5762.000000;0.008896
5761.000000;0.008763
5760.000000;0.008644
5759.000000;0.008543
5758.000000;0.008449
5757.000000;0.008354
5756.000000;0.008277
5755.000000;0.008229
5754.000000;0.008178
5753.000000;0.008084
5752.000000;0.007955
5751.000000;0.007836
5750.000000;0.007751
5749.000000;0.007685
5748.000000;0.007627
5747.000000;0.007577
5746.000000;0.007525
5745.000000;0.007452
5744.000000;0.007355
5743.000000;0.007240
5742.000000;0.007108
5741.000000;0.006957
5740.000000;0.006808
5739.000000;0.006682
5738.000000;0.006571
5737.000000;0.006461
5736.000000;0.006364
5735.000000;0.006295
5734.000000;0.006232
5733.000000;0.006139
5732.000000;0.006028
5731.000000;0.005929
5730.000000;0.005842
5729.000000;0.005730
5728.000000;0.005583
5727.000000;0.005429
5726.000000;0.005291
5725.000000;0.005170
5724.000000;0.005062
5723.000000;0.004969
5722.000000;0.004882
5721.000000;0.004795
5720.000000;0.004723
5719.000000;0.004684
5718.000000;0.004650
5717.000000;0.004578
5716.000000;0.004458
5715.000000;0.004319
5714.000000;0.004180
5713.000000;0.004041
5712.000000;0.003911
5711.000000;0.003807
5710.000000;0.003723
5709.000000;0.003640
5708.000000;0.003558
5707.000000;0.003485
5706.000000;0.003397
5705.000000;0.003269
5704.000000;0.003113
5703.000000;0.002964
5702.000000;0.002825
5701.000000;0.002678
5700.000000;0.002527
5699.000000;0.002408
5698.000000;0.002329
5697.000000;0.002261
5696.000000;0.002168
5695.000000;0.002063
5694.000000;0.001929
5693.000000;0.001834
5692.000000;0.001714
5691.000000;0.001575
5690.000000;0.001477
5689.000000;0.001389
5688.000000;0.001313
5687.000000;0.001238
5686.000000;0.001150
5685.000000;0.001033
5684.000000;0.000898
5683.000000;0.000773
5682.000000;0.000666
5681.000000;0.000562
5680.000000;0.000451
5679.000000;0.000328
5678.000000;0.000182
5677.000000;0.000016
5676.000000;-0.000133
5675.000000;-0.000233
5674.000000;-0.000299
5673.000000;-0.000373
5672.000000;-0.000465
5671.000000;-0.000561
5670.000000;-0.000660
5669.000000;-0.000780
5668.000000;-0.000925
5667.000000;-0.001088
5666.000000;-0.001258
5665.000000;-0.001417
5664.000000;-0.001538
5663.000000;-0.001625
5662.000000;-0.001719
5661.000000;-0.001841
5660.000000;-0.001955
5659.000000;-0.002038
5658.000000;-0.002129
5657.000000;-0.002271
5656.000000;-0.002431
5655.000000;-0.002549
5654.000000;-0.002633
5653.000000;-0.002742
5652.000000;-0.002890
5651.000000;-0.003037
5650.000000;-0.003154
5649.000000;-0.003254
5648.000000;-0.003349
5647.000000;-0.003439
5646.000000;-0.003541
5645.000000;-0.003675
5644.000000;-0.003827
5643.000000;-0.003959
5642.000000;-0.004066
5641.000000;-0.004173
5640.000000;-0.004281
5639.000000;-0.004377
5638.000000;-0.004468
5637.000000;-0.004576
5636.000000;-0.004690
5635.000000;-0.004786
5634.000000;-0.004882
5633.000000;-0.005020
5632.000000;-0.005210
5631.000000;-0.005415
5630.000000;-0.005604
5629.000000;-0.005765
5628.000000;-0.005885
5627.000000;-0.005961
5626.000000;-0.006023
5625.000000;-0.006113
5624.000000;-0.006219
5623.000000;-0.006305
5622.000000;-0.006370
5621.000000;-0.006448
5620.000000;-0.006551
5619.000000;-0.006663
5618.000000;-0.006789
5617.000000;-0.006944
5616.000000;-0.007113
5615.000000;-0.007259
5614.000000;-0.007387
5613.000000;-0.007525
5612.000000;-0.007665
5611.000000;-0.007766
5610.000000;-0.007833
5609.000000;-0.007926
5608.000000;-0.008079
5607.000000;-0.008257
5606.000000;-0.008399
5605.000000;-0.008467
5604.000000;-0.008476
5603.000000;-0.008478
5602.000000;-0.008525
5601.000000;-0.008629
5600.000000;-0.008757
5599.000000;-0.008890
5598.000000;-0.009041
5597.000000;-0.009206
5596.000000;-0.009357
5595.000000;-0.009487
5594.000000;-0.009633
5593.000000;-0.009808
5592.000000;-0.009960
5591.000000;-0.010063
5590.000000;-0.010169
5589.000000;-0.010340
5588.000000;-0.010551
5587.000000;-0.010746
5586.000000;-0.010921
5585.000000;-0.011093
5584.000000;-0.011225
5583.000000;-0.011275
5582.000000;-0.011280
5581.000000;-0.011317
5580.000000;-0.011400
5579.000000;-0.011491
5578.000000;-0.011591
5577.000000;-0.011724
5576.000000;-0.011869
5575.000000;-0.011981
5574.000000;-0.012062
5573.000000;-0.012145
5572.000000;-0.012230
5571.000000;-0.012316
5570.000000;-0.012451
5569.000000;-0.012658
5568.000000;-0.012853
5567.000000;-0.012937
5566.000000;-0.012959
5565.000000;-0.013056
5564.000000;-0.013251
5563.000000;-0.013438
5562.000000;-0.013574
5561.000000;-0.013741
5560.000000;-0.013992
5559.000000;-0.014252
5558.000000;-0.014427
5557.000000;-0.014527
5556.000000;-0.014591
5555.000000;-0.014583
5554.000000;-0.014450
5553.000000;-0.014234
5552.000000;-0.014032
5551.000000;-0.013873
5550.000000;-0.013718
5549.000000;-0.013580
5548.000000;-0.013548
5547.000000;-0.013680
5546.000000;-0.013928
5545.000000;-0.014196
5544.000000;-0.014446
5543.000000;-0.014727
5542.000000;-0.015081
5541.000000;-0.015439
5540.000000;-0.015649
5539.000000;-0.015622
5538.000000;-0.015463
5537.000000;-0.015377
5536.000000;-0.015423
5535.000000;-0.015435
5534.000000;-0.015284
5533.000000;-0.015102
5532.000000;-0.015145
5531.000000;-0.015464
5530.000000;-0.015857
5529.000000;-0.016160
5528.000000;-0.016440
5527.000000;-0.016833
5526.000000;-0.017293
5525.000000;-0.017607
5524.000000;-0.017624
5523.000000;-0.017450
5522.000000;-0.017315
5521.000000;-0.017276
5520.000000;-0.017145
5519.000000;-0.016743
5518.000000;-0.016218
5517.000000;-0.015969
5516.000000;-0.016166
5515.000000;-0.016541
5514.000000;-0.016769
5513.000000;-0.016887
5512.000000;-0.017171
5511.000000;-0.017592
5510.000000;-0.017739
5509.000000;-0.017399
5508.000000;-0.016881
5507.000000;-0.016556
5506.000000;-0.016328
5505.000000;-0.015898
5504.000000;-0.015418
5503.000000;-0.015435
5502.000000;-0.016073
5501.000000;-0.016757
5500.000000;-0.017055
5499.000000;-0.017315
5498.000000;-0.018094
5497.000000;-0.019112
5496.000000;-0.019232
5495.000000;-0.017874
5494.000000;-0.015893
5493.000000;-0.014482
5492.000000;-0.013568
5491.000000;-0.011968
5490.000000;-0.009315
5489.000000;-0.006991
5488.000000;-0.006502
5487.000000;-0.007594
5486.000000;-0.008803
5485.000000;-0.009561
5484.000000;-0.010771
5483.000000;-0.013211
5482.000000;-0.016340
5481.000000;-0.019079
5480.000000;-0.021041
5479.000000;-0.022187
5478.000000;-0.021973
5477.000000;-0.020111
5476.000000;-0.017579
5475.000000;-0.015804
5474.000000;-0.014805
5473.000000;-0.013198
5472.000000;-0.010583
5471.000000;-0.008601
5470.000000;-0.008795
5469.000000;-0.010463
5468.000000;-0.011749
5467.000000;-0.012110
5466.000000;-0.012604
5465.000000;-0.013961
5464.000000;-0.015353
5463.000000;-0.015491
5462.000000;-0.014261
5461.000000;-0.012727
5460.000000;-0.011829
5459.000000;-0.011450
5458.000000;-0.010978
5457.000000;-0.010584
5456.000000;-0.011183
5455.000000;-0.013092
5454.000000;-0.015410
5453.000000;-0.016987
5452.000000;-0.017673
5451.000000;-0.018289
5450.000000;-0.019340
5449.000000;-0.019949
5448.000000;-0.018621
5447.000000;-0.015200
5446.000000;-0.011524
5445.000000;-0.009341
5444.000000;-0.007826
5443.000000;-0.004875
5442.000000;-0.000797
5441.000000;0.001464
5440.000000;0.000306
5439.000000;-0.002125
5438.000000;-0.002742
5437.000000;-0.001620
5436.000000;-0.001524
5435.000000;-0.003880
5434.000000;-0.007021
5433.000000;-0.008346
5432.000000;-0.007030
5431.000000;-0.004576
5430.000000;-0.003167
5429.000000;-0.003504
5428.000000;-0.004274
5427.000000;-0.003912
5426.000000;-0.002806
5425.000000;-0.003127
5424.000000;-0.006284
5423.000000;-0.011287
5422.000000;-0.015960
5421.000000;-0.019302
5420.000000;-0.022166
5419.000000;-0.025713
5418.000000;-0.029545
5417.000000;-0.031580
5416.000000;-0.030213
5415.000000;-0.026251
5414.000000;-0.021881
5413.000000;-0.017921
5412.000000;-0.013186
5411.000000;-0.007226
5410.000000;-0.002127
5409.000000;-0.000146
5408.000000;-0.000762
5407.000000;-0.001817
5406.000000;-0.003000
5405.000000;-0.006058
5404.000000;-0.011595
5403.000000;-0.017813
5402.000000;-0.022800
5401.000000;-0.026487
5400.000000;-0.029530
5399.000000;-0.031792
5398.000000;-0.032867
5397.000000;-0.032483
5396.000000;-0.030389
5395.000000;-0.026864
5394.000000;-0.023138
5393.000000;-0.020608
5392.000000;-0.019250
5391.000000;-0.017961
5390.000000;-0.016656
5389.000000;-0.016387
5388.000000;-0.017458
5387.000000;-0.018862
5386.000000;-0.019949
5385.000000;-0.021224
5384.000000;-0.022913
5383.000000;-0.024230
5382.000000;-0.024862
5381.000000;-0.025666
5380.000000;-0.026697
5379.000000;-0.026535
5378.000000;-0.024743
5377.000000;-0.022990
5376.000000;-0.022592
5375.000000;-0.022474
5374.000000;-0.021096
5373.000000;-0.019265
5372.000000;-0.019091
5371.000000;-0.020986
5370.000000;-0.023612
5369.000000;-0.026245
5368.000000;-0.029436
5367.000000;-0.033212
5366.000000;-0.036400
5365.000000;-0.038226
5364.000000;-0.039195
5363.000000;-0.039872
5362.000000;-0.040040
5361.000000;-0.039605
5360.000000;-0.039218
5359.000000;-0.039583
5358.000000;-0.040444
5357.000000;-0.040591
5356.000000;-0.039051
5355.000000;-0.036065
5354.000000;-0.032925
5353.000000;-0.030623
5352.000000;-0.028607
5351.000000;-0.025620
5350.000000;-0.022004
5349.000000;-0.019834
5348.000000;-0.019675
5347.000000;-0.019035
5346.000000;-0.015946
5345.000000;-0.012341
5344.000000;-0.011520
5343.000000;-0.013081
5342.000000;-0.013001
5341.000000;-0.009341
5340.000000;-0.005070
5339.000000;-0.003826
5338.000000;-0.005235
5337.000000;-0.006356
5336.000000;-0.006204
5335.000000;-0.006509
5334.000000;-0.008877
5333.000000;-0.013036
5332.000000;-0.017609
5331.000000;-0.021228
5330.000000;-0.023178
5329.000000;-0.024105
5328.000000;-0.025592
5327.000000;-0.028388
5326.000000;-0.031196
5325.000000;-0.032106
5324.000000;-0.031379
5323.000000;-0.031514
5322.000000;-0.034012
5321.000000;-0.037633
5320.000000;-0.040509
5319.000000;-0.042507
5318.000000;-0.044640
5317.000000;-0.047143
5316.000000;-0.049248
5315.000000;-0.050348
5314.000000;-0.050602
5313.000000;-0.050552
5312.000000;-0.050657
5311.000000;-0.050869
5310.000000;-0.050534
5309.000000;-0.049297
5308.000000;-0.047799
5307.000000;-0.046882
5306.000000;-0.046331
5305.000000;-0.045285
5304.000000;-0.043855
5303.000000;-0.043193
5302.000000;-0.043813
5301.000000;-0.044892
5300.000000;-0.045655
5299.000000;-0.046470
5298.000000;-0.047967
5297.000000;-0.049861
5296.000000;-0.051412
5295.000000;-0.052476
5294.000000;-0.053185
5293.000000;-0.053056
5292.000000;-0.051664
5291.000000;-0.049732
5290.000000;-0.048458
5289.000000;-0.047846
5288.000000;-0.046627
5287.000000;-0.044327
5286.000000;-0.042329
5285.000000;-0.042119
5284.000000;-0.043265
5283.000000;-0.044073
5282.000000;-0.044055
5281.000000;-0.044486
5280.000000;-0.046332
5279.000000;-0.048767
5278.000000;-0.050330
5277.000000;-0.050847
5276.000000;-0.051382
5275.000000;-0.052663
5274.000000;-0.054329
5273.000000;-0.055591
5272.000000;-0.056068
5271.000000;-0.055927
5270.000000;-0.055527
5269.000000;-0.055111
5268.000000;-0.054411
5267.000000;-0.052532
5266.000000;-0.049039
5265.000000;-0.044872
5264.000000;-0.041443
5263.000000;-0.038957
5262.000000;-0.036498
5261.000000;-0.033918
5260.000000;-0.032517
5259.000000;-0.033259
5258.000000;-0.035106
5257.000000;-0.036323
5256.000000;-0.036882
5255.000000;-0.038223
5254.000000;-0.040807
5253.000000;-0.043233
5252.000000;-0.043926
5251.000000;-0.042835
5250.000000;-0.041125
5249.000000;-0.039786
5248.000000;-0.038846
5247.000000;-0.037451
5246.000000;-0.035118
5245.000000;-0.032795
5244.000000;-0.032133
5243.000000;-0.033554
5242.000000;-0.035584
5241.000000;-0.036890
5240.000000;-0.038275
5239.000000;-0.041455
5238.000000;-0.046242
5237.000000;-0.050508
5236.000000;-0.052962
5235.000000;-0.054401
5234.000000;-0.055813
5233.000000;-0.056807
5232.000000;-0.056684
5231.000000;-0.055835
5230.000000;-0.055124
5229.000000;-0.054374
5228.000000;-0.052665
5227.000000;-0.050050
5226.000000;-0.047830
5225.000000;-0.046794
5224.000000;-0.046194
5223.000000;-0.045135
5222.000000;-0.044125
5221.000000;-0.044359
5220.000000;-0.045945
5219.000000;-0.047845
5218.000000;-0.049419
5217.000000;-0.051023
5216.000000;-0.053101
5215.000000;-0.055470
5214.000000;-0.057689
5213.000000;-0.059481
5212.000000;-0.060476
5211.000000;-0.060286
5210.000000;-0.058895
5209.000000;-0.056488
5208.000000;-0.053194
5207.000000;-0.049418
5206.000000;-0.045999
5205.000000;-0.043506
5204.000000;-0.041782
5203.000000;-0.040760
5202.000000;-0.041158
5201.000000;-0.043484
5200.000000;-0.046820
5199.000000;-0.049698
5198.000000;-0.051903
5197.000000;-0.054321
5196.000000;-0.057129
5195.000000;-0.059242
5194.000000;-0.059926
5193.000000;-0.059915
5192.000000;-0.060220
5191.000000;-0.060839
5190.000000;-0.061284
5189.000000;-0.061513
5188.000000;-0.061684
5187.000000;-0.061558
5186.000000;-0.060946
5185.000000;-0.060290
5184.000000;-0.060054
5183.000000;-0.059930
5182.000000;-0.059429
5181.000000;-0.058921
5180.000000;-0.059198
5179.000000;-0.060212
5178.000000;-0.061134
5177.000000;-0.061644
5176.000000;-0.062311
5175.000000;-0.063508
5174.000000;-0.064711
5173.000000;-0.065250
5172.000000;-0.065211
5171.000000;-0.065157
5170.000000;-0.065339
5169.000000;-0.065599
5168.000000;-0.065777
5167.000000;-0.065853
5166.000000;-0.065817
5165.000000;-0.065684
5164.000000;-0.065549
5163.000000;-0.065432
5162.000000;-0.065222
5161.000000;-0.064910
5160.000000;-0.064709
5159.000000;-0.064754
5158.000000;-0.064852
5157.000000;-0.064767
5156.000000;-0.064616
5155.000000;-0.064697
5154.000000;-0.065028
5153.000000;-0.065371
5152.000000;-0.065684
5151.000000;-0.066164
5150.000000;-0.066830
5149.000000;-0.067427
5148.000000;-0.067833
5147.000000;-0.068241
5146.000000;-0.068811
5145.000000;-0.069369
5144.000000;-0.069620
5143.000000;-0.069527
5142.000000;-0.069326
5141.000000;-0.069228
5140.000000;-0.069235
5139.000000;-0.069270
5138.000000;-0.069362
5137.000000;-0.069613
5136.000000;-0.070008
5135.000000;-0.070373
5134.000000;-0.070580
5133.000000;-0.070689
5132.000000;-0.070832
5131.000000;-0.071019
5130.000000;-0.071163
5129.000000;-0.071260
5128.000000;-0.071394
5127.000000;-0.071593
5126.000000;-0.071788
5125.000000;-0.071923
5124.000000;-0.072045
5123.000000;-0.072195
5122.000000;-0.072317
5121.000000;-0.072352
5120.000000;-0.072339
5119.000000;-0.072343
5118.000000;-0.072344
5117.000000;-0.072297
5116.000000;-0.072251
5115.000000;-0.072307
5114.000000;-0.072478
5113.000000;-0.072688
5112.000000;-0.072889
5111.000000;-0.073093
5110.000000;-0.073298
5109.000000;-0.073470
5108.000000;-0.073607
5107.000000;-0.073739
5106.000000;-0.073872
5105.000000;-0.073991
5104.000000;-0.074114
5103.000000;-0.074259
5102.000000;-0.074388
5101.000000;-0.074453
5100.000000;-0.074477
5099.000000;-0.074519
5098.000000;-0.074592
5097.000000;-0.074655
5096.000000;-0.074684
5095.000000;-0.074688
5094.000000;-0.074676
5093.000000;-0.074662
5092.000000;-0.074681
5091.000000;-0.074766
5090.000000;-0.074900
5089.000000;-0.075041
5088.000000;-0.075174
5087.000000;-0.075299
5086.000000;-0.075400
5085.000000;-0.075468
5084.000000;-0.075544
5083.000000;-0.075676
5082.000000;-0.075843
5081.000000;-0.075990
5080.000000;-0.076095
5079.000000;-0.076181
5078.000000;-0.076269
5077.000000;-0.076369
5076.000000;-0.076489
5075.000000;-0.076620
5074.000000;-0.076725
5073.000000;-0.076773
5072.000000;-0.076788
5071.000000;-0.076811
5070.000000;-0.076853
5069.000000;-0.076899
5068.000000;-0.076954
5067.000000;-0.077036
5066.000000;-0.077139
5065.000000;-0.077235
5064.000000;-0.077314
5063.000000;-0.077383
5062.000000;-0.077440
5061.000000;-0.077487
5060.000000;-0.077549
5059.000000;-0.077639
5058.000000;-0.077728
5057.000000;-0.077777
5056.000000;-0.077789
5055.000000;-0.077793
5054.000000;-0.077800
5053.000000;-0.077814
5052.000000;-0.077861
5051.000000;-0.077962
5050.000000;-0.078079
5049.000000;-0.078153
5048.000000;-0.078176
5047.000000;-0.078207
5046.000000;-0.078297
5045.000000;-0.078447
5044.000000;-0.078630
5043.000000;-0.078820
5042.000000;-0.078980
5041.000000;-0.079084
5040.000000;-0.079141
5039.000000;-0.079189
5038.000000;-0.079253
5037.000000;-0.079328
5036.000000;-0.079407
5035.000000;-0.079488
5034.000000;-0.079562
5033.000000;-0.079624
5032.000000;-0.079686
5031.000000;-0.079769
5030.000000;-0.079870
5029.000000;-0.079973
5028.000000;-0.080065
5027.000000;-0.080143
5026.000000;-0.080193
5025.000000;-0.080205
5024.000000;-0.080198
5023.000000;-0.080213
5022.000000;-0.080271
5021.000000;-0.080371
5020.000000;-0.080505
5019.000000;-0.080648
5018.000000;-0.080764
5017.000000;-0.080829
5016.000000;-0.080863
5015.000000;-0.080911
5014.000000;-0.080994
5013.000000;-0.081104
5012.000000;-0.081222
5011.000000;-0.081325
5010.000000;-0.081392
5009.000000;-0.081420
5008.000000;-0.081433
5007.000000;-0.081458
5006.000000;-0.081501
5005.000000;-0.081569
5004.000000;-0.081673
5003.000000;-0.081805
5002.000000;-0.081917
5001.000000;-0.081969
5000.000000;-0.081985
4999.000000;-0.082002
4998.000000;-0.082065
4997.000000;-0.082156
4996.000000;-0.082216
4995.000000;-0.082289
4994.000000;-0.082336
4993.000000;-0.082357
4992.000000;-0.082391
4991.000000;-0.082484
4990.000000;-0.082620
4989.000000;-0.082740
4988.000000;-0.082818
4987.000000;-0.082875
4986.000000;-0.082941
4985.000000;-0.083030
4984.000000;-0.083153
4983.000000;-0.083308
4982.000000;-0.083470
4981.000000;-0.083602
4980.000000;-0.083699
4979.000000;-0.083779
4978.000000;-0.083852
4977.000000;-0.083917
4976.000000;-0.083984
4975.000000;-0.084069
4974.000000;-0.084169
4973.000000;-0.084260
4972.000000;-0.084327
4971.000000;-0.084373
4970.000000;-0.084402
4969.000000;-0.084429
4968.000000;-0.084480
4967.000000;-0.084570
4966.000000;-0.084679
4965.000000;-0.084776
4964.000000;-0.084851
4963.000000;-0.084913
4962.000000;-0.084972
4961.000000;-0.085044
4960.000000;-0.085148
4959.000000;-0.085285
4958.000000;-0.085419
4957.000000;-0.085512
4956.000000;-0.085568
4955.000000;-0.085619
4954.000000;-0.085678
4953.000000;-0.085743
4952.000000;-0.085821
4951.000000;-0.085912
4950.000000;-0.085992
4949.000000;-0.086031
4948.000000;-0.086043
4947.000000;-0.086075
4946.000000;-0.086148
4945.000000;-0.086250
4944.000000;-0.086367
4943.000000;-0.086503
4942.000000;-0.086654
4941.000000;-0.086801
4940.000000;-0.086929
4939.000000;-0.087043
4938.000000;-0.087147
4937.000000;-0.087245
4936.000000;-0.087339
4935.000000;-0.087423
4934.000000;-0.087491
4933.000000;-0.087553
4932.000000;-0.087637
4931.000000;-0.087752
4930.000000;-0.087875
4929.000000;-0.087983
4928.000000;-0.088082
4927.000000;-0.088183
4926.000000;-0.088274
4925.000000;-0.088341
4924.000000;-0.088408
4923.000000;-0.088512
4922.000000;-0.088655
4921.000000;-0.088808
4920.000000;-0.088951
4919.000000;-0.089070
4918.000000;-0.089150
4917.000000;-0.089193
4916.000000;-0.089234
4915.000000;-0.089314
4914.000000;-0.089433
4913.000000;-0.089566
4912.000000;-0.089697
4911.000000;-0.089813
4910.000000;-0.089888
4909.000000;-0.089920
4908.000000;-0.089967
4907.000000;-0.090096
4906.000000;-0.090305
4905.000000;-0.090518
4904.000000;-0.090671
4903.000000;-0.090765
4902.000000;-0.090841
4901.000000;-0.090939
4900.000000;-0.091074
4899.000000;-0.091237
4898.000000;-0.091388
4897.000000;-0.091495
4896.000000;-0.091567
4895.000000;-0.091633
4894.000000;-0.091703
4893.000000;-0.091772
4892.000000;-0.091861
4891.000000;-0.091997
4890.000000;-0.092176
4889.000000;-0.092360
4888.000000;-0.092521
4887.000000;-0.092661
4886.000000;-0.092774
4885.000000;-0.092849
4884.000000;-0.092901
4883.000000;-0.092974
4882.000000;-0.093083
4881.000000;-0.093197
4880.000000;-0.093278
4879.000000;-0.093329
4878.000000;-0.093375
4877.000000;-0.093441
4876.000000;-0.093538
4875.000000;-0.093662
4874.000000;-0.093788
4873.000000;-0.093884
4872.000000;-0.093941
4871.000000;-0.093984
4870.000000;-0.094048
4869.000000;-0.094156
4868.000000;-0.094308
4867.000000;-0.094480
4866.000000;-0.094637
4865.000000;-0.094754
4864.000000;-0.094847
4863.000000;-0.094951
4862.000000;-0.095085
4861.000000;-0.095236
4860.000000;-0.095378
4859.000000;-0.095492
4858.000000;-0.095571
4857.000000;-0.095628
4856.000000;-0.095692
4855.000000;-0.095779
4854.000000;-0.095889
4853.000000;-0.096025
4852.000000;-0.096195
4851.000000;-0.096384
4850.000000;-0.096529
4849.000000;-0.096579
4848.000000;-0.096550
4847.000000;-0.096515
4846.000000;-0.096535
4845.000000;-0.096622
4844.000000;-0.096755
4843.000000;-0.096899
4842.000000;-0.097014
4841.000000;-0.097089
4840.000000;-0.097153
4839.000000;-0.097248
4838.000000;-0.097378
4837.000000;-0.097516
4836.000000;-0.097646
4835.000000;-0.097766
4834.000000;-0.097867
4833.000000;-0.097937
4832.000000;-0.097994
4831.000000;-0.098082
4830.000000;-0.098222
4829.000000;-0.098393
4828.000000;-0.098554
4827.000000;-0.098679
4826.000000;-0.098763
4825.000000;-0.098820
4824.000000;-0.098889
4823.000000;-0.099002
4822.000000;-0.099152
4821.000000;-0.099303
4820.000000;-0.099427
4819.000000;-0.099519
4818.000000;-0.099586
4817.000000;-0.099630
4816.000000;-0.099672
4815.000000;-0.099748
4814.000000;-0.099871
4813.000000;-0.100020
4812.000000;-0.100149
4811.000000;-0.100227
4810.000000;-0.100256
4809.000000;-0.100276
4808.000000;-0.100339
4807.000000;-0.100468
4806.000000;-0.100641
4805.000000;-0.100807
4804.000000;-0.100933
4803.000000;-0.101008
4802.000000;-0.101038
4801.000000;-0.101050
4800.000000;-0.101095
4799.000000;-0.101209
4798.000000;-0.101380
4797.000000;-0.101555
4796.000000;-0.101684
4795.000000;-0.101753
4794.000000;-0.101785
4793.000000;-0.101831
4792.000000;-0.101937
4791.000000;-0.102104
4790.000000;-0.102276
4789.000000;-0.102391
4788.000000;-0.102444
4787.000000;-0.102490
4786.000000;-0.102584
4785.000000;-0.102746
4784.000000;-0.102949
4783.000000;-0.103135
4782.000000;-0.103242
4781.000000;-0.103251
4780.000000;-0.103207
4779.000000;-0.103179
4778.000000;-0.103199
4777.000000;-0.103260
4776.000000;-0.103345
4775.000000;-0.103439
4774.000000;-0.103517
4773.000000;-0.103557
4772.000000;-0.103574
4771.000000;-0.103609
4770.000000;-0.103701
4769.000000;-0.103855
4768.000000;-0.104046
4767.000000;-0.104218
4766.000000;-0.104310
4765.000000;-0.104299
4764.000000;-0.104238
4763.000000;-0.104210
4762.000000;-0.104259
4761.000000;-0.104368
4760.000000;-0.104504
4759.000000;-0.104647
4758.000000;-0.104782
4757.000000;-0.104899
4756.000000;-0.104997
4755.000000;-0.105085
4754.000000;-0.105168
4753.000000;-0.105244
4752.000000;-0.105330
4751.000000;-0.105435
4750.000000;-0.105539
4749.000000;-0.105603
4748.000000;-0.105617
4747.000000;-0.105619
4746.000000;-0.105659
4745.000000;-0.105761
4744.000000;-0.105920
4743.000000;-0.106098
4742.000000;-0.106246
4741.000000;-0.106335
4740.000000;-0.106386
4739.000000;-0.106450
4738.000000;-0.106550
4737.000000;-0.106670
4736.000000;-0.106781
4735.000000;-0.106873
4734.000000;-0.106945
4733.000000;-0.106998
4732.000000;-0.107042
4731.000000;-0.107098
4730.000000;-0.107175
4729.000000;-0.107273
4728.000000;-0.107383
4727.000000;-0.107497
4726.000000;-0.107601
4725.000000;-0.107693
4724.000000;-0.107783
4723.000000;-0.107889
4722.000000;-0.108002
4721.000000;-0.108099
4720.000000;-0.108162
4719.000000;-0.108197
4718.000000;-0.108214
4717.000000;-0.108229
4716.000000;-0.108266
4715.000000;-0.108345
4714.000000;-0.108464
4713.000000;-0.108594
4712.000000;-0.108696
4711.000000;-0.108736
4710.000000;-0.108707
4709.000000;-0.108648
4708.000000;-0.108627
4707.000000;-0.108686
4706.000000;-0.108803
4705.000000;-0.108920
4704.000000;-0.108994
4703.000000;-0.109017
4702.000000;-0.109005
4701.000000;-0.109002
4700.000000;-0.109070
4699.000000;-0.109233
4698.000000;-0.109430
4697.000000;-0.109562
4696.000000;-0.109586
4695.000000;-0.109553
4694.000000;-0.109533
4693.000000;-0.109559
4692.000000;-0.109625
4691.000000;-0.109714
4690.000000;-0.109812
4689.000000;-0.109904
4688.000000;-0.109986
4687.000000;-0.110058
4686.000000;-0.110114
4685.000000;-0.110156
4684.000000;-0.110205
4683.000000;-0.110279
4682.000000;-0.110348
4681.000000;-0.110352
4680.000000;-0.110272
4679.000000;-0.110160
4678.000000;-0.110095
4677.000000;-0.110117
4676.000000;-0.110216
4675.000000;-0.110348
4674.000000;-0.110473
4673.000000;-0.110570
4672.000000;-0.110642
4671.000000;-0.110693
4670.000000;-0.110726
4669.000000;-0.110750
4668.000000;-0.110794
4667.000000;-0.110880
4666.000000;-0.110982
4665.000000;-0.111045
4664.000000;-0.111039
4663.000000;-0.110985
4662.000000;-0.110917
4661.000000;-0.110856
4660.000000;-0.110814
4659.000000;-0.110798
4658.000000;-0.110803
4657.000000;-0.110812
4656.000000;-0.110826
4655.000000;-0.110856
4654.000000;-0.110901
4653.000000;-0.110945
4652.000000;-0.110979
4651.000000;-0.111010
4650.000000;-0.111036
4649.000000;-0.111036
4648.000000;-0.110997
4647.000000;-0.110929
4646.000000;-0.110863
4645.000000;-0.110821
4644.000000;-0.110820
4643.000000;-0.110853
4642.000000;-0.110882
4641.000000;-0.110858
4640.000000;-0.110766
4639.000000;-0.110647
4638.000000;-0.110568
4637.000000;-0.110563
4636.000000;-0.110623
4635.000000;-0.110705
4634.000000;-0.110766
4633.000000;-0.110788
4632.000000;-0.110789
4631.000000;-0.110802
4630.000000;-0.110836
4629.000000;-0.110867
4628.000000;-0.110868
4627.000000;-0.110840
4626.000000;-0.110797
4625.000000;-0.110749
4624.000000;-0.110693
4623.000000;-0.110631
4622.000000;-0.110575
4621.000000;-0.110537
4620.000000;-0.110516
4619.000000;-0.110496
4618.000000;-0.110459
4617.000000;-0.110399
4616.000000;-0.110321
4615.000000;-0.110233
4614.000000;-0.110138
4613.000000;-0.110056
4612.000000;-0.110007
4611.000000;-0.109976
4610.000000;-0.109905
4609.000000;-0.109750
4608.000000;-0.109542
4607.000000;-0.109356
4606.000000;-0.109235
4605.000000;-0.109159
4604.000000;-0.109086
4603.000000;-0.109001
4602.000000;-0.108908
4601.000000;-0.108810
4600.000000;-0.108709
4599.000000;-0.108613
4598.000000;-0.108519
4597.000000;-0.108415
4596.000000;-0.108289
4595.000000;-0.108151
4594.000000;-0.108017
4593.000000;-0.107886
4592.000000;-0.107752
4591.000000;-0.107617
4590.000000;-0.107496
4589.000000;-0.107403
4588.000000;-0.107335
4587.000000;-0.107265
4586.000000;-0.107161
4585.000000;-0.107019
4584.000000;-0.106864
4583.000000;-0.106712
4582.000000;-0.106542
4581.000000;-0.106309
4580.000000;-0.105996
4579.000000;-0.105643
4578.000000;-0.105308
4577.000000;-0.105026
4576.000000;-0.104794
4575.000000;-0.104582
4574.000000;-0.104355
4573.000000;-0.104090
4572.000000;-0.103778
4571.000000;-0.103425
4570.000000;-0.103042
4569.000000;-0.102636
4568.000000;-0.102219
4567.000000;-0.101805
4566.000000;-0.101406
4565.000000;-0.101034
4564.000000;-0.100695
4563.000000;-0.100378
4562.000000;-0.100057
4561.000000;-0.099720
4560.000000;-0.099375
4559.000000;-0.099024
4558.000000;-0.098636
4557.000000;-0.098185
4556.000000;-0.097698
4555.000000;-0.097243
4554.000000;-0.096849
4553.000000;-0.096474
4552.000000;-0.096058
4551.000000;-0.095577
4550.000000;-0.095041
4549.000000;-0.094460
4548.000000;-0.093842
4547.000000;-0.093209
4546.000000;-0.092599
4545.000000;-0.092036
4544.000000;-0.091509
4543.000000;-0.090974
4542.000000;-0.090402
4541.000000;-0.089801
4540.000000;-0.089219
4539.000000;-0.088695
4538.000000;-0.088228
4537.000000;-0.087784
4536.000000;-0.087331
4535.000000;-0.086860
4534.000000;-0.086377
4533.000000;-0.085897
4532.000000;-0.085439
4531.000000;-0.085019
4530.000000;-0.084637
4529.000000;-0.084285
4528.000000;-0.083957
4527.000000;-0.083647
4526.000000;-0.083343
4525.000000;-0.083037
4524.000000;-0.082742
4523.000000;-0.082492
4522.000000;-0.082297
4521.000000;-0.082127
4520.000000;-0.081937
4519.000000;-0.081704
4518.000000;-0.081431
4517.000000;-0.081140
4516.000000;-0.080861
4515.000000;-0.080624
4514.000000;-0.080440
4513.000000;-0.080281
4512.000000;-0.080081
4511.000000;-0.079785
4510.000000;-0.079401
4509.000000;-0.079003
4508.000000;-0.078680
4507.000000;-0.078475
4506.000000;-0.078374
4505.000000;-0.078333
4504.000000;-0.078302
4503.000000;-0.078225
4502.000000;-0.078055
4501.000000;-0.077793
4500.000000;-0.077493
4499.000000;-0.077211
4498.000000;-0.076961
4497.000000;-0.076720
4496.000000;-0.076478
4495.000000;-0.076240
4494.000000;-0.076001
4493.000000;-0.075747
4492.000000;-0.075479
4491.000000;-0.075221
4490.000000;-0.074976
4489.000000;-0.074715
4488.000000;-0.074406
4487.000000;-0.074054
4486.000000;-0.073700
4485.000000;-0.073373
4484.000000;-0.073063
4483.000000;-0.072747
4482.000000;-0.072421
4481.000000;-0.072106
4480.000000;-0.071817
4479.000000;-0.071543
4478.000000;-0.071257
4477.000000;-0.070948
4476.000000;-0.070624
4475.000000;-0.070286
4474.000000;-0.069918
4473.000000;-0.069501
4472.000000;-0.069051
4471.000000;-0.068606
4470.000000;-0.068199
4469.000000;-0.067829
4468.000000;-0.067468
4467.000000;-0.067094
4466.000000;-0.066704
4465.000000;-0.066311
4464.000000;-0.065916
4463.000000;-0.065496
4462.000000;-0.065038
4461.000000;-0.064557
4460.000000;-0.064087
4459.000000;-0.063635
4458.000000;-0.063178
4457.000000;-0.062690
4456.000000;-0.062169
4455.000000;-0.061626
4454.000000;-0.061085
4453.000000;-0.060590
4452.000000;-0.060181
4451.000000;-0.059844
4450.000000;-0.059508
4449.000000;-0.059107
4448.000000;-0.058625
4447.000000;-0.058083
4446.000000;-0.057514
4445.000000;-0.056960
4444.000000;-0.056471
4443.000000;-0.056053
4442.000000;-0.055654
4441.000000;-0.055202
4440.000000;-0.054672
4439.000000;-0.054089
4438.000000;-0.053495
4437.000000;-0.052929
4436.000000;-0.052411
4435.000000;-0.051930
4434.000000;-0.051430
4433.000000;-0.050868
4432.000000;-0.050245
4431.000000;-0.049602
4430.000000;-0.048976
4429.000000;-0.048403
4428.000000;-0.047907
4427.000000;-0.047468
4426.000000;-0.047012
4425.000000;-0.046471
4424.000000;-0.045853
4423.000000;-0.045232
4422.000000;-0.044651
4421.000000;-0.044094
4420.000000;-0.043527
4419.000000;-0.042928
4418.000000;-0.042286
4417.000000;-0.041602
4416.000000;-0.040906
4415.000000;-0.040242
4414.000000;-0.039614
4413.000000;-0.038984
4412.000000;-0.038329
4411.000000;-0.037661
4410.000000;-0.036994
4409.000000;-0.036320
4408.000000;-0.035633
4407.000000;-0.034958
4406.000000;-0.034320
4405.000000;-0.033708
4404.000000;-0.033083
4403.000000;-0.032419
4402.000000;-0.031709
4401.000000;-0.030961
4400.000000;-0.030198
4399.000000;-0.029459
4398.000000;-0.028780
4397.000000;-0.028151
4396.000000;-0.027519
4395.000000;-0.026819
4394.000000;-0.026016
4393.000000;-0.025112
4392.000000;-0.024140
4391.000000;-0.023154
4390.000000;-0.022219
4389.000000;-0.021389
4388.000000;-0.020658
4387.000000;-0.019951
4386.000000;-0.019162
4385.000000;-0.018248
4384.000000;-0.017257
4383.000000;-0.016276
4382.000000;-0.015337
4381.000000;-0.014403
4380.000000;-0.013427
4379.000000;-0.012400
4378.000000;-0.011353
4377.000000;-0.010315
4376.000000;-0.009315
4375.000000;-0.008381
4374.000000;-0.007532
4373.000000;-0.006747
4372.000000;-0.005947
4371.000000;-0.005035
4370.000000;-0.003955
4369.000000;-0.002738
4368.000000;-0.001481
4367.000000;-0.000284
4366.000000;0.000807
4365.000000;0.001818
4364.000000;0.002812
4363.000000;0.003844
4362.000000;0.004927
4361.000000;0.006038
4360.000000;0.007150
4359.000000;0.008252
4358.000000;0.009333
4357.000000;0.010374
4356.000000;0.011385
4355.000000;0.012438
4354.000000;0.013624
4353.000000;0.014963
4352.000000;0.016391
4351.000000;0.017823
4350.000000;0.019208
4349.000000;0.020526
4348.000000;0.021783
4347.000000;0.023015
4346.000000;0.024279
4345.000000;0.025590
4344.000000;0.026908
4343.000000;0.028203
4342.000000;0.029495
4341.000000;0.030810
4340.000000;0.032127
4339.000000;0.033414
4338.000000;0.034689
4337.000000;0.036008
4336.000000;0.037397
4335.000000;0.038824
4334.000000;0.040241
4333.000000;0.041630
4332.000000;0.043015
4331.000000;0.044447
4330.000000;0.045960
4329.000000;0.047515
4328.000000;0.049017
4327.000000;0.050389
4326.000000;0.051652
4325.000000;0.052883
4324.000000;0.054149
4323.000000;0.055492
4322.000000;0.056948
4321.000000;0.058539
4320.000000;0.060227
4319.000000;0.061920
4318.000000;0.063535
4317.000000;0.065051
4316.000000;0.066506
4315.000000;0.067958
4314.000000;0.069440
4313.000000;0.070935
4312.000000;0.072401
4311.000000;0.073832
4310.000000;0.075282
4309.000000;0.076820
4308.000000;0.078484
4307.000000;0.080270
4306.000000;0.082134
4305.000000;0.083979
4304.000000;0.085689
4303.000000;0.087211
4302.000000;0.088619
4301.000000;0.090055
4300.000000;0.091624
4299.000000;0.093345
4298.000000;0.095156
4297.000000;0.096952
4296.000000;0.098654
4295.000000;0.100274
4294.000000;0.101916
4293.000000;0.103677
4292.000000;0.105565
4291.000000;0.107510
4290.000000;0.109434
4289.000000;0.111282
4288.000000;0.113047
4287.000000;0.114789
4286.000000;0.116585
4285.000000;0.118452
4284.000000;0.120342
4283.000000;0.122220
4282.000000;0.124107
4281.000000;0.125987
4280.000000;0.127784
4279.000000;0.129474
4278.000000;0.131182
4277.000000;0.133064
4276.000000;0.135133
4275.000000;0.137267
4274.000000;0.139345
4273.000000;0.141310
4272.000000;0.143128
4271.000000;0.144814
4270.000000;0.146490
4269.000000;0.148321
4268.000000;0.150360
4267.000000;0.152525
4266.000000;0.154719
4265.000000;0.156904
4264.000000;0.159052
4263.000000;0.161108
4262.000000;0.163052
4261.000000;0.164953
4260.000000;0.166915
4259.000000;0.169004
4258.000000;0.171209
4257.000000;0.173446
4256.000000;0.175596
4255.000000;0.177609
4254.000000;0.179577
4253.000000;0.181663
4252.000000;0.183926
4251.000000;0.186272
4250.000000;0.188568
4249.000000;0.190743
4248.000000;0.192794
4247.000000;0.194762
4246.000000;0.196754
4245.000000;0.198900
4244.000000;0.201242
4243.000000;0.203688
4242.000000;0.206103
4241.000000;0.208424
4240.000000;0.210673
4239.000000;0.212891
4238.000000;0.215099
4237.000000;0.217306
4236.000000;0.219524
4235.000000;0.221778
4234.000000;0.224084
4233.000000;0.226424
4232.000000;0.228749
4231.000000;0.231057
4230.000000;0.233456
4229.000000;0.236067
4228.000000;0.238874
4227.000000;0.241701
4226.000000;0.244377
4225.000000;0.246887
4224.000000;0.249342
4223.000000;0.251847
4222.000000;0.254434
4221.000000;0.257094
4220.000000;0.259811
4219.000000;0.262565
4218.000000;0.265297
4217.000000;0.267922
4216.000000;0.270404
4215.000000;0.272825
4214.000000;0.275347
4213.000000;0.278070
4212.000000;0.280950
4211.000000;0.283856
4210.000000;0.286683
4209.000000;0.289415
4208.000000;0.292126
4207.000000;0.294944
4206.000000;0.297966
4205.000000;0.301133
4204.000000;0.304250
4203.000000;0.307169
4202.000000;0.309950
4201.000000;0.312753
4200.000000;0.315633
4199.000000;0.318527
4198.000000;0.321438
4197.000000;0.324486
4196.000000;0.327755
4195.000000;0.331151
4194.000000;0.334467
4193.000000;0.337551
4192.000000;0.340399
4191.000000;0.343162
4190.000000;0.346063
4189.000000;0.349281
4188.000000;0.352829
4187.000000;0.356552
4186.000000;0.360235
4185.000000;0.363726
4184.000000;0.366995
4183.000000;0.370128
4182.000000;0.373274
4181.000000;0.376537
4180.000000;0.379915
4179.000000;0.383343
4178.000000;0.386762
4177.000000;0.390130
4176.000000;0.393419
4175.000000;0.396664
4174.000000;0.399979
4173.000000;0.403441
4172.000000;0.406988
4171.000000;0.410505
4170.000000;0.413979
4169.000000;0.417505
4168.000000;0.421145
4167.000000;0.424874
4166.000000;0.428651
4165.000000;0.432444
4164.000000;0.436184
4163.000000;0.439805
4162.000000;0.443334
4161.000000;0.446865
4160.000000;0.450416
4159.000000;0.453892
4158.000000;0.457244
4157.000000;0.460595
4156.000000;0.464150
4155.000000;0.468000
4154.000000;0.472064
4153.000000;0.476172
4152.000000;0.480202
4151.000000;0.484146
4150.000000;0.488054
4149.000000;0.491920
4148.000000;0.495669
4147.000000;0.499284
4146.000000;0.502867
4145.000000;0.506536
4144.000000;0.510304
4143.000000;0.514125
4142.000000;0.517990
4141.000000;0.521887
4140.000000;0.525718
4139.000000;0.529401
4138.000000;0.533028
4137.000000;0.536795
4136.000000;0.540777
4135.000000;0.544872
4134.000000;0.548960
4133.000000;0.552985
4132.000000;0.556876
4131.000000;0.560547
4130.000000;0.564026
4129.000000;0.567493
4128.000000;0.571151
4127.000000;0.575117
4126.000000;0.579401
4125.000000;0.583841
4124.000000;0.588094
4123.000000;0.591889
4122.000000;0.595359
4121.000000;0.598966
4120.000000;0.603012
4119.000000;0.607357
4118.000000;0.611660
4117.000000;0.615707
4116.000000;0.619451
4115.000000;0.622918
4114.000000;0.626268
4113.000000;0.629803
4112.000000;0.633705
4111.000000;0.637826
4110.000000;0.641882
4109.000000;0.645829
4108.000000;0.649861
4107.000000;0.654066
4106.000000;0.658241
4105.000000;0.662089
4104.000000;0.665521
4103.000000;0.668749
4102.000000;0.672121
4101.000000;0.675851
4100.000000;0.679840
4099.000000;0.683803
4098.000000;0.687621
4097.000000;0.691451
4096.000000;0.695390
4095.000000;0.699173
4094.000000;0.702455
4093.000000;0.705397
4092.000000;0.708707
4091.000000;0.712952
4090.000000;0.717925
4089.000000;0.722805
4088.000000;0.726922
4087.000000;0.730329
4086.000000;0.733662
4085.000000;0.737447
4084.000000;0.741548
4083.000000;0.745334
4082.000000;0.748481
4081.000000;0.751451
4080.000000;0.754988
4079.000000;0.759186
4078.000000;0.763399
4077.000000;0.767110
4076.000000;0.770512
4075.000000;0.774021
4074.000000;0.777592
4073.000000;0.780953
4072.000000;0.784252
4071.000000;0.787957
4070.000000;0.792122
4069.000000;0.796238
4068.000000;0.799909
4067.000000;0.803264
4066.000000;0.806546
4065.000000;0.809712
4064.000000;0.812700
4063.000000;0.815752
4062.000000;0.819151
4061.000000;0.822846
4060.000000;0.826621
4059.000000;0.830429
4058.000000;0.834288
4057.000000;0.838066
4056.000000;0.841680
4055.000000;0.845357
4054.000000;0.849342
4053.000000;0.853412
4052.000000;0.857030
4051.000000;0.859973
4050.000000;0.862546
4049.000000;0.865203
4048.000000;0.868246
4047.000000;0.871795
4046.000000;0.875679
4045.000000;0.879318
4044.000000;0.882114
4043.000000;0.884161
4042.000000;0.886292
4041.000000;0.889245
4040.000000;0.892920
4039.000000;0.896555
4038.000000;0.899389
4037.000000;0.901052
4036.000000;0.901625
4035.000000;0.901695
4034.000000;0.902311
4033.000000;0.904470
4032.000000;0.908352
4031.000000;0.913038
4030.000000;0.917199
4029.000000;0.920145
4028.000000;0.922186
4027.000000;0.923946
4026.000000;0.925574
4025.000000;0.926801
4024.000000;0.927569
4023.000000;0.928237
4022.000000;0.929231
4021.000000;0.930805
4020.000000;0.933049
4019.000000;0.935705
4018.000000;0.937922
4017.000000;0.938706
4016.000000;0.937904
4015.000000;0.936405
4014.000000;0.935186
4013.000000;0.934499
4012.000000;0.934182
4011.000000;0.934213
4010.000000;0.934527
4009.000000;0.934720
4008.000000;0.934596
4007.000000;0.934703
4006.000000;0.935681
4005.000000;0.937065
4004.000000;0.937284
4003.000000;0.935272
4002.000000;0.931855
4001.000000;0.929104
4000.000000;0.928442
3999.000000;0.929548
3998.000000;0.930810
3997.000000;0.930705
3996.000000;0.928931
3995.000000;0.926405
3994.000000;0.924224
3993.000000;0.922679
3992.000000;0.921271
3991.000000;0.919490
3990.000000;0.917287
3989.000000;0.914882
3988.000000;0.912508
3987.000000;0.910453
3986.000000;0.909012
3985.000000;0.908062
3984.000000;0.906910
3983.000000;0.904895
3982.000000;0.901970
3981.000000;0.898394
3980.000000;0.894202
3979.000000;0.889579
3978.000000;0.885460
3977.000000;0.882872
3976.000000;0.881524
3975.000000;0.879790
3974.000000;0.876552
3973.000000;0.872502
3972.000000;0.869026
3971.000000;0.866374
3970.000000;0.863711
3969.000000;0.860610
3968.000000;0.857519
3967.000000;0.854731
3966.000000;0.851745
3965.000000;0.848047
3964.000000;0.843960
3963.000000;0.840320
3962.000000;0.837571
3961.000000;0.835368
3960.000000;0.832810
3959.000000;0.829012
3958.000000;0.823875
3957.000000;0.818456
3956.000000;0.814167
3955.000000;0.811353
3954.000000;0.808825
3953.000000;0.804981
3952.000000;0.799305
3951.000000;0.792749
3950.000000;0.786905
3949.000000;0.782847
3948.000000;0.780397
3947.000000;0.778239
3946.000000;0.775035
3945.000000;0.770639
3944.000000;0.766016
3943.000000;0.762040
3942.000000;0.758734
3941.000000;0.755646
3940.000000;0.752459
3939.000000;0.749029
3938.000000;0.745152
3937.000000;0.740634
3936.000000;0.735458
3935.000000;0.729797
3934.000000;0.724033
3933.000000;0.718763
3932.000000;0.714442
3931.000000;0.710897
3930.000000;0.707447
3929.000000;0.703565
3928.000000;0.699173
3927.000000;0.694331
3926.000000;0.689128
3925.000000;0.683938
3924.000000;0.679279
3923.000000;0.675161
3922.000000;0.671016
3921.000000;0.666473
3920.000000;0.661812
3919.000000;0.657454
3918.000000;0.653409
3917.000000;0.649532
3916.000000;0.645934
3915.000000;0.642749
3914.000000;0.639700
3913.000000;0.636226
3912.000000;0.631934
3911.000000;0.626822
3910.000000;0.621257
3909.000000;0.615844
3908.000000;0.610960
3907.000000;0.606275
3906.000000;0.601139
3905.000000;0.595599
3904.000000;0.590567
3903.000000;0.586666
3902.000000;0.583420
3901.000000;0.580036
3900.000000;0.576591
3899.000000;0.573828
3898.000000;0.571987
3897.000000;0.570410
3896.000000;0.568236
3895.000000;0.565042
3894.000000;0.560858
3893.000000;0.556132
3892.000000;0.551747
3891.000000;0.548513
3890.000000;0.546345
3889.000000;0.544216
3888.000000;0.541166
3887.000000;0.537244
3886.000000;0.533307
3885.000000;0.530073
3884.000000;0.527452
3883.000000;0.524762
3882.000000;0.521538
3881.000000;0.518118
3880.000000;0.515345
3879.000000;0.513611
3878.000000;0.512303
3877.000000;0.510345
3876.000000;0.507252
3875.000000;0.503485
3874.000000;0.499763
3873.000000;0.496280
3872.000000;0.492746
3871.000000;0.489105
3870.000000;0.485900
3869.000000;0.483707
3868.000000;0.482311
3867.000000;0.480750
3866.000000;0.478310
3865.000000;0.475218
3864.000000;0.472148
3863.000000;0.469389
3862.000000;0.466887
3861.000000;0.464837
3860.000000;0.463613
3859.000000;0.463001
3858.000000;0.462012
3857.000000;0.459748
3856.000000;0.456196
3855.000000;0.452032
3854.000000;0.447988
3853.000000;0.444607
3852.000000;0.442197
3851.000000;0.440687
3850.000000;0.439660
3849.000000;0.438726
3848.000000;0.437601
3847.000000;0.435940
3846.000000;0.433582
3845.000000;0.430944
3844.000000;0.428722
3843.000000;0.426976
3842.000000;0.424913
3841.000000;0.421882
3840.000000;0.418221
3839.000000;0.414810
3838.000000;0.412123
3837.000000;0.410064
3836.000000;0.408407
3835.000000;0.406947
3834.000000;0.405381
3833.000000;0.403429
3832.000000;0.401043
3831.000000;0.398305
3830.000000;0.395270
3829.000000;0.392149
3828.000000;0.389415
3827.000000;0.387352
3826.000000;0.385628
3825.000000;0.383620
3824.000000;0.381080
3823.000000;0.378247
3822.000000;0.375467
3821.000000;0.372973
3820.000000;0.370860
3819.000000;0.368953
3818.000000;0.366827
3817.000000;0.364272
3816.000000;0.361578
3815.000000;0.359160
3814.000000;0.357094
3813.000000;0.355200
3812.000000;0.353387
3811.000000;0.351589
3810.000000;0.349524
3809.000000;0.346952
3808.000000;0.344095
3807.000000;0.341430
3806.000000;0.339098
3805.000000;0.336845
3804.000000;0.334525
3803.000000;0.332265
3802.000000;0.330101
3801.000000;0.327819
3800.000000;0.325313
3799.000000;0.322816
3798.000000;0.320596
3797.000000;0.318572
3796.000000;0.316323
3795.000000;0.313532
3794.000000;0.310368
3793.000000;0.307420
3792.000000;0.305192
3791.000000;0.303602
3790.000000;0.302034
3789.000000;0.300008
3788.000000;0.297681
3787.000000;0.295522
3786.000000;0.293676
3785.000000;0.291843
3784.000000;0.289686
3783.000000;0.287121
3782.000000;0.284278
3781.000000;0.281368
3780.000000;0.278567
3779.000000;0.275872
3778.000000;0.273147
3777.000000;0.270405
3776.000000;0.267882
3775.000000;0.265651
3774.000000;0.263350
3773.000000;0.260597
3772.000000;0.257530
3771.000000;0.254613
3770.000000;0.252039
3769.000000;0.249671
3768.000000;0.247472
3767.000000;0.245594
3766.000000;0.243976
3765.000000;0.242203
3764.000000;0.239885
3763.000000;0.237015
3762.000000;0.233875
3761.000000;0.230785
3760.000000;0.227970
3759.000000;0.225413
3758.000000;0.222793
3757.000000;0.219769
3756.000000;0.216437
3755.000000;0.213343
3754.000000;0.210909
3753.000000;0.208934
3752.000000;0.206750
3751.000000;0.203844
3750.000000;0.200347
3749.000000;0.196929
3748.000000;0.194154
3747.000000;0.191944
3746.000000;0.189733
3745.000000;0.187165
3744.000000;0.184467
3743.000000;0.181962
3742.000000;0.179522
3741.000000;0.176821
3740.000000;0.173913
3739.000000;0.171194
3738.000000;0.168813
3737.000000;0.166475
3736.000000;0.163918
3735.000000;0.161235
3734.000000;0.158644
3733.000000;0.156203
3732.000000;0.153809
3731.000000;0.151270
3730.000000;0.148365
3729.000000;0.145056
3728.000000;0.141630
3727.000000;0.138444
3726.000000;0.135565
3725.000000;0.132849
3724.000000;0.130228
3723.000000;0.127621
3722.000000;0.124667
3721.000000;0.121033
3720.000000;0.117027
3719.000000;0.113492
3718.000000;0.110918
3717.000000;0.108956
3716.000000;0.106878
3715.000000;0.104239
3714.000000;0.100963
3713.000000;0.097186
3712.000000;0.093296
3711.000000;0.089846
3710.000000;0.087097
3709.000000;0.084731
3708.000000;0.082214
3707.000000;0.079307
3706.000000;0.076046
3705.000000;0.072497
3704.000000;0.068806
3703.000000;0.065231
3702.000000;0.061872
3701.000000;0.058461
3700.000000;0.054734
3699.000000;0.050959
3698.000000;0.047764
3697.000000;0.045357
3696.000000;0.043213
3695.000000;0.040733
3694.000000;0.038011
3693.000000;0.035635
3692.000000;0.033787
3691.000000;0.031855
3690.000000;0.029058
3689.000000;0.025256
3688.000000;0.020936
3687.000000;0.016540
3686.000000;0.012155
3685.000000;0.007844
3684.000000;0.003920
3683.000000;0.000708
3682.000000;-0.001813
3681.000000;-0.004004
3680.000000;-0.006274
3679.000000;-0.008909
3678.000000;-0.012076
3677.000000;-0.015772
3676.000000;-0.019819
3675.000000;-0.024099
3674.000000;-0.028692
3673.000000;-0.033556
3672.000000;-0.038158
3671.000000;-0.041796
3670.000000;-0.044385
3669.000000;-0.046587
3668.000000;-0.049105
3667.000000;-0.052124
3666.000000;-0.055488
3665.000000;-0.059146
3664.000000;-0.063162
3663.000000;-0.067363
3662.000000;-0.071333
3661.000000;-0.074819
3660.000000;-0.077974
3659.000000;-0.081133
3658.000000;-0.084446
3657.000000;-0.087790
3656.000000;-0.091028
3655.000000;-0.094275
3654.000000;-0.097834
3653.000000;-0.101824
3652.000000;-0.105963
3651.000000;-0.109827
3650.000000;-0.113288
3649.000000;-0.116536
3648.000000;-0.119725
3647.000000;-0.122811
3646.000000;-0.125771
3645.000000;-0.128763
3644.000000;-0.131931
3643.000000;-0.135164
3642.000000;-0.138334
3641.000000;-0.141713
3640.000000;-0.145757
3639.000000;-0.150394
3638.000000;-0.154938
3637.000000;-0.158917
3636.000000;-0.162661
3635.000000;-0.166737
3634.000000;-0.171013
3633.000000;-0.174753
3632.000000;-0.177629
3631.000000;-0.180149
3630.000000;-0.182948
3629.000000;-0.186041
3628.000000;-0.189099
3627.000000;-0.192146
3626.000000;-0.195563
3625.000000;-0.199440
3624.000000;-0.203345
3623.000000;-0.206871
3622.000000;-0.210111
3621.000000;-0.213464
3620.000000;-0.217164
3619.000000;-0.221108
3618.000000;-0.225011
3617.000000;-0.228610
3616.000000;-0.231802
3615.000000;-0.234693
3614.000000;-0.237446
3613.000000;-0.240093
3612.000000;-0.242580
3611.000000;-0.244984
3610.000000;-0.247488
3609.000000;-0.250097
3608.000000;-0.252577
3607.000000;-0.254788
3606.000000;-0.256966
3605.000000;-0.259570
3604.000000;-0.262862
3603.000000;-0.266653
3602.000000;-0.270336
3601.000000;-0.273217
3600.000000;-0.275045
3599.000000;-0.276383
3598.000000;-0.278262
3597.000000;-0.281249
3596.000000;-0.284872
3595.000000;-0.288056
3594.000000;-0.290128
3593.000000;-0.291319
3592.000000;-0.292405
3591.000000;-0.293946
3590.000000;-0.295861
3589.000000;-0.297654
3588.000000;-0.299004
3587.000000;-0.300103
3586.000000;-0.301395
3585.000000;-0.303106
3584.000000;-0.305119
3583.000000;-0.307236
3582.000000;-0.309330
3581.000000;-0.311234
3580.000000;-0.312716
3579.000000;-0.313703
3578.000000;-0.314441
3577.000000;-0.315266
3576.000000;-0.316245
3575.000000;-0.317165
3574.000000;-0.317856
3573.000000;-0.318433
3572.000000;-0.319127
3571.000000;-0.319885
3570.000000;-0.320255
3569.000000;-0.319848
3568.000000;-0.318914
3567.000000;-0.318184
3566.000000;-0.317988
3565.000000;-0.317783
3564.000000;-0.316880
3563.000000;-0.315428
3562.000000;-0.314266
3561.000000;-0.313861
3560.000000;-0.313840
3559.000000;-0.313696
3558.000000;-0.313540
3557.000000;-0.313790
3556.000000;-0.314359
3555.000000;-0.314535
3554.000000;-0.313681
3553.000000;-0.311883
3552.000000;-0.309869
3551.000000;-0.308344
3550.000000;-0.307427
3549.000000;-0.306733
3548.000000;-0.305943
3547.000000;-0.305061
3546.000000;-0.304049
3545.000000;-0.302555
3544.000000;-0.300401
3543.000000;-0.298133
3542.000000;-0.296503
3541.000000;-0.295446
3540.000000;-0.294151
3539.000000;-0.292272
3538.000000;-0.290422
3537.000000;-0.289156
3536.000000;-0.288077
3535.000000;-0.286491
3534.000000;-0.284487
3533.000000;-0.282691
3532.000000;-0.281176
3531.000000;-0.279289
3530.000000;-0.276629
3529.000000;-0.273652
3528.000000;-0.271147
3527.000000;-0.269392
3526.000000;-0.268001
3525.000000;-0.266389
3524.000000;-0.264285
3523.000000;-0.261890
3522.000000;-0.259595
3521.000000;-0.257493
3520.000000;-0.255323
3519.000000;-0.252961
3518.000000;-0.250701
3517.000000;-0.248777
3516.000000;-0.246891
3515.000000;-0.244592
3514.000000;-0.241987
3513.000000;-0.239594
3512.000000;-0.237550
3511.000000;-0.235447
3510.000000;-0.233005
3509.000000;-0.230424
3508.000000;-0.227923
3507.000000;-0.225350
3506.000000;-0.222548
3505.000000;-0.219790
3504.000000;-0.217557
3503.000000;-0.215999
3502.000000;-0.214878
3501.000000;-0.213866
3500.000000;-0.212654
3499.000000;-0.210873
3498.000000;-0.208249
3497.000000;-0.204933
3496.000000;-0.201532
3495.000000;-0.198653
3494.000000;-0.196419
3493.000000;-0.194471
3492.000000;-0.192417
3491.000000;-0.190213
3490.000000;-0.188027
3489.000000;-0.185823
3488.000000;-0.183359
3487.000000;-0.180656
3486.000000;-0.178189
3485.000000;-0.176294
3484.000000;-0.174504
3483.000000;-0.171917
3482.000000;-0.168312
3481.000000;-0.164581
3480.000000;-0.161827
3479.000000;-0.160222
3478.000000;-0.158967
3477.000000;-0.157227
3476.000000;-0.154856
3475.000000;-0.152305
3474.000000;-0.150090
3473.000000;-0.148381
3472.000000;-0.146927
3471.000000;-0.145266
3470.000000;-0.143097
3469.000000;-0.140525
3468.000000;-0.137924
3467.000000;-0.135564
3466.000000;-0.133415
3465.000000;-0.131324
3464.000000;-0.129272
3463.000000;-0.127340
3462.000000;-0.125490
3461.000000;-0.123515
3460.000000;-0.121259
3459.000000;-0.118796
3458.000000;-0.116342
3457.000000;-0.114110
3456.000000;-0.112262
3455.000000;-0.110858
3454.000000;-0.109708
3453.000000;-0.108433
3452.000000;-0.106830
3451.000000;-0.105116
3450.000000;-0.103563
3449.000000;-0.101974
3448.000000;-0.099853
3447.000000;-0.097129
3446.000000;-0.094383
3445.000000;-0.092212
3444.000000;-0.090595
3443.000000;-0.089031
3442.000000;-0.087103
3441.000000;-0.084752
3440.000000;-0.082257
3439.000000;-0.080162
3438.000000;-0.079000
3437.000000;-0.078740
3436.000000;-0.078571
3435.000000;-0.077523
3434.000000;-0.075297
3433.000000;-0.072342
3432.000000;-0.069259
3431.000000;-0.066396
3430.000000;-0.063945
3429.000000;-0.062089
3428.000000;-0.060872
3427.000000;-0.060067
3426.000000;-0.059273
3425.000000;-0.058100
3424.000000;-0.056301
3423.000000;-0.053904
3422.000000;-0.051255
3421.000000;-0.048827
3420.000000;-0.046933
3419.000000;-0.045603
3418.000000;-0.044608
3417.000000;-0.043519
3416.000000;-0.041930
3415.000000;-0.039847
3414.000000;-0.037794
3413.000000;-0.036304
3412.000000;-0.035310
3411.000000;-0.034238
3410.000000;-0.032656
3409.000000;-0.030627
3408.000000;-0.028489
3407.000000;-0.026561
3406.000000;-0.025065
3405.000000;-0.024032
3404.000000;-0.023173
3403.000000;-0.022063
3402.000000;-0.020573
3401.000000;-0.018950
3400.000000;-0.017413
3399.000000;-0.015877
3398.000000;-0.014218
3397.000000;-0.012625
3396.000000;-0.011431
3395.000000;-0.010623
3394.000000;-0.009717
3393.000000;-0.008221
3392.000000;-0.006208
3391.000000;-0.004380
3390.000000;-0.003435
3389.000000;-0.003331
3388.000000;-0.003241
3387.000000;-0.002355
3386.000000;-0.000613
3385.000000;0.001441
3384.000000;0.003355
3383.000000;0.005071
3382.000000;0.006623
3381.000000;0.007905
3380.000000;0.008870
3379.000000;0.009705
3378.000000;0.010645
3377.000000;0.011775
3376.000000;0.013103
3375.000000;0.014641
3374.000000;0.016288
3373.000000;0.017824
3372.000000;0.019171
3371.000000;0.020490
3370.000000;0.021887
3369.000000;0.023216
3368.000000;0.024391
3367.000000;0.025691
3366.000000;0.027405
3365.000000;0.029265
3364.000000;0.030612
3363.000000;0.031186
3362.000000;0.031450
3361.000000;0.032002
3360.000000;0.032941
3359.000000;0.034002
3358.000000;0.035074
3357.000000;0.036291
3356.000000;0.037692
3355.000000;0.039064
3354.000000;0.040171
3353.000000;0.040957
3352.000000;0.041531
3351.000000;0.042100
3350.000000;0.042956
3349.000000;0.044258
3348.000000;0.045738
3347.000000;0.046869
3346.000000;0.047503
3345.000000;0.048140
3344.000000;0.049331
3343.000000;0.050986
3342.000000;0.052580
3341.000000;0.053897
3340.000000;0.055178
3339.000000;0.056561
3338.000000;0.057843
3337.000000;0.058921
3336.000000;0.060061
3335.000000;0.061420
3334.000000;0.062634
3333.000000;0.063267
3332.000000;0.063492
3331.000000;0.063928
3330.000000;0.064862
3329.000000;0.066012
3328.000000;0.067046
3327.000000;0.067942
3326.000000;0.068785
3325.000000;0.069555
3324.000000;0.070292
3323.000000;0.071219
3322.000000;0.072452
3321.000000;0.073766
3320.000000;0.074833
3319.000000;0.075612
3318.000000;0.076299
3317.000000;0.076982
3316.000000;0.077538
3315.000000;0.077909
3314.000000;0.078261
3313.000000;0.078792
3312.000000;0.079498
3311.000000;0.080283
3310.000000;0.081234
3309.000000;0.082598
3308.000000;0.084406
3307.000000;0.086287
3306.000000;0.087778
3305.000000;0.088759
3304.000000;0.089444
3303.000000;0.090050
3302.000000;0.090717
3301.000000;0.091646
3300.000000;0.092940
3299.000000;0.094195
3298.000000;0.094663
3297.000000;0.094154
3296.000000;0.093463
3295.000000;0.093536
3294.000000;0.094435
3293.000000;0.095519
3292.000000;0.096441
3291.000000;0.097451
3290.000000;0.098711
3289.000000;0.099947
3288.000000;0.100961
3287.000000;0.101977
3286.000000;0.103153
3285.000000;0.104159
3284.000000;0.104650
3283.000000;0.104911
3282.000000;0.105584
3281.000000;0.106876
3280.000000;0.108409
3279.000000;0.109792
3278.000000;0.110961
3277.000000;0.111923
3276.000000;0.112525
3275.000000;0.112641
3274.000000;0.112401
3273.000000;0.112095
3272.000000;0.111994
3271.000000;0.112307
3270.000000;0.113162
3269.000000;0.114484
3268.000000;0.115993
3267.000000;0.117413
3266.000000;0.118666
3265.000000;0.119823
3264.000000;0.120937
3263.000000;0.121946
3262.000000;0.122697
3261.000000;0.123069
3260.000000;0.123147
3259.000000;0.123271
3258.000000;0.123783
3257.000000;0.124642
3256.000000;0.125386
3255.000000;0.125600
3254.000000;0.125403
3253.000000;0.125407
3252.000000;0.126149
3251.000000;0.127587
3250.000000;0.129152
3249.000000;0.130289
3248.000000;0.130920
3247.000000;0.131358
3246.000000;0.131808
3245.000000;0.132101
3244.000000;0.132000
3243.000000;0.131636
3242.000000;0.131470
3241.000000;0.131839
3240.000000;0.132710
3239.000000;0.133856
3238.000000;0.135073
3237.000000;0.136135
3236.000000;0.136777
3235.000000;0.136925
3234.000000;0.136891
3233.000000;0.137142
3232.000000;0.137864
3231.000000;0.138846
3230.000000;0.139774
3229.000000;0.140531
3228.000000;0.141237
3227.000000;0.142079
3226.000000;0.143113
3225.000000;0.144141
3224.000000;0.144819
3223.000000;0.145002
3222.000000;0.144963
3221.000000;0.145172
3220.000000;0.145851
3219.000000;0.146848
3218.000000;0.147929
3217.000000;0.148997
3216.000000;0.149986
3215.000000;0.150713
3214.000000;0.151034
3213.000000;0.151084
3212.000000;0.151204
3211.000000;0.151635
3210.000000;0.152333
3209.000000;0.153038
3208.000000;0.153485
3207.000000;0.153593
3206.000000;0.153549
3205.000000;0.153683
3204.000000;0.154198
3203.000000;0.155038
3202.000000;0.156064
3201.000000;0.157259
3200.000000;0.158582
3199.000000;0.159702
3198.000000;0.160140
3197.000000;0.159805
3196.000000;0.159236
3195.000000;0.159150
3194.000000;0.159784
3193.000000;0.160737
3192.000000;0.161421
3191.000000;0.161605
3190.000000;0.161524
3189.000000;0.161577
3188.000000;0.161971
3187.000000;0.162652
3186.000000;0.163495
3185.000000;0.164463
3184.000000;0.165513
3183.000000;0.166436
3182.000000;0.166962
3181.000000;0.167078
3180.000000;0.167131
3179.000000;0.167528
3178.000000;0.168368
3177.000000;0.169376
3176.000000;0.170178
3175.000000;0.170597
3174.000000;0.170741
3173.000000;0.170873
3172.000000;0.171172
3171.000000;0.171612
3170.000000;0.172082
3169.000000;0.172623
3168.000000;0.173414
3167.000000;0.174457
3166.000000;0.175404
3165.000000;0.175886
3164.000000;0.175961
3163.000000;0.176057
3162.000000;0.176452
3161.000000;0.176983
3160.000000;0.177361
3159.000000;0.177592
3158.000000;0.177938
3157.000000;0.178545
3156.000000;0.179272
3155.000000;0.179875
3154.000000;0.180189
3153.000000;0.180152
3152.000000;0.179808
3151.000000;0.179381
3150.000000;0.179236
3149.000000;0.179633
3148.000000;0.180514
3147.000000;0.181579
3146.000000;0.182536
3145.000000;0.183273
3144.000000;0.183842
3143.000000;0.184356
3142.000000;0.184888
3141.000000;0.185413
3140.000000;0.185866
3139.000000;0.186254
3138.000000;0.186633
3137.000000;0.186969
3136.000000;0.187148
3135.000000;0.187246
3134.000000;0.187660
3133.000000;0.188752
3132.000000;0.190367
3131.000000;0.191866
3130.000000;0.192686
3129.000000;0.192779
3128.000000;0.192489
3127.000000;0.192170
3126.000000;0.191988
3125.000000;0.191953
3124.000000;0.192015
3123.000000;0.192183
3122.000000;0.192561
3121.000000;0.193203
3120.000000;0.193929
3119.000000;0.194449
3118.000000;0.194725
3117.000000;0.195058
3116.000000;0.195730
3115.000000;0.196724
3114.000000;0.197862
3113.000000;0.199012
3112.000000;0.200010
3111.000000;0.200580
3110.000000;0.200596
3109.000000;0.200318
3108.000000;0.200146
3107.000000;0.200188
3106.000000;0.200300
3105.000000;0.200452
3104.000000;0.200807
3103.000000;0.201446
3102.000000;0.202277
3101.000000;0.203220
3100.000000;0.204185
3099.000000;0.204838
3098.000000;0.204747
3097.000000;0.203985
3096.000000;0.203334
3095.000000;0.203603
3094.000000;0.204791
3093.000000;0.206116
3092.000000;0.206848
3091.000000;0.206990
3090.000000;0.207144
3089.000000;0.207834
3088.000000;0.209018
3087.000000;0.210147
3086.000000;0.210679
3085.000000;0.210551
3084.000000;0.210186
3083.000000;0.210082
3082.000000;0.210428
3081.000000;0.211050
3080.000000;0.211585
3079.000000;0.211696
3078.000000;0.211319
3077.000000;0.210840
3076.000000;0.210859
3075.000000;0.211584
3074.000000;0.212485
3073.000000;0.212753
3072.000000;0.212192
3071.000000;0.211503
3070.000000;0.211563
3069.000000;0.212549
3068.000000;0.213896
3067.000000;0.215025
3066.000000;0.215872
3065.000000;0.216633
3064.000000;0.217243
3063.000000;0.217427
3062.000000;0.217239
3061.000000;0.217209
3060.000000;0.217773
3059.000000;0.218698
3058.000000;0.219310
3057.000000;0.219281
3056.000000;0.219015
3055.000000;0.219200
3054.000000;0.220076
3053.000000;0.221216
3052.000000;0.221977
3051.000000;0.222092
3050.000000;0.221841
3049.000000;0.221656
3048.000000;0.221687
3047.000000;0.221851
3046.000000;0.222208
3045.000000;0.222983
3044.000000;0.224142
3043.000000;0.225220
3042.000000;0.225833
3041.000000;0.226179
3040.000000;0.226720
3039.000000;0.227456
3038.000000;0.227911
3037.000000;0.227909
3036.000000;0.227981
3035.000000;0.228791
3034.000000;0.230375
3033.000000;0.232153
3032.000000;0.233501
3031.000000;0.234113
3030.000000;0.234028
3029.000000;0.233584
3028.000000;0.233265
3027.000000;0.233277
3026.000000;0.233333
3025.000000;0.233123
3024.000000;0.232948
3023.000000;0.233484
3022.000000;0.234798
3021.000000;0.235978
3020.000000;0.236120
3019.000000;0.235499
3018.000000;0.235327
3017.000000;0.236349
3016.000000;0.238010
3015.000000;0.239128
3014.000000;0.239157
3013.000000;0.238580
3012.000000;0.238205
3011.000000;0.238378
3010.000000;0.238877
3009.000000;0.239312
3008.000000;0.239482
3007.000000;0.239491
3006.000000;0.239626
3005.000000;0.240087
3004.000000;0.240752
3003.000000;0.241283
3002.000000;0.241529
3001.000000;0.241759
3000.000000;0.242390
2999.000000;0.243522
2998.000000;0.244808
2997.000000;0.245774
2996.000000;0.246204
2995.000000;0.246230
2994.000000;0.246174
2993.000000;0.246305
2992.000000;0.246668
2991.000000;0.247117
2990.000000;0.247489
2989.000000;0.247728
2988.000000;0.247802
2987.000000;0.247633
2986.000000;0.247250
2985.000000;0.246959
2984.000000;0.247218
2983.000000;0.248249
2982.000000;0.249811
2981.000000;0.251355
2980.000000;0.252410
2979.000000;0.252837
2978.000000;0.252854
2977.000000;0.252862
2976.000000;0.253181
2975.000000;0.253823
2974.000000;0.254519
2973.000000;0.254972
2972.000000;0.255130
2971.000000;0.255227
2970.000000;0.255533
2969.000000;0.256021
2968.000000;0.256313
2967.000000;0.256116
2966.000000;0.255705
2965.000000;0.255783
2964.000000;0.256723
2963.000000;0.258097
2962.000000;0.259153
2961.000000;0.259645
2960.000000;0.259919
2959.000000;0.260232
2958.000000;0.260372
2957.000000;0.260126
2956.000000;0.259797
2955.000000;0.259934
2954.000000;0.260643
2953.000000;0.261443
2952.000000;0.261806
2951.000000;0.261655
2950.000000;0.261332
2949.000000;0.261290
2948.000000;0.261848
2947.000000;0.263055
2946.000000;0.264661
2945.000000;0.266283
2944.000000;0.267655
2943.000000;0.268704
2942.000000;0.269427
2941.000000;0.269823
2940.000000;0.269975
2939.000000;0.270059
2938.000000;0.270187
2937.000000;0.270373
2936.000000;0.270697
2935.000000;0.271333
2934.000000;0.272243
2933.000000;0.273030
2932.000000;0.273300
2931.000000;0.273141
2930.000000;0.273005
2929.000000;0.273181
2928.000000;0.273623
2927.000000;0.274263
2926.000000;0.275152
2925.000000;0.276154
2924.000000;0.276843
2923.000000;0.276970
2922.000000;0.276821
2921.000000;0.276810
2920.000000;0.276920
2919.000000;0.276899
2918.000000;0.276895
2917.000000;0.277437
2916.000000;0.278706
2915.000000;0.280189
2914.000000;0.281234
2913.000000;0.281739
2912.000000;0.282088
2911.000000;0.282604
2910.000000;0.283237
2909.000000;0.283645
2908.000000;0.283440
2907.000000;0.282531
2906.000000;0.281402
2905.000000;0.280893
2904.000000;0.281459
2903.000000;0.282686
2902.000000;0.283720
2901.000000;0.284160
2900.000000;0.284364
2899.000000;0.284920
2898.000000;0.286017
2897.000000;0.287366
2896.000000;0.288536
2895.000000;0.289257
2894.000000;0.289491
2893.000000;0.289371
2892.000000;0.289161
2891.000000;0.289234
2890.000000;0.289920
2889.000000;0.291210
2888.000000;0.292613
2887.000000;0.293516
2886.000000;0.293750
2885.000000;0.293684
2884.000000;0.293714
2883.000000;0.293864
2882.000000;0.293974
2881.000000;0.294086
2880.000000;0.294434
2879.000000;0.295149
2878.000000;0.296176
2877.000000;0.297383
2876.000000;0.298577
2875.000000;0.299492
2874.000000;0.299970
2873.000000;0.300131
2872.000000;0.300194
2871.000000;0.300223
2870.000000;0.300186
2869.000000;0.300189
2868.000000;0.300412
2867.000000;0.300849
2866.000000;0.301332
2865.000000;0.301813
2864.000000;0.302417
2863.000000;0.303190
2862.000000;0.303998
2861.000000;0.304724
2860.000000;0.305375
2859.000000;0.305912
2858.000000;0.306182
2857.000000;0.306132
2856.000000;0.305983
2855.000000;0.306072
2854.000000;0.306562
2853.000000;0.307334
2852.000000;0.308079
2851.000000;0.308472
2850.000000;0.308403
2849.000000;0.308105
2848.000000;0.307995
2847.000000;0.308336
2846.000000;0.309093
2845.000000;0.310088
2844.000000;0.311160
2843.000000;0.312153
2842.000000;0.312952
2841.000000;0.313606
2840.000000;0.314264
2839.000000;0.314911
2838.000000;0.315298
2837.000000;0.315262
2836.000000;0.315011
2835.000000;0.314972
2834.000000;0.315383
2833.000000;0.316101
2832.000000;0.316781
2831.000000;0.317195
2830.000000;0.317441
2829.000000;0.317856
2828.000000;0.318632
2827.000000;0.319490
2826.000000;0.319913
2825.000000;0.319844
2824.000000;0.319992
2823.000000;0.321151
2822.000000;0.323262
2821.000000;0.325386
2820.000000;0.326698
2819.000000;0.327275
2818.000000;0.327752
2817.000000;0.328424
2816.000000;0.328976
2815.000000;0.329024
2814.000000;0.328606
2813.000000;0.328091
2812.000000;0.327845
2811.000000;0.328092
2810.000000;0.328872
2809.000000;0.329952
2808.000000;0.330854
2807.000000;0.331208
2806.000000;0.331061
2805.000000;0.330773
2804.000000;0.330652
2803.000000;0.330817
2802.000000;0.331302
2801.000000;0.332100
2800.000000;0.333075
2799.000000;0.334008
2798.000000;0.334795
2797.000000;0.335486
2796.000000;0.336100
2795.000000;0.336550
2794.000000;0.336811
2793.000000;0.337033
2792.000000;0.337393
2791.000000;0.337942
2790.000000;0.338638
2789.000000;0.339422
2788.000000;0.340219
2787.000000;0.340978
2786.000000;0.341789
2785.000000;0.342810
2784.000000;0.343960
2783.000000;0.344813
2782.000000;0.344970
2781.000000;0.344507
2780.000000;0.343950
2779.000000;0.343827
2778.000000;0.344316
2777.000000;0.345249
2776.000000;0.346333
2775.000000;0.347352
2774.000000;0.348223
2773.000000;0.348890
2772.000000;0.349246
2771.000000;0.349303
2770.000000;0.349371
2769.000000;0.349869
2768.000000;0.350850
2767.000000;0.351916
2766.000000;0.352688
2765.000000;0.353171
2764.000000;0.353505
2763.000000;0.353625
2762.000000;0.353444
2761.000000;0.353233
2760.000000;0.353432
2759.000000;0.354073
2758.000000;0.354676
2757.000000;0.354848
2756.000000;0.354785
2755.000000;0.355045
2754.000000;0.355939
2753.000000;0.357261
2752.000000;0.358538
2751.000000;0.359431
2750.000000;0.359894
2749.000000;0.360083
2748.000000;0.360235
2747.000000;0.360648
2746.000000;0.361620
2745.000000;0.363157
2744.000000;0.364723
2743.000000;0.365531
2742.000000;0.365290
2741.000000;0.364578
2740.000000;0.364299
2739.000000;0.364846
2738.000000;0.365887
2737.000000;0.366856
2736.000000;0.367476
2735.000000;0.367823
2734.000000;0.368074
2733.000000;0.368281
2732.000000;0.368361
2731.000000;0.368248
2730.000000;0.368056
2729.000000;0.368006
2728.000000;0.368167
2727.000000;0.368430
2726.000000;0.368810
2725.000000;0.369589
2724.000000;0.370980
2723.000000;0.372791
2722.000000;0.374577
2721.000000;0.376033
2720.000000;0.377049
2719.000000;0.377523
2718.000000;0.377439
2717.000000;0.377126
2716.000000;0.377119
2715.000000;0.377653
2714.000000;0.378495
2713.000000;0.379309
2712.000000;0.379989
2711.000000;0.380567
2710.000000;0.381026
2709.000000;0.381383
2708.000000;0.381789
2707.000000;0.382377
2706.000000;0.383069
2705.000000;0.383671
2704.000000;0.384112
2703.000000;0.384478
2702.000000;0.384829
2701.000000;0.385095
2700.000000;0.385178
2699.000000;0.385115
2698.000000;0.385081
2697.000000;0.385286
2696.000000;0.385852
2695.000000;0.386773
2694.000000;0.387906
2693.000000;0.388991
2692.000000;0.389811
2691.000000;0.390460
2690.000000;0.391339
2689.000000;0.392664
2688.000000;0.393978
2687.000000;0.394432
2686.000000;0.393724
2685.000000;0.392577
2684.000000;0.392064
2683.000000;0.392602
2682.000000;0.393780
2681.000000;0.395012
2680.000000;0.396102
2679.000000;0.397190
2678.000000;0.398396
2677.000000;0.399634
2676.000000;0.400660
2675.000000;0.401235
2674.000000;0.401310
2673.000000;0.401063
2672.000000;0.400723
2671.000000;0.400424
2670.000000;0.400259
2669.000000;0.400369
2668.000000;0.400868
2667.000000;0.401750
2666.000000;0.402947
2665.000000;0.404369
2664.000000;0.405757
2663.000000;0.406662
2662.000000;0.406816
2661.000000;0.406468
2660.000000;0.406160
2659.000000;0.406245
2658.000000;0.406783
2657.000000;0.407761
2656.000000;0.409097
2655.000000;0.410463
2654.000000;0.411400
2653.000000;0.411711
2652.000000;0.411610
2651.000000;0.411450
2650.000000;0.411467
2649.000000;0.411759
2648.000000;0.412260
2647.000000;0.412717
2646.000000;0.412930
2645.000000;0.413098
2644.000000;0.413672
2643.000000;0.414789
2642.000000;0.416044
2641.000000;0.416907
2640.000000;0.417244
2639.000000;0.417334
2638.000000;0.417538
2637.000000;0.418058
2636.000000;0.418867
2635.000000;0.419752
2634.000000;0.420466
2633.000000;0.420947
2632.000000;0.421346
2631.000000;0.421834
2630.000000;0.422463
2629.000000;0.423183
2628.000000;0.423876
2627.000000;0.424361
2626.000000;0.424545
2625.000000;0.424587
2624.000000;0.424761
2623.000000;0.425133
2622.000000;0.425549
2621.000000;0.425951
2620.000000;0.426465
2619.000000;0.427115
2618.000000;0.427701
2617.000000;0.428084
2616.000000;0.428398
2615.000000;0.428815
2614.000000;0.429323
2613.000000;0.429904
2612.000000;0.430745
2611.000000;0.431995
2610.000000;0.433421
2609.000000;0.434556
2608.000000;0.435182
2607.000000;0.435475
2606.000000;0.435684
2605.000000;0.435867
2604.000000;0.435965
2603.000000;0.435984
2602.000000;0.435979
2601.000000;0.435954
2600.000000;0.435888
2599.000000;0.435870
2598.000000;0.436160
2597.000000;0.437030
2596.000000;0.438476
2595.000000;0.440079
2594.000000;0.441247
2593.000000;0.441681
2592.000000;0.441634
2591.000000;0.441698
2590.000000;0.442358
2589.000000;0.443665
2588.000000;0.445210
2587.000000;0.446434
2586.000000;0.447055
2585.000000;0.447243
2584.000000;0.447335
2583.000000;0.447426
2582.000000;0.447391
2581.000000;0.447251
2580.000000;0.447287
2579.000000;0.447743
2578.000000;0.448617
2577.000000;0.449811
2576.000000;0.451239
2575.000000;0.452618
2574.000000;0.453386
2573.000000;0.453171
2572.000000;0.452346
2571.000000;0.451830
2570.000000;0.452258
2569.000000;0.453459
2568.000000;0.454724
2567.000000;0.455476
2566.000000;0.455665
2565.000000;0.455665
2564.000000;0.455879
2563.000000;0.456424
2562.000000;0.457126
2561.000000;0.457789
2560.000000;0.458386
2559.000000;0.458960
2558.000000;0.459424
2557.000000;0.459593
2556.000000;0.459430
2555.000000;0.459191
2554.000000;0.459310
2553.000000;0.460124
2552.000000;0.461591
2551.000000;0.463185
2550.000000;0.464196
2549.000000;0.464329
2548.000000;0.464002
2547.000000;0.463906
2546.000000;0.464333
2545.000000;0.465085
2544.000000;0.465945
2543.000000;0.466961
2542.000000;0.468170
2541.000000;0.469319
2540.000000;0.470090
2539.000000;0.470444
2538.000000;0.470560
2537.000000;0.470546
2536.000000;0.470450
2535.000000;0.470501
2534.000000;0.471026
2533.000000;0.472064
2532.000000;0.473257
2531.000000;0.474241
2530.000000;0.475003
2529.000000;0.475699
2528.000000;0.476269
2527.000000;0.476455
2526.000000;0.476185
2525.000000;0.475792
2524.000000;0.475795
2523.000000;0.476492
2522.000000;0.477746
2521.000000;0.479112
2520.000000;0.480153
2519.000000;0.480737
2518.000000;0.481054
2517.000000;0.481378
2516.000000;0.481850
2515.000000;0.482496
2514.000000;0.483297
2513.000000;0.484129
2512.000000;0.484727
2511.000000;0.484920
2510.000000;0.484908
2509.000000;0.485128
2508.000000;0.485795
2507.000000;0.486726
2506.000000;0.487639
2505.000000;0.488486
2504.000000;0.489351
2503.000000;0.490168
2502.000000;0.490726
2501.000000;0.490938
2500.000000;0.490937
2499.000000;0.490912
2498.000000;0.490978
2497.000000;0.491225
2496.000000;0.491731
2495.000000;0.492418
2494.000000;0.493029
2493.000000;0.493402
2492.000000;0.493727
2491.000000;0.494398
2490.000000;0.495521
2489.000000;0.496703
2488.000000;0.497428
2487.000000;0.497589
2486.000000;0.497546
2485.000000;0.497707
2484.000000;0.498192
2483.000000;0.498900
2482.000000;0.499712
2481.000000;0.500499
2480.000000;0.501066
2479.000000;0.501289
2478.000000;0.501317
2477.000000;0.501531
2476.000000;0.502245
2475.000000;0.503454
2474.000000;0.504826
2473.000000;0.505901
2472.000000;0.506393
2471.000000;0.506420
2470.000000;0.506420
2469.000000;0.506765
2468.000000;0.507431
2467.000000;0.508053
2466.000000;0.508274
2465.000000;0.508029
2464.000000;0.507628
2463.000000;0.507622
2462.000000;0.508442
2461.000000;0.509984
2460.000000;0.511610
2459.000000;0.512719
2458.000000;0.513271
2457.000000;0.513632
2456.000000;0.514004
2455.000000;0.514289
2454.000000;0.514465
2453.000000;0.514795
2452.000000;0.515531
2451.000000;0.516571
2450.000000;0.517497
2449.000000;0.517915
2448.000000;0.517739
2447.000000;0.517286
2446.000000;0.517078
2445.000000;0.517406
2444.000000;0.518081
2443.000000;0.518718
2442.000000;0.519238
2441.000000;0.519886
2440.000000;0.520829
2439.000000;0.521981
2438.000000;0.523203
2437.000000;0.524367
2436.000000;0.525203
2435.000000;0.525431
2434.000000;0.525207
2433.000000;0.525106
2432.000000;0.525476
2431.000000;0.526045
2430.000000;0.526390
2429.000000;0.526567
2428.000000;0.527033
2427.000000;0.528089
2426.000000;0.529591
2425.000000;0.531084
2424.000000;0.532010
2423.000000;0.531974
2422.000000;0.531065
2421.000000;0.529914
2420.000000;0.529252
2419.000000;0.529430
2418.000000;0.530338
2417.000000;0.531605
2416.000000;0.532807
2415.000000;0.533737
2414.000000;0.534646
2413.000000;0.535949
2412.000000;0.537469
2411.000000;0.538288
2410.000000;0.537757
2409.000000;0.536482
2408.000000;0.535816
2407.000000;0.536443
2406.000000;0.537839
2405.000000;0.539097
2404.000000;0.539857
2403.000000;0.540335
2402.000000;0.540801
2401.000000;0.541302
2400.000000;0.541770
2399.000000;0.542201
2398.000000;0.542706
2397.000000;0.543405
2396.000000;0.544250
2395.000000;0.545009
2394.000000;0.545554
2393.000000;0.546071
2392.000000;0.546813
2391.000000;0.547680
2390.000000;0.548255
2389.000000;0.548290
2388.000000;0.547995
2387.000000;0.547798
2386.000000;0.547974
2385.000000;0.548479
2384.000000;0.549028
2383.000000;0.549350
2382.000000;0.549493
2381.000000;0.549826
2380.000000;0.550601
2379.000000;0.551618
2378.000000;0.552518
2377.000000;0.553271
2376.000000;0.554086
2375.000000;0.554889
2374.000000;0.555296
2373.000000;0.555174
2372.000000;0.554880
2371.000000;0.554810
2370.000000;0.555039
2369.000000;0.555556
2368.000000;0.556511
2367.000000;0.557917
2366.000000;0.559306
2365.000000;0.560081
2364.000000;0.560185
2363.000000;0.560121
2362.000000;0.560276
2361.000000;0.560537
2360.000000;0.560674
2359.000000;0.560775
2358.000000;0.561178
2357.000000;0.562022
2356.000000;0.563013
2355.000000;0.563781
2354.000000;0.564258
2353.000000;0.564725
2352.000000;0.565436
2351.000000;0.566300
2350.000000;0.567011
2349.000000;0.567368
2348.000000;0.567543
2347.000000;0.567874
2346.000000;0.568494
2345.000000;0.569267
2344.000000;0.569885
2343.000000;0.570236
2342.000000;0.570464
2341.000000;0.570824
2340.000000;0.571390
2339.000000;0.571968
2338.000000;0.572442
2337.000000;0.572940
2336.000000;0.573718
2335.000000;0.574768
2334.000000;0.575752
2333.000000;0.576282
2332.000000;0.576320
2331.000000;0.576145
2330.000000;0.576161
2329.000000;0.576558
2328.000000;0.577339
2327.000000;0.578312
2326.000000;0.579240
2325.000000;0.579984
2324.000000;0.580495
2323.000000;0.580858
2322.000000;0.581166
2321.000000;0.581459
2320.000000;0.581671
2319.000000;0.581749
2318.000000;0.581928
2317.000000;0.582585
2316.000000;0.583815
2315.000000;0.585063
2314.000000;0.585628
2313.000000;0.585383
2312.000000;0.584972
2311.000000;0.585069
2310.000000;0.585759
2309.000000;0.586625
2308.000000;0.587321
2307.000000;0.587798
2306.000000;0.588147
2305.000000;0.588469
2304.000000;0.588965
2303.000000;0.589873
2302.000000;0.591152
2301.000000;0.592311
2300.000000;0.592833
2299.000000;0.592754
2298.000000;0.592662
2297.000000;0.592994
2296.000000;0.593572
2295.000000;0.593920
2294.000000;0.593936
2293.000000;0.593969
2292.000000;0.594335
2291.000000;0.595041
2290.000000;0.595986
2289.000000;0.597133
2288.000000;0.598328
2287.000000;0.599217
2286.000000;0.599588
2285.000000;0.599649
2284.000000;0.599787
2283.000000;0.600148
2282.000000;0.600647
2281.000000;0.601253
2280.000000;0.602026
2279.000000;0.602913
2278.000000;0.603738
2277.000000;0.604412
2276.000000;0.605003
2275.000000;0.605609
2274.000000;0.606281
2273.000000;0.607045
2272.000000;0.607866
2271.000000;0.608593
2270.000000;0.609029
2269.000000;0.609066
2268.000000;0.608701
2267.000000;0.608085
2266.000000;0.607627
2265.000000;0.607877
2264.000000;0.609060
2263.000000;0.610767
2262.000000;0.612293
2261.000000;0.613265
2260.000000;0.613819
2259.000000;0.614257
2258.000000;0.614757
2257.000000;0.615394
2256.000000;0.616165
2255.000000;0.616934
2254.000000;0.617538
2253.000000;0.618006
2252.000000;0.618508
2251.000000;0.619041
2250.000000;0.619382
2249.000000;0.619406
2248.000000;0.619298
2247.000000;0.619342
2246.000000;0.619664
2245.000000;0.620226
2244.000000;0.620967
2243.000000;0.621826
2242.000000;0.622691
2241.000000;0.623415
2240.000000;0.623878
2239.000000;0.624081
2238.000000;0.624234
2237.000000;0.624687
2236.000000;0.625637
2235.000000;0.626899
2234.000000;0.628056
2233.000000;0.628811
2232.000000;0.629108
2231.000000;0.629049
2230.000000;0.628912
2229.000000;0.629170
2228.000000;0.630147
2227.000000;0.631567
2226.000000;0.632695
2225.000000;0.633072
2224.000000;0.632959
2223.000000;0.632943
2222.000000;0.633286
2221.000000;0.633798
2220.000000;0.634182
2219.000000;0.634303
2218.000000;0.634228
2217.000000;0.634204
2216.000000;0.634599
2215.000000;0.635678
2214.000000;0.637329
2213.000000;0.638999
2212.000000;0.639995
2211.000000;0.639983
2210.000000;0.639310
2209.000000;0.638783
2208.000000;0.638960
2207.000000;0.639668
2206.000000;0.640322
2205.000000;0.640678
2204.000000;0.641040
2203.000000;0.641710
2202.000000;0.642515
2201.000000;0.643045
2200.000000;0.643189
2199.000000;0.643227
2198.000000;0.643452
2197.000000;0.643900
2196.000000;0.644418
2195.000000;0.644884
2194.000000;0.645322
2193.000000;0.645860
2192.000000;0.646572
2191.000000;0.647331
2190.000000;0.647869
2189.000000;0.648052
2188.000000;0.648009
2187.000000;0.647982
2186.000000;0.648121
2185.000000;0.648518
2184.000000;0.649308
2183.000000;0.650521
2182.000000;0.651848
2181.000000;0.652772
2180.000000;0.653077
2179.000000;0.653162
2178.000000;0.653708
2177.000000;0.654979
2176.000000;0.656534
2175.000000;0.657660
2174.000000;0.658058
2173.000000;0.658020
2172.000000;0.658009
2171.000000;0.658249
2170.000000;0.658753
2169.000000;0.659523
2168.000000;0.660502
2167.000000;0.661407
2166.000000;0.661892
2165.000000;0.661914
2164.000000;0.661795
2163.000000;0.661874
2162.000000;0.662229
2161.000000;0.662738
2160.000000;0.663217
2159.000000;0.663438
2158.000000;0.663257
2157.000000;0.662845
2156.000000;0.662659
2155.000000;0.663061
2154.000000;0.664037
2153.000000;0.665314
2152.000000;0.666584
2151.000000;0.667529
2150.000000;0.667888
2149.000000;0.667781
2148.000000;0.667851
2147.000000;0.668731
2146.000000;0.670343
2145.000000;0.671937
2144.000000;0.672892
2143.000000;0.673273
2142.000000;0.673493
2141.000000;0.673725
2140.000000;0.673916
2139.000000;0.674201
2138.000000;0.674900
2137.000000;0.676049
2136.000000;0.677201
2135.000000;0.677875
2134.000000;0.678066
2133.000000;0.678124
2132.000000;0.678225
2131.000000;0.678194
2130.000000;0.677885
2129.000000;0.677543
2128.000000;0.677662
2127.000000;0.678511
2126.000000;0.679874
2125.000000;0.681193
2124.000000;0.681977
2123.000000;0.682157
2122.000000;0.682156
2121.000000;0.682527
2120.000000;0.683437
2119.000000;0.684456
2118.000000;0.684983
2117.000000;0.684915
2116.000000;0.684808
2115.000000;0.685295
2114.000000;0.686422
2113.000000;0.687655
2112.000000;0.688474
2111.000000;0.688845
2110.000000;0.689121
2109.000000;0.689675
2108.000000;0.690679
2107.000000;0.692050
2106.000000;0.693418
2105.000000;0.694285
2104.000000;0.694479
2103.000000;0.694419
2102.000000;0.694655
2101.000000;0.695146
2100.000000;0.695318
2099.000000;0.694920
2098.000000;0.694486
2097.000000;0.694713
2096.000000;0.695647
2095.000000;0.696789
2094.000000;0.697807
2093.000000;0.698764
2092.000000;0.699705
2091.000000;0.700457
2090.000000;0.700920
2089.000000;0.701230
2088.000000;0.701506
2087.000000;0.701701
2086.000000;0.701829
2085.000000;0.702103
2084.000000;0.702682
2083.000000;0.703457
2082.000000;0.704219
2081.000000;0.704935
2080.000000;0.705747
2079.000000;0.706795
2078.000000;0.708094
2077.000000;0.709463
2076.000000;0.710546
2075.000000;0.711050
2074.000000;0.711047
2073.000000;0.710901
2072.000000;0.710912
2071.000000;0.711182
2070.000000;0.711741
2069.000000;0.712530
2068.000000;0.713216
2067.000000;0.713392
2066.000000;0.713099
2065.000000;0.712854
2064.000000;0.713035
2063.000000;0.713528
2062.000000;0.714097
2061.000000;0.714774
2060.000000;0.715660
2059.000000;0.716631
2058.000000;0.717516
2057.000000;0.718292
2056.000000;0.718817
2055.000000;0.718664
2054.000000;0.717652
2053.000000;0.716364
2052.000000;0.715725
2051.000000;0.716115
2050.000000;0.717214
2049.000000;0.718548
2048.000000;0.719811
2047.000000;0.720737
2046.000000;0.721144
2045.000000;0.721186
2044.000000;0.721243
2043.000000;0.721480
2042.000000;0.721765
2041.000000;0.722072
2040.000000;0.722660
2039.000000;0.723695
2038.000000;0.724946
2037.000000;0.726003
2036.000000;0.726702
2035.000000;0.727216
2034.000000;0.727825
2033.000000;0.728664
2032.000000;0.729636
2031.000000;0.730555
2030.000000;0.731380
2029.000000;0.732233
2028.000000;0.733087
2027.000000;0.733638
2026.000000;0.733659
2025.000000;0.733390
2024.000000;0.733313
2023.000000;0.733653
2022.000000;0.734321
2021.000000;0.735224
2020.000000;0.736292
2019.000000;0.737235
2018.000000;0.737675
2017.000000;0.737627
2016.000000;0.737565
2015.000000;0.737894
2014.000000;0.738574
2013.000000;0.739377
2012.000000;0.740237
2011.000000;0.741178
2010.000000;0.742099
2009.000000;0.742865
2008.000000;0.743495
2007.000000;0.744123
2006.000000;0.744811
2005.000000;0.745481
2004.000000;0.745990
2003.000000;0.746237
2002.000000;0.746234
2001.000000;0.746106
2000.000000;0.745972
1999.000000;0.745896
1998.000000;0.746000
1997.000000;0.746475
1996.000000;0.747349
1995.000000;0.748348
1994.000000;0.749182
1993.000000;0.749870
1992.000000;0.750584
1991.000000;0.751282
1990.000000;0.751826
1989.000000;0.752376
1988.000000;0.753261
1987.000000;0.754390
1986.000000;0.755164
1985.000000;0.755143
1984.000000;0.754529
1983.000000;0.753851
1982.000000;0.753470
1981.000000;0.753548
1980.000000;0.754187
1979.000000;0.755342
1978.000000;0.756781
1977.000000;0.758321
1976.000000;0.759939
1975.000000;0.761483
1974.000000;0.762526
1973.000000;0.762812
1972.000000;0.762691
1971.000000;0.762795
1970.000000;0.763343
1969.000000;0.764035
1968.000000;0.764545
1967.000000;0.764830
1966.000000;0.764955
1965.000000;0.764945
1964.000000;0.764898
1963.000000;0.765022
1962.000000;0.765397
1961.000000;0.765838
1960.000000;0.766128
1959.000000;0.766306
1958.000000;0.766624
1957.000000;0.767259
1956.000000;0.768195
1955.000000;0.769341
1954.000000;0.770624
1953.000000;0.771939
1952.000000;0.773077
1951.000000;0.773798
1950.000000;0.774027
1949.000000;0.773984
1948.000000;0.774053
1947.000000;0.774489
1946.000000;0.775250
1945.000000;0.776123
1944.000000;0.776954
1943.000000;0.777719
1942.000000;0.778414
1941.000000;0.778994
1940.000000;0.779442
1939.000000;0.779836
1938.000000;0.780250
1937.000000;0.780635
1936.000000;0.780866
1935.000000;0.780944
1934.000000;0.781009
1933.000000;0.781112
1932.000000;0.781167
1931.000000;0.781248
1930.000000;0.781746
1929.000000;0.782927
1928.000000;0.784360
1927.000000;0.785174
1926.000000;0.785025
1925.000000;0.784505
1924.000000;0.784429
1923.000000;0.784956
1922.000000;0.785714
1921.000000;0.786473
1920.000000;0.787303
1919.000000;0.788174
1918.000000;0.788818
1917.000000;0.789102
1916.000000;0.789294
1915.000000;0.789787
1914.000000;0.790691
1913.000000;0.791776
1912.000000;0.792730
1911.000000;0.793441
1910.000000;0.794063
1909.000000;0.794811
1908.000000;0.795708
1907.000000;0.796601
1906.000000;0.797368
1905.000000;0.797935
1904.000000;0.798175
1903.000000;0.798035
1902.000000;0.797879
1901.000000;0.798284
1900.000000;0.799243
1899.000000;0.799934
1898.000000;0.799652
1897.000000;0.798815
1896.000000;0.798607
1895.000000;0.799666
1894.000000;0.801544
1893.000000;0.803359
1892.000000;0.804605
1891.000000;0.805281
1890.000000;0.805605
1889.000000;0.805760
1888.000000;0.805703
1887.000000;0.805200
1886.000000;0.804309
1885.000000;0.803839
1884.000000;0.804935
1883.000000;0.807960
1882.000000;0.811864
1881.000000;0.814810
1880.000000;0.815646
1879.000000;0.815059
1878.000000;0.815207
1877.000000;0.817869
1876.000000;0.822560
1875.000000;0.826513
1874.000000;0.827116
1873.000000;0.824454
1872.000000;0.820875
1871.000000;0.818307
1870.000000;0.816795
1869.000000;0.815548
1868.000000;0.814517
1867.000000;0.814391
1866.000000;0.815462
1865.000000;0.817115
1864.000000;0.818482
1863.000000;0.819239
1862.000000;0.819678
1861.000000;0.820208
1860.000000;0.820860
1859.000000;0.821287
1858.000000;0.821324
1857.000000;0.821401
1856.000000;0.822087
1855.000000;0.823271
1854.000000;0.824197
1853.000000;0.824461
1852.000000;0.824567
1851.000000;0.825315
1850.000000;0.826920
1849.000000;0.828919
1848.000000;0.830757
1847.000000;0.832124
1846.000000;0.832950
1845.000000;0.833344
1844.000000;0.833462
1843.000000;0.833311
1842.000000;0.832894
1841.000000;0.832590
1840.000000;0.833112
1839.000000;0.834760
1838.000000;0.836749
1837.000000;0.837664
1836.000000;0.836701
1835.000000;0.834284
1834.000000;0.831660
1833.000000;0.830045
1832.000000;0.829955
1831.000000;0.831003
1830.000000;0.832312
1829.000000;0.833293
1828.000000;0.833997
1827.000000;0.834599
1826.000000;0.835027
1825.000000;0.835449
1824.000000;0.836469
1823.000000;0.838326
1822.000000;0.840276
1821.000000;0.841368
1820.000000;0.841727
1819.000000;0.842350
1818.000000;0.843642
1817.000000;0.844858
1816.000000;0.845178
1815.000000;0.844761
1814.000000;0.844474
1813.000000;0.844887
1812.000000;0.845919
1811.000000;0.847210
1810.000000;0.848415
1809.000000;0.849235
1808.000000;0.849436
1807.000000;0.849115
1806.000000;0.848831
1805.000000;0.849161
1804.000000;0.850046
1803.000000;0.850779
1802.000000;0.850854
1801.000000;0.850677
1800.000000;0.851114
1799.000000;0.852387
1798.000000;0.853763
1797.000000;0.854569
1796.000000;0.855027
1795.000000;0.855733
1794.000000;0.856706
1793.000000;0.857472
1792.000000;0.857959
1791.000000;0.858701
1790.000000;0.860043
1789.000000;0.861586
1788.000000;0.862651
1787.000000;0.863041
1786.000000;0.863055
1785.000000;0.862994
1784.000000;0.862922
1783.000000;0.862767
1782.000000;0.862519
1781.000000;0.862306
1780.000000;0.862422
1779.000000;0.863138
1778.000000;0.864313
1777.000000;0.865470
1776.000000;0.866275
1775.000000;0.866888
1774.000000;0.867748
1773.000000;0.869119
1772.000000;0.870861
1771.000000;0.872427
1770.000000;0.873089
1769.000000;0.872414
1768.000000;0.870817
1767.000000;0.869411
1766.000000;0.869096
1765.000000;0.869990
1764.000000;0.871709
1763.000000;0.873814
1762.000000;0.875773
1761.000000;0.876908
1760.000000;0.876898
1759.000000;0.876235
1758.000000;0.875855
1757.000000;0.876349
1756.000000;0.877498
1755.000000;0.878634
1754.000000;0.879258
1753.000000;0.879423
1752.000000;0.879693
1751.000000;0.880597
1750.000000;0.882027
1749.000000;0.883317
1748.000000;0.883913
1747.000000;0.883876
1746.000000;0.883754
1745.000000;0.883942
1744.000000;0.884410
1743.000000;0.884917
1742.000000;0.885349
1741.000000;0.885890
1740.000000;0.886778
1739.000000;0.887918
1738.000000;0.888907
1737.000000;0.889488
1736.000000;0.889772
1735.000000;0.890005
1734.000000;0.890075
1733.000000;0.889646
1732.000000;0.889056
1731.000000;0.889270
1730.000000;0.890764
1729.000000;0.892996
1728.000000;0.894883
1727.000000;0.895821
1726.000000;0.895998
1725.000000;0.895776
1724.000000;0.895307
1723.000000;0.894777
1722.000000;0.894690
1721.000000;0.895603
1720.000000;0.897494
1719.000000;0.899704
1718.000000;0.901432
1717.000000;0.902215
1716.000000;0.902092
1715.000000;0.901429
1714.000000;0.900736
1713.000000;0.900668
1712.000000;0.901665
1711.000000;0.903458
1710.000000;0.905186
1709.000000;0.906027
1708.000000;0.905776
1707.000000;0.904926
1706.000000;0.904255
1705.000000;0.904405
1704.000000;0.905658
1703.000000;0.907706
1702.000000;0.909604
1701.000000;0.910332
1700.000000;0.909524
1699.000000;0.907756
1698.000000;0.906291
1697.000000;0.905993
1696.000000;0.906755
1695.000000;0.908015
1694.000000;0.909321
1693.000000;0.910473
1692.000000;0.911490
1691.000000;0.912671
1690.000000;0.914257
1689.000000;0.916006
1688.000000;0.917278
1687.000000;0.917633
1686.000000;0.917219
1685.000000;0.916651
1684.000000;0.916477
1683.000000;0.916862
1682.000000;0.917978
1681.000000;0.919639
1680.000000;0.921228
1679.000000;0.922244
1678.000000;0.922429
1677.000000;0.922091
1676.000000;0.922070
1675.000000;0.922918
1674.000000;0.924284
1673.000000;0.925421
1672.000000;0.926125
1671.000000;0.926793
1670.000000;0.927607
1669.000000;0.928216
1668.000000;0.928408
1667.000000;0.928591
1666.000000;0.929149
1665.000000;0.929876
1664.000000;0.930378
1663.000000;0.930657
1662.000000;0.930987
1661.000000;0.931365
1660.000000;0.931521
1659.000000;0.931464
1658.000000;0.931570
1657.000000;0.932126
1656.000000;0.933129
1655.000000;0.934576
1654.000000;0.936462
1653.000000;0.938260
1652.000000;0.939023
1651.000000;0.938690
1650.000000;0.937951
1649.000000;0.937461
1648.000000;0.937582
1647.000000;0.937995
1646.000000;0.938248
1645.000000;0.938408
1644.000000;0.938824
1643.000000;0.939513
1642.000000;0.940211
1641.000000;0.940617
1640.000000;0.940722
1639.000000;0.940991
1638.000000;0.942004
1637.000000;0.943941
1636.000000;0.946287
1635.000000;0.948112
1634.000000;0.948831
1633.000000;0.948611
1632.000000;0.948117
1631.000000;0.948019
1630.000000;0.948463
1629.000000;0.948961
1628.000000;0.949039
1627.000000;0.948821
1626.000000;0.948837
1625.000000;0.949321
1624.000000;0.950070
1623.000000;0.950909
1622.000000;0.951919
1621.000000;0.953154
1620.000000;0.954383
1619.000000;0.955429
1618.000000;0.956395
1617.000000;0.957271
1616.000000;0.957644
1615.000000;0.957324
1614.000000;0.956870
1613.000000;0.957039
1612.000000;0.958033
1611.000000;0.959447
1610.000000;0.960879
1609.000000;0.962249
1608.000000;0.963417
1607.000000;0.963934
1606.000000;0.963513
1605.000000;0.962506
1604.000000;0.961613
1603.000000;0.961201
1602.000000;0.961153
1601.000000;0.961385
1600.000000;0.962077
1599.000000;0.963291
1598.000000;0.964691
1597.000000;0.965864
1596.000000;0.966736
1595.000000;0.967468
1594.000000;0.968133
1593.000000;0.968706
1592.000000;0.969238
1591.000000;0.969802
1590.000000;0.970298
1589.000000;0.970573
1588.000000;0.970751
1587.000000;0.971236
1586.000000;0.972247
1585.000000;0.973490
1584.000000;0.974385
1583.000000;0.974639
1582.000000;0.974460
1581.000000;0.974316
1580.000000;0.974617
1579.000000;0.975500
1578.000000;0.976746
1577.000000;0.977950
1576.000000;0.978828
1575.000000;0.979388
1574.000000;0.979858
1573.000000;0.980264
1572.000000;0.980429
1571.000000;0.980347
1570.000000;0.980174
1569.000000;0.980081
1568.000000;0.980284
1567.000000;0.981030
1566.000000;0.982284
1565.000000;0.983679
1564.000000;0.984755
1563.000000;0.985305
1562.000000;0.985493
1561.000000;0.985675
1560.000000;0.986118
1559.000000;0.986763
1558.000000;0.987146
1557.000000;0.987564
1556.000000;0.988466
1555.000000;0.989638
1554.000000;0.990956
1553.000000;0.992051
1552.000000;0.992529
1551.000000;0.992486
1550.000000;0.992508
1549.000000;0.993178
1548.000000;0.994438
1547.000000;0.995682
1546.000000;0.996431
1545.000000;0.996716
1544.000000;0.996831
1543.000000;0.996995
1542.000000;0.997323
1541.000000;0.997877
1540.000000;0.998538
1539.000000;0.999053
1538.000000;0.999530
1537.000000;1.000241
1536.000000;1.001277
1535.000000;1.002554
1534.000000;1.003768
1533.000000;1.004568
1532.000000;1.004923
1531.000000;1.005100
1530.000000;1.005307
1529.000000;1.005650
1528.000000;1.006135
1527.000000;1.006694
1526.000000;1.007415
1525.000000;1.008541
1524.000000;1.010115
1523.000000;1.011661
1522.000000;1.012484
1521.000000;1.012404
1520.000000;1.012081
1519.000000;1.012355
1518.000000;1.013218
1517.000000;1.013880
1516.000000;1.013727
1515.000000;1.013007
1514.000000;1.012596
1513.000000;1.013058
1512.000000;1.014144
1511.000000;1.015080
1510.000000;1.015447
1509.000000;1.015705
1508.000000;1.016588
1507.000000;1.018102
1506.000000;1.019388
1505.000000;1.019873
1504.000000;1.019643
1503.000000;1.019161
1502.000000;1.018999
1501.000000;1.019321
1500.000000;1.019970
1499.000000;1.020817
1498.000000;1.021837
1497.000000;1.023000
1496.000000;1.024170
1495.000000;1.025120
1494.000000;1.025740
1493.000000;1.026131
1492.000000;1.026516
1491.000000;1.027049
1490.000000;1.027662
1489.000000;1.028183
1488.000000;1.028550
1487.000000;1.028779
1486.000000;1.028885
1485.000000;1.028896
1484.000000;1.028850
1483.000000;1.028939
1482.000000;1.029404
1481.000000;1.030245
1480.000000;1.031120
1479.000000;1.031633
1478.000000;1.031811
1477.000000;1.032110
1476.000000;1.032866
1475.000000;1.033834
1474.000000;1.034533
1473.000000;1.034834
1472.000000;1.035082
1471.000000;1.035642
1470.000000;1.036412
1469.000000;1.036967
1468.000000;1.037158
1467.000000;1.037292
1466.000000;1.037800
1465.000000;1.038865
1464.000000;1.040317
1463.000000;1.041800
1462.000000;1.042943
1461.000000;1.043615
1460.000000;1.043994
1459.000000;1.044345
1458.000000;1.044778
1457.000000;1.045258
1456.000000;1.045755
1455.000000;1.046308
1454.000000;1.046850
1453.000000;1.047322
1452.000000;1.047881
1451.000000;1.048623
1450.000000;1.049385
1449.000000;1.049934
1448.000000;1.050258
1447.000000;1.050492
1446.000000;1.050710
1445.000000;1.050902
1444.000000;1.051241
1443.000000;1.051971
1442.000000;1.052920
1441.000000;1.053541
1440.000000;1.053558
1439.000000;1.053425
1438.000000;1.053879
1437.000000;1.055174
1436.000000;1.056836
1435.000000;1.058253
1434.000000;1.059221
1433.000000;1.059845
1432.000000;1.060235
1431.000000;1.060422
1430.000000;1.060456
1429.000000;1.060448
1428.000000;1.060487
1427.000000;1.060612
1426.000000;1.060937
1425.000000;1.061615
1424.000000;1.062648
1423.000000;1.063741
1422.000000;1.064485
1421.000000;1.064768
1420.000000;1.064901
1419.000000;1.065249
1418.000000;1.065845
1417.000000;1.066510
1416.000000;1.067071
1415.000000;1.067434
1414.000000;1.067662
1413.000000;1.067983
1412.000000;1.068662
1411.000000;1.069739
1410.000000;1.070870
1409.000000;1.071644
1408.000000;1.072045
1407.000000;1.072451
1406.000000;1.073216
1405.000000;1.074326
1404.000000;1.075553
1403.000000;1.076711
1402.000000;1.077556
1401.000000;1.077718
1400.000000;1.077030
1399.000000;1.075954
1398.000000;1.075393
1397.000000;1.075909
1396.000000;1.077182
1395.000000;1.078378
1394.000000;1.079013
1393.000000;1.079306
1392.000000;1.079778
1391.000000;1.080633
1390.000000;1.081608
1389.000000;1.082328
1388.000000;1.082732
1387.000000;1.083128
1386.000000;1.083896
1385.000000;1.085114
1384.000000;1.086487
1383.000000;1.087639
1382.000000;1.088405
1381.000000;1.088797
1380.000000;1.088830
1379.000000;1.088570
1378.000000;1.088301
1377.000000;1.088392
1376.000000;1.088896
1375.000000;1.089429
1374.000000;1.089621
1373.000000;1.089569
1372.000000;1.089682
1371.000000;1.090123
1370.000000;1.090641
1369.000000;1.090951
1368.000000;1.091118
1367.000000;1.091476
1366.000000;1.092246
1365.000000;1.093339
1364.000000;1.094463
1363.000000;1.095349
1362.000000;1.095912
1361.000000;1.096274
1360.000000;1.096633
1359.000000;1.097103
1358.000000;1.097706
1357.000000;1.098450
1356.000000;1.099340
1355.000000;1.100259
1354.000000;1.100909
1353.000000;1.101038
1352.000000;1.100736
1351.000000;1.100424
1350.000000;1.100549
1349.000000;1.101269
1348.000000;1.102412
1347.000000;1.103654
1346.000000;1.104712
1345.000000;1.105466
1344.000000;1.106028
1343.000000;1.106693
1342.000000;1.107750
1341.000000;1.109233
1340.000000;1.110844
1339.000000;1.112132
1338.000000;1.112798
1337.000000;1.112865
1336.000000;1.112671
1335.000000;1.112695
1334.000000;1.113200
1333.000000;1.113902
1332.000000;1.114142
1331.000000;1.113659
1330.000000;1.113154
1329.000000;1.113694
1328.000000;1.115400
1327.000000;1.116991
1326.000000;1.116991
1325.000000;1.115345
1324.000000;1.113538
1323.000000;1.113189
1322.000000;1.114783
1321.000000;1.117552
1320.000000;1.120132
1319.000000;1.121448
1318.000000;1.121527
1317.000000;1.121611
1316.000000;1.123018
1315.000000;1.125625
1314.000000;1.127716
1313.000000;1.127669
1312.000000;1.125626
1311.000000;1.123129
1310.000000;1.121498
1309.000000;1.121080
1308.000000;1.121716
1307.000000;1.123199
1306.000000;1.125180
1305.000000;1.127103
1304.000000;1.128519
1303.000000;1.129287
1302.000000;1.129458
1301.000000;1.129229
1300.000000;1.129031
1299.000000;1.129300
1298.000000;1.129995
1297.000000;1.130638
1296.000000;1.130979
1295.000000;1.131325
1294.000000;1.132035
1293.000000;1.132971
1292.000000;1.133758
1291.000000;1.134378
1290.000000;1.135165
1289.000000;1.136238
1288.000000;1.137228
1287.000000;1.137657
1286.000000;1.137472
1285.000000;1.137151
1284.000000;1.137310
1283.000000;1.138204
1282.000000;1.139558
1281.000000;1.140857
1280.000000;1.141740
1279.000000;1.142103
1278.000000;1.141949
1277.000000;1.141400
1276.000000;1.140845
1275.000000;1.140800
1274.000000;1.141438
1273.000000;1.142428
1272.000000;1.143348
1271.000000;1.144106
1270.000000;1.144849
1269.000000;1.145637
1268.000000;1.146397
1267.000000;1.147077
1266.000000;1.147646
1265.000000;1.148045
1264.000000;1.148279
1263.000000;1.148506
1262.000000;1.148863
1261.000000;1.149287
1260.000000;1.149613
1259.000000;1.149749
1258.000000;1.149677
1257.000000;1.149444
1256.000000;1.149330
1255.000000;1.149850
1254.000000;1.151253
1253.000000;1.153082
1252.000000;1.154515
1251.000000;1.155210
1250.000000;1.155581
1249.000000;1.156196
1248.000000;1.157137
1247.000000;1.158045
1246.000000;1.158610
1245.000000;1.158904
1244.000000;1.159314
1243.000000;1.160183
1242.000000;1.161457
1241.000000;1.162677
1240.000000;1.163432
1239.000000;1.163800
1238.000000;1.164174
1237.000000;1.164696
1236.000000;1.165079
1235.000000;1.165037
1234.000000;1.164706
1233.000000;1.164492
1232.000000;1.164611
1231.000000;1.164942
1230.000000;1.165276
1229.000000;1.165612
1228.000000;1.166155
1227.000000;1.167022
1226.000000;1.168008
1225.000000;1.168765
1224.000000;1.169282
1223.000000;1.169990
1222.000000;1.171196
1221.000000;1.172538
1220.000000;1.173299
1219.000000;1.173287
1218.000000;1.173089
1217.000000;1.173333
1216.000000;1.173963
1215.000000;1.174429
1214.000000;1.174417
1213.000000;1.174165
1212.000000;1.174181
1211.000000;1.174819
1210.000000;1.176085
1209.000000;1.177673
1208.000000;1.179144
1207.000000;1.180187
1206.000000;1.180753
1205.000000;1.180972
1204.000000;1.181020
1203.000000;1.181053
1202.000000;1.181156
1201.000000;1.181307
1200.000000;1.181465
