Criado como novo conjunto de dados;"0307_DANIEL.spp","3781.7 Secs"
cm-1;Abs
10000.000000;0.237572
9999.000000;0.236545
9998.000000;0.235521
9997.000000;0.234499
9996.000000;0.233479
9995.000000;0.232462
9994.000000;0.231448
9993.000000;0.230434
9992.000000;0.229426
9991.000000;0.228414
9990.000000;0.227418
9989.000000;0.226372
9988.000000;0.225261
9987.000000;0.224040
9986.000000;0.222668
9985.000000;0.221409
9984.000000;0.220511
9983.000000;0.219832
9982.000000;0.219017
9981.000000;0.217975
9980.000000;0.216847
9979.000000;0.215639
9978.000000;0.214267
9977.000000;0.212858
9976.000000;0.211669
9975.000000;0.210729
9974.000000;0.209863
9973.000000;0.208976
9972.000000;0.208044
9971.000000;0.206934
9970.000000;0.205552
9969.000000;0.204092
9968.000000;0.202824
9967.000000;0.201723
9966.000000;0.200604
9965.000000;0.199477
9964.000000;0.198479
9963.000000;0.197524
9962.000000;0.196381
9961.000000;0.195014
9960.000000;0.193588
9959.000000;0.192209
9958.000000;0.190922
9957.000000;0.189841
9956.000000;0.188989
9955.000000;0.188124
9954.000000;0.187037
9953.000000;0.185863
9952.000000;0.184826
9951.000000;0.183825
9950.000000;0.182615
9949.000000;0.181270
9948.000000;0.180056
9947.000000;0.178964
9946.000000;0.177760
9945.000000;0.176417
9944.000000;0.175136
9943.000000;0.173966
9942.000000;0.172780
9941.000000;0.171595
9940.000000;0.170558
9939.000000;0.169630
9938.000000;0.168604
9937.000000;0.167437
9936.000000;0.166277
9935.000000;0.165164
9934.000000;0.163985
9933.000000;0.162718
9932.000000;0.161446
9931.000000;0.160158
9930.000000;0.158790
9929.000000;0.157412
9928.000000;0.156150
9927.000000;0.154951
9926.000000;0.153683
9925.000000;0.152382
9924.000000;0.151168
9923.000000;0.149998
9922.000000;0.148750
9921.000000;0.147476
9920.000000;0.146313
9919.000000;0.145217
9918.000000;0.144058
9917.000000;0.142876
9916.000000;0.141791
9915.000000;0.140728
9914.000000;0.139516
9913.000000;0.138166
9912.000000;0.136815
9911.000000;0.135460
9910.000000;0.134029
9909.000000;0.132632
9908.000000;0.131460
9907.000000;0.130498
9906.000000;0.129564
9905.000000;0.128566
9904.000000;0.127492
9903.000000;0.126256
9902.000000;0.124813
9901.000000;0.123345
9900.000000;0.122063
9899.000000;0.120913
9898.000000;0.119700
9897.000000;0.118389
9896.000000;0.117061
9895.000000;0.115688
9894.000000;0.114224
9893.000000;0.112792
9892.000000;0.111542
9891.000000;0.110402
9890.000000;0.109235
9889.000000;0.108095
9888.000000;0.107072
9887.000000;0.106018
9886.000000;0.104711
9885.000000;0.103201
9884.000000;0.101709
9883.000000;0.100309
9882.000000;0.098960
9881.000000;0.097713
9880.000000;0.096586
9879.000000;0.095395
9878.000000;0.093994
9877.000000;0.092576
9876.000000;0.091407
9875.000000;0.090381
9874.000000;0.089174
9873.000000;0.087726
9872.000000;0.086230
9871.000000;0.084748
9870.000000;0.083207
9869.000000;0.081696
9868.000000;0.080404
9867.000000;0.079275
9866.000000;0.078046
9865.000000;0.076621
9864.000000;0.075139
9863.000000;0.073706
9862.000000;0.072327
9861.000000;0.071057
9860.000000;0.069940
9859.000000;0.068829
9858.000000;0.067523
9857.000000;0.066058
9856.000000;0.064632
9855.000000;0.063292
9854.000000;0.061951
9853.000000;0.060618
9852.000000;0.059363
9851.000000;0.058110
9850.000000;0.056732
9849.000000;0.055283
9848.000000;0.053902
9847.000000;0.052547
9846.000000;0.051099
9845.000000;0.049616
9844.000000;0.048232
9843.000000;0.046893
9842.000000;0.045445
9841.000000;0.043933
9840.000000;0.042527
9839.000000;0.041224
9838.000000;0.039893
9837.000000;0.038538
9836.000000;0.037253
9835.000000;0.035979
9834.000000;0.034577
9833.000000;0.033069
9832.000000;0.031571
9831.000000;0.030041
9830.000000;0.028384
9829.000000;0.026725
9828.000000;0.025313
9827.000000;0.024155
9826.000000;0.023003
9825.000000;0.021678
9824.000000;0.020206
9823.000000;0.018658
9822.000000;0.017088
9821.000000;0.015590
9820.000000;0.014206
9819.000000;0.012832
9818.000000;0.011351
9817.000000;0.009813
9816.000000;0.008317
9815.000000;0.006844
9814.000000;0.005375
9813.000000;0.003996
9812.000000;0.002711
9811.000000;0.001302
9810.000000;-0.000388
9809.000000;-0.002180
9808.000000;-0.003807
9807.000000;-0.005279
9806.000000;-0.006745
9805.000000;-0.008195
9804.000000;-0.009570
9803.000000;-0.011020
9802.000000;-0.012714
9801.000000;-0.014485
9800.000000;-0.016004
9799.000000;-0.017226
9798.000000;-0.018393
9797.000000;-0.019670
9796.000000;-0.021046
9795.000000;-0.022521
9794.000000;-0.024114
9793.000000;-0.025713
9792.000000;-0.027184
9791.000000;-0.028578
9790.000000;-0.030040
9789.000000;-0.031580
9788.000000;-0.033151
9787.000000;-0.034831
9786.000000;-0.036689
9785.000000;-0.038577
9784.000000;-0.040298
9783.000000;-0.041886
9782.000000;-0.043487
9781.000000;-0.045083
9780.000000;-0.046571
9779.000000;-0.048015
9778.000000;-0.049536
9777.000000;-0.051083
9776.000000;-0.052541
9775.000000;-0.053976
9774.000000;-0.055529
9773.000000;-0.057151
9772.000000;-0.058703
9771.000000;-0.060187
9770.000000;-0.061671
9769.000000;-0.063122
9768.000000;-0.064564
9767.000000;-0.066224
9766.000000;-0.068242
9765.000000;-0.070353
9764.000000;-0.072183
9763.000000;-0.073713
9762.000000;-0.075176
9761.000000;-0.076629
9760.000000;-0.077969
9759.000000;-0.079278
9758.000000;-0.080771
9757.000000;-0.082450
9756.000000;-0.084103
9755.000000;-0.085649
9754.000000;-0.087210
9753.000000;-0.088878
9752.000000;-0.090660
9751.000000;-0.092588
9750.000000;-0.094639
9749.000000;-0.096591
9748.000000;-0.098236
9747.000000;-0.099682
9746.000000;-0.101214
9745.000000;-0.102924
9744.000000;-0.104702
9743.000000;-0.106492
9742.000000;-0.108316
9741.000000;-0.110118
9740.000000;-0.111819
9739.000000;-0.113470
9738.000000;-0.115140
9737.000000;-0.116738
9736.000000;-0.118176
9735.000000;-0.119583
9734.000000;-0.121145
9733.000000;-0.122850
9732.000000;-0.124619
9731.000000;-0.126534
9730.000000;-0.128658
9729.000000;-0.130778
9728.000000;-0.132619
9727.000000;-0.134203
9726.000000;-0.135736
9725.000000;-0.137282
9724.000000;-0.138817
9723.000000;-0.140470
9722.000000;-0.142358
9721.000000;-0.144303
9720.000000;-0.146038
9719.000000;-0.147614
9718.000000;-0.149306
9717.000000;-0.151178
9716.000000;-0.153062
9715.000000;-0.154888
9714.000000;-0.156724
9713.000000;-0.158538
9712.000000;-0.160242
9711.000000;-0.161915
9710.000000;-0.163718
9709.000000;-0.165614
9708.000000;-0.167448
9707.000000;-0.169249
9706.000000;-0.171181
9705.000000;-0.173233
9704.000000;-0.175243
9703.000000;-0.177175
9702.000000;-0.179109
9701.000000;-0.181008
9700.000000;-0.182764
9699.000000;-0.184440
9698.000000;-0.186209
9697.000000;-0.188086
9696.000000;-0.189959
9695.000000;-0.191823
9694.000000;-0.193744
9693.000000;-0.195659
9692.000000;-0.197467
9691.000000;-0.199246
9690.000000;-0.201149
9689.000000;-0.203124
9688.000000;-0.205010
9687.000000;-0.206813
9686.000000;-0.208668
9685.000000;-0.210571
9684.000000;-0.212434
9683.000000;-0.214309
9682.000000;-0.216317
9681.000000;-0.218404
9680.000000;-0.220410
9679.000000;-0.222314
9678.000000;-0.224203
9677.000000;-0.226064
9676.000000;-0.227857
9675.000000;-0.229699
9674.000000;-0.231713
9673.000000;-0.233782
9672.000000;-0.235723
9671.000000;-0.237607
9670.000000;-0.239627
9669.000000;-0.241730
9668.000000;-0.243697
9667.000000;-0.245520
9666.000000;-0.247424
9665.000000;-0.249519
9664.000000;-0.251699
9663.000000;-0.253848
9662.000000;-0.255916
9661.000000;-0.257828
9660.000000;-0.259591
9659.000000;-0.261418
9658.000000;-0.263512
9657.000000;-0.265772
9656.000000;-0.267948
9655.000000;-0.270007
9654.000000;-0.272093
9653.000000;-0.274204
9652.000000;-0.276210
9651.000000;-0.278136
9650.000000;-0.280146
9649.000000;-0.282255
9648.000000;-0.284335
9647.000000;-0.286384
9646.000000;-0.288518
9645.000000;-0.290714
9644.000000;-0.292812
9643.000000;-0.294795
9642.000000;-0.296819
9641.000000;-0.298961
9640.000000;-0.301119
9639.000000;-0.303201
9638.000000;-0.305213
9637.000000;-0.307179
9636.000000;-0.309125
9635.000000;-0.311135
9634.000000;-0.313264
9633.000000;-0.315430
9632.000000;-0.317543
9631.000000;-0.319649
9630.000000;-0.321804
9629.000000;-0.323930
9628.000000;-0.325950
9627.000000;-0.327984
9626.000000;-0.330186
9625.000000;-0.332503
9624.000000;-0.334769
9623.000000;-0.336948
9622.000000;-0.339068
9621.000000;-0.341062
9620.000000;-0.342895
9619.000000;-0.344745
9618.000000;-0.346828
9617.000000;-0.349123
9616.000000;-0.351466
9615.000000;-0.353807
9614.000000;-0.356148
9613.000000;-0.358377
9612.000000;-0.360422
9611.000000;-0.362461
9610.000000;-0.364699
9609.000000;-0.367039
9608.000000;-0.369209
9607.000000;-0.371166
9606.000000;-0.373098
9605.000000;-0.375137
9604.000000;-0.377297
9603.000000;-0.379635
9602.000000;-0.382178
9601.000000;-0.384740
9600.000000;-0.387073
9599.000000;-0.389173
9598.000000;-0.391247
9597.000000;-0.393418
9596.000000;-0.395655
9595.000000;-0.397935
9594.000000;-0.400263
9593.000000;-0.402565
9592.000000;-0.404775
9591.000000;-0.406963
9590.000000;-0.409214
9589.000000;-0.411453
9588.000000;-0.413566
9587.000000;-0.415605
9586.000000;-0.417694
9585.000000;-0.419847
9584.000000;-0.422064
9583.000000;-0.424447
9582.000000;-0.427027
9581.000000;-0.429594
9580.000000;-0.431916
9579.000000;-0.434029
9578.000000;-0.436111
9577.000000;-0.438235
9576.000000;-0.440426
9575.000000;-0.442786
9574.000000;-0.445307
9573.000000;-0.447730
9572.000000;-0.449860
9571.000000;-0.451867
9570.000000;-0.454030
9569.000000;-0.456334
9568.000000;-0.458611
9567.000000;-0.460878
9566.000000;-0.463210
9565.000000;-0.465442
9564.000000;-0.467361
9563.000000;-0.469129
9562.000000;-0.471138
9561.000000;-0.473502
9560.000000;-0.475980
9559.000000;-0.478382
9558.000000;-0.480727
9557.000000;-0.483039
9556.000000;-0.485274
9555.000000;-0.487447
9554.000000;-0.489619
9553.000000;-0.491767
9552.000000;-0.493878
9551.000000;-0.496088
9550.000000;-0.498479
9549.000000;-0.500860
9548.000000;-0.502991
9547.000000;-0.504952
9546.000000;-0.507018
9545.000000;-0.509242
9544.000000;-0.511434
9543.000000;-0.513500
9542.000000;-0.515525
9541.000000;-0.517574
9540.000000;-0.519641
9539.000000;-0.521778
9538.000000;-0.524024
9537.000000;-0.526274
9536.000000;-0.528420
9535.000000;-0.530537
9534.000000;-0.532722
9533.000000;-0.534865
9532.000000;-0.536821
9531.000000;-0.538691
9530.000000;-0.540659
9529.000000;-0.542659
9528.000000;-0.544511
9527.000000;-0.546281
9526.000000;-0.548209
9525.000000;-0.550317
9524.000000;-0.552411
9523.000000;-0.554415
9522.000000;-0.556414
9521.000000;-0.558395
9520.000000;-0.560240
9519.000000;-0.561986
9518.000000;-0.563810
9517.000000;-0.565738
9516.000000;-0.567613
9515.000000;-0.569354
9514.000000;-0.571024
9513.000000;-0.572664
9512.000000;-0.574272
9511.000000;-0.575948
9510.000000;-0.577814
9509.000000;-0.579805
9508.000000;-0.581731
9507.000000;-0.583517
9506.000000;-0.585223
9505.000000;-0.586875
9504.000000;-0.588473
9503.000000;-0.590108
9502.000000;-0.591850
9501.000000;-0.593572
9500.000000;-0.595111
9499.000000;-0.596528
9498.000000;-0.598005
9497.000000;-0.599541
9496.000000;-0.600995
9495.000000;-0.602367
9494.000000;-0.603794
9493.000000;-0.605291
9492.000000;-0.606731
9491.000000;-0.608069
9490.000000;-0.609376
9489.000000;-0.610667
9488.000000;-0.611895
9487.000000;-0.613084
9486.000000;-0.614292
9485.000000;-0.615472
9484.000000;-0.616555
9483.000000;-0.617619
9482.000000;-0.618797
9481.000000;-0.620038
9480.000000;-0.621156
9479.000000;-0.622077
9478.000000;-0.622878
9477.000000;-0.623650
9476.000000;-0.624468
9475.000000;-0.625429
9474.000000;-0.626547
9473.000000;-0.627653
9472.000000;-0.628576
9471.000000;-0.629369
9470.000000;-0.630199
9469.000000;-0.631114
9468.000000;-0.632056
9467.000000;-0.633009
9466.000000;-0.633949
9465.000000;-0.634727
9464.000000;-0.635222
9463.000000;-0.635528
9462.000000;-0.635844
9461.000000;-0.636238
9460.000000;-0.636672
9459.000000;-0.637164
9458.000000;-0.637746
9457.000000;-0.638363
9456.000000;-0.638950
9455.000000;-0.639511
9454.000000;-0.639991
9453.000000;-0.640216
9452.000000;-0.640136
9451.000000;-0.640004
9450.000000;-0.640102
9449.000000;-0.640414
9448.000000;-0.640736
9447.000000;-0.640970
9446.000000;-0.641121
9445.000000;-0.641133
9444.000000;-0.640979
9443.000000;-0.640816
9442.000000;-0.640838
9441.000000;-0.641027
9440.000000;-0.641204
9439.000000;-0.641242
9438.000000;-0.641110
9437.000000;-0.640829
9436.000000;-0.640518
9435.000000;-0.640342
9434.000000;-0.640267
9433.000000;-0.640043
9432.000000;-0.639571
9431.000000;-0.639079
9430.000000;-0.638773
9429.000000;-0.638529
9428.000000;-0.638156
9427.000000;-0.637731
9426.000000;-0.637406
9425.000000;-0.637064
9424.000000;-0.636490
9423.000000;-0.635745
9422.000000;-0.635072
9421.000000;-0.634534
9420.000000;-0.634004
9419.000000;-0.633428
9418.000000;-0.632832
9417.000000;-0.632158
9416.000000;-0.631358
9415.000000;-0.630564
9414.000000;-0.629955
9413.000000;-0.629508
9412.000000;-0.629084
9411.000000;-0.628623
9410.000000;-0.628072
9409.000000;-0.627284
9408.000000;-0.626237
9407.000000;-0.625208
9406.000000;-0.624469
9405.000000;-0.623906
9404.000000;-0.623196
9403.000000;-0.622246
9402.000000;-0.621196
9401.000000;-0.620107
9400.000000;-0.618958
9399.000000;-0.617858
9398.000000;-0.616980
9397.000000;-0.616289
9396.000000;-0.615577
9395.000000;-0.614742
9394.000000;-0.613824
9393.000000;-0.612839
9392.000000;-0.611782
9391.000000;-0.610735
9390.000000;-0.609759
9389.000000;-0.608758
9388.000000;-0.607624
9387.000000;-0.606428
9386.000000;-0.605291
9385.000000;-0.604173
9384.000000;-0.602986
9383.000000;-0.601795
9382.000000;-0.600700
9381.000000;-0.599631
9380.000000;-0.598484
9379.000000;-0.597345
9378.000000;-0.596338
9377.000000;-0.595368
9376.000000;-0.594256
9375.000000;-0.593028
9374.000000;-0.591834
9373.000000;-0.590669
9372.000000;-0.589407
9371.000000;-0.588054
9370.000000;-0.586724
9369.000000;-0.585450
9368.000000;-0.584208
9367.000000;-0.583048
9366.000000;-0.581989
9365.000000;-0.580903
9364.000000;-0.579688
9363.000000;-0.578451
9362.000000;-0.577314
9361.000000;-0.576164
9360.000000;-0.574836
9359.000000;-0.573398
9358.000000;-0.572041
9357.000000;-0.570771
9356.000000;-0.569480
9355.000000;-0.568184
9354.000000;-0.566938
9353.000000;-0.565643
9352.000000;-0.564199
9351.000000;-0.562750
9350.000000;-0.561523
9349.000000;-0.560493
9348.000000;-0.559470
9347.000000;-0.558396
9346.000000;-0.557292
9345.000000;-0.556036
9344.000000;-0.554502
9343.000000;-0.552847
9342.000000;-0.551372
9341.000000;-0.550132
9340.000000;-0.548960
9339.000000;-0.547792
9338.000000;-0.546690
9337.000000;-0.545603
9336.000000;-0.544407
9335.000000;-0.543123
9334.000000;-0.541869
9333.000000;-0.540609
9332.000000;-0.539235
9331.000000;-0.537843
9330.000000;-0.536634
9329.000000;-0.535575
9328.000000;-0.534430
9327.000000;-0.533117
9326.000000;-0.531770
9325.000000;-0.530461
9324.000000;-0.529117
9323.000000;-0.527741
9322.000000;-0.526459
9321.000000;-0.525315
9320.000000;-0.524215
9319.000000;-0.523086
9318.000000;-0.521928
9317.000000;-0.520705
9316.000000;-0.519388
9315.000000;-0.518080
9314.000000;-0.516905
9313.000000;-0.515801
9312.000000;-0.514619
9311.000000;-0.513370
9310.000000;-0.512181
9309.000000;-0.511056
9308.000000;-0.509879
9307.000000;-0.508634
9306.000000;-0.507408
9305.000000;-0.506183
9304.000000;-0.504855
9303.000000;-0.503446
9302.000000;-0.502132
9301.000000;-0.501011
9300.000000;-0.500023
9299.000000;-0.499056
9298.000000;-0.498005
9297.000000;-0.496767
9296.000000;-0.495341
9295.000000;-0.493916
9294.000000;-0.492686
9293.000000;-0.491619
9292.000000;-0.490532
9291.000000;-0.489345
9290.000000;-0.488114
9289.000000;-0.486884
9288.000000;-0.485689
9287.000000;-0.484623
9286.000000;-0.483729
9285.000000;-0.482861
9284.000000;-0.481825
9283.000000;-0.480619
9282.000000;-0.479376
9281.000000;-0.478144
9280.000000;-0.476886
9279.000000;-0.475635
9278.000000;-0.474476
9277.000000;-0.473405
9276.000000;-0.472358
9275.000000;-0.471319
9274.000000;-0.470277
9273.000000;-0.469170
9272.000000;-0.468001
9271.000000;-0.466899
9270.000000;-0.465927
9269.000000;-0.464944
9268.000000;-0.463824
9267.000000;-0.462687
9266.000000;-0.461715
9265.000000;-0.460864
9264.000000;-0.459961
9263.000000;-0.458969
9262.000000;-0.457935
9261.000000;-0.456804
9260.000000;-0.455534
9259.000000;-0.454311
9258.000000;-0.453365
9257.000000;-0.452634
9256.000000;-0.451837
9255.000000;-0.450848
9254.000000;-0.449781
9253.000000;-0.448737
9252.000000;-0.447693
9251.000000;-0.446624
9250.000000;-0.445547
9249.000000;-0.444459
9248.000000;-0.443374
9247.000000;-0.442403
9246.000000;-0.441612
9245.000000;-0.440883
9244.000000;-0.440058
9243.000000;-0.439156
9242.000000;-0.438277
9241.000000;-0.437376
9240.000000;-0.436353
9239.000000;-0.435273
9238.000000;-0.434296
9237.000000;-0.433425
9236.000000;-0.432524
9235.000000;-0.431550
9234.000000;-0.430584
9233.000000;-0.429662
9232.000000;-0.428750
9231.000000;-0.427843
9230.000000;-0.426933
9229.000000;-0.425953
9228.000000;-0.424885
9227.000000;-0.423869
9226.000000;-0.423037
9225.000000;-0.422308
9224.000000;-0.421502
9223.000000;-0.420585
9222.000000;-0.419642
9221.000000;-0.418705
9220.000000;-0.417779
9219.000000;-0.416933
9218.000000;-0.416204
9217.000000;-0.415471
9216.000000;-0.414611
9215.000000;-0.413691
9214.000000;-0.412830
9213.000000;-0.412001
9212.000000;-0.411130
9211.000000;-0.410294
9210.000000;-0.409589
9209.000000;-0.408924
9208.000000;-0.408136
9207.000000;-0.407249
9206.000000;-0.406405
9205.000000;-0.405626
9204.000000;-0.404838
9203.000000;-0.404046
9202.000000;-0.403292
9201.000000;-0.402515
9200.000000;-0.401655
9199.000000;-0.400797
9198.000000;-0.400019
9197.000000;-0.399204
9196.000000;-0.398213
9195.000000;-0.397166
9194.000000;-0.396307
9193.000000;-0.395657
9192.000000;-0.395027
9191.000000;-0.394325
9190.000000;-0.393608
9189.000000;-0.392897
9188.000000;-0.392146
9187.000000;-0.391372
9186.000000;-0.390626
9185.000000;-0.389860
9184.000000;-0.389016
9183.000000;-0.388191
9182.000000;-0.387521
9181.000000;-0.386945
9180.000000;-0.386278
9179.000000;-0.385490
9178.000000;-0.384711
9177.000000;-0.384007
9176.000000;-0.383331
9175.000000;-0.382666
9174.000000;-0.382040
9173.000000;-0.381427
9172.000000;-0.380778
9171.000000;-0.380118
9170.000000;-0.379488
9169.000000;-0.378835
9168.000000;-0.378115
9167.000000;-0.377410
9166.000000;-0.376799
9165.000000;-0.376198
9164.000000;-0.375489
9163.000000;-0.374720
9162.000000;-0.374005
9161.000000;-0.373337
9160.000000;-0.372660
9159.000000;-0.372024
9158.000000;-0.371483
9157.000000;-0.370937
9156.000000;-0.370273
9155.000000;-0.369575
9154.000000;-0.368999
9153.000000;-0.368514
9152.000000;-0.367976
9151.000000;-0.367363
9150.000000;-0.366741
9149.000000;-0.366094
9148.000000;-0.365386
9147.000000;-0.364710
9146.000000;-0.364162
9145.000000;-0.363634
9144.000000;-0.362950
9143.000000;-0.362136
9142.000000;-0.361362
9141.000000;-0.360688
9140.000000;-0.360061
9139.000000;-0.359492
9138.000000;-0.359023
9137.000000;-0.358579
9136.000000;-0.358051
9135.000000;-0.357479
9134.000000;-0.356971
9133.000000;-0.356498
9132.000000;-0.355963
9131.000000;-0.355396
9130.000000;-0.354893
9129.000000;-0.354412
9128.000000;-0.353851
9127.000000;-0.353245
9126.000000;-0.352693
9125.000000;-0.352155
9124.000000;-0.351515
9123.000000;-0.350805
9122.000000;-0.350169
9121.000000;-0.349653
9120.000000;-0.349213
9119.000000;-0.348858
9118.000000;-0.348593
9117.000000;-0.348290
9116.000000;-0.347809
9115.000000;-0.347199
9114.000000;-0.346593
9113.000000;-0.345989
9112.000000;-0.345309
9111.000000;-0.344613
9110.000000;-0.344029
9109.000000;-0.343545
9108.000000;-0.343057
9107.000000;-0.342566
9106.000000;-0.342123
9105.000000;-0.341669
9104.000000;-0.341121
9103.000000;-0.340557
9102.000000;-0.340109
9101.000000;-0.339742
9100.000000;-0.339331
9099.000000;-0.338895
9098.000000;-0.338531
9097.000000;-0.338192
9096.000000;-0.337747
9095.000000;-0.337209
9094.000000;-0.336711
9093.000000;-0.336276
9092.000000;-0.335829
9091.000000;-0.335381
9090.000000;-0.334992
9089.000000;-0.334600
9088.000000;-0.334104
9087.000000;-0.333570
9086.000000;-0.333150
9085.000000;-0.332834
9084.000000;-0.332473
9083.000000;-0.332026
9082.000000;-0.331588
9081.000000;-0.331202
9080.000000;-0.330812
9079.000000;-0.330407
9078.000000;-0.330009
9077.000000;-0.329580
9076.000000;-0.329082
9075.000000;-0.328598
9074.000000;-0.328227
9073.000000;-0.327914
9072.000000;-0.327531
9071.000000;-0.327082
9070.000000;-0.326665
9069.000000;-0.326276
9068.000000;-0.325855
9067.000000;-0.325449
9066.000000;-0.325156
9065.000000;-0.324947
9064.000000;-0.324704
9063.000000;-0.324403
9062.000000;-0.324101
9061.000000;-0.323783
9060.000000;-0.323389
9059.000000;-0.322941
9058.000000;-0.322501
9057.000000;-0.322069
9056.000000;-0.321656
9055.000000;-0.321357
9054.000000;-0.321206
9053.000000;-0.321045
9052.000000;-0.320710
9051.000000;-0.320265
9050.000000;-0.319868
9049.000000;-0.319512
9048.000000;-0.319085
9047.000000;-0.318612
9046.000000;-0.318211
9045.000000;-0.317899
9044.000000;-0.317607
9043.000000;-0.317332
9042.000000;-0.317094
9041.000000;-0.316817
9040.000000;-0.316446
9039.000000;-0.316091
9038.000000;-0.315868
9037.000000;-0.315686
9036.000000;-0.315387
9035.000000;-0.315010
9034.000000;-0.314706
9033.000000;-0.314466
9032.000000;-0.314174
9031.000000;-0.313846
9030.000000;-0.313591
9029.000000;-0.313392
9028.000000;-0.313135
9027.000000;-0.312831
9026.000000;-0.312587
9025.000000;-0.312393
9024.000000;-0.312135
9023.000000;-0.311799
9022.000000;-0.311467
9021.000000;-0.311150
9020.000000;-0.310800
9019.000000;-0.310450
9018.000000;-0.310171
9017.000000;-0.309922
9016.000000;-0.309615
9015.000000;-0.309273
9014.000000;-0.308978
9013.000000;-0.308714
9012.000000;-0.308434
9011.000000;-0.308203
9010.000000;-0.308090
9009.000000;-0.307992
9008.000000;-0.307765
9007.000000;-0.307452
9006.000000;-0.307196
9005.000000;-0.306993
9004.000000;-0.306742
9003.000000;-0.306458
9002.000000;-0.306239
9001.000000;-0.306067
9000.000000;-0.305843
8999.000000;-0.305580
8998.000000;-0.305370
8997.000000;-0.305210
8996.000000;-0.305027
8995.000000;-0.304838
8994.000000;-0.304699
8993.000000;-0.304561
8992.000000;-0.304350
8991.000000;-0.304137
8990.000000;-0.304034
8989.000000;-0.303977
8988.000000;-0.303811
8987.000000;-0.303520
8986.000000;-0.303207
8985.000000;-0.302902
8984.000000;-0.302570
8983.000000;-0.302260
8982.000000;-0.302051
8981.000000;-0.301901
8980.000000;-0.301722
8979.000000;-0.301562
8978.000000;-0.301511
8977.000000;-0.301506
8976.000000;-0.301410
8975.000000;-0.301222
8974.000000;-0.301030
8973.000000;-0.300834
8972.000000;-0.300581
8971.000000;-0.300321
8970.000000;-0.300117
8969.000000;-0.299894
8968.000000;-0.299571
8967.000000;-0.299269
8966.000000;-0.299155
8965.000000;-0.299169
8964.000000;-0.299111
8963.000000;-0.298948
8962.000000;-0.298805
8961.000000;-0.298691
8960.000000;-0.298493
8959.000000;-0.298207
8958.000000;-0.297949
8957.000000;-0.297746
8956.000000;-0.297520
8955.000000;-0.297282
8954.000000;-0.297131
8953.000000;-0.297066
8952.000000;-0.297003
8951.000000;-0.296937
8950.000000;-0.296930
8949.000000;-0.296931
8948.000000;-0.296828
8947.000000;-0.296642
8946.000000;-0.296498
8945.000000;-0.296405
8944.000000;-0.296264
8943.000000;-0.296068
8942.000000;-0.295912
8941.000000;-0.295807
8940.000000;-0.295668
8939.000000;-0.295487
8938.000000;-0.295338
8937.000000;-0.295223
8936.000000;-0.295060
8935.000000;-0.294839
8934.000000;-0.294645
8933.000000;-0.294520
8932.000000;-0.294467
8931.000000;-0.294529
8930.000000;-0.294712
8929.000000;-0.294849
8928.000000;-0.294729
8927.000000;-0.294353
8926.000000;-0.293938
8925.000000;-0.293670
8924.000000;-0.293587
8923.000000;-0.293655
8922.000000;-0.293806
8921.000000;-0.293904
8920.000000;-0.293832
8919.000000;-0.293629
8918.000000;-0.293434
8917.000000;-0.293311
8916.000000;-0.293229
8915.000000;-0.293160
8914.000000;-0.293082
8913.000000;-0.292943
8912.000000;-0.292733
8911.000000;-0.292537
8910.000000;-0.292404
8909.000000;-0.292256
8908.000000;-0.292046
8907.000000;-0.291895
8906.000000;-0.291942
8905.000000;-0.292136
8904.000000;-0.292332
8903.000000;-0.292464
8902.000000;-0.292493
8901.000000;-0.292308
8900.000000;-0.291887
8899.000000;-0.291474
8898.000000;-0.291354
8897.000000;-0.291522
8896.000000;-0.291732
8895.000000;-0.291822
8894.000000;-0.291794
8893.000000;-0.291666
8892.000000;-0.291460
8891.000000;-0.291295
8890.000000;-0.291285
8889.000000;-0.291341
8888.000000;-0.291265
8887.000000;-0.291021
8886.000000;-0.290756
8885.000000;-0.290592
8884.000000;-0.290547
8883.000000;-0.290613
8882.000000;-0.290738
8881.000000;-0.290790
8880.000000;-0.290689
8879.000000;-0.290555
8878.000000;-0.290554
8877.000000;-0.290667
8876.000000;-0.290750
8875.000000;-0.290751
8874.000000;-0.290704
8873.000000;-0.290587
8872.000000;-0.290371
8871.000000;-0.290145
8870.000000;-0.290020
8869.000000;-0.289939
8868.000000;-0.289775
8867.000000;-0.289575
8866.000000;-0.289510
8865.000000;-0.289624
8864.000000;-0.289791
8863.000000;-0.289913
8862.000000;-0.289983
8861.000000;-0.289998
8860.000000;-0.289945
8859.000000;-0.289875
8858.000000;-0.289848
8857.000000;-0.289836
8856.000000;-0.289785
8855.000000;-0.289717
8854.000000;-0.289634
8853.000000;-0.289448
8852.000000;-0.289146
8851.000000;-0.288923
8850.000000;-0.288978
8849.000000;-0.289234
8848.000000;-0.289456
8847.000000;-0.289550
8846.000000;-0.289571
8845.000000;-0.289526
8844.000000;-0.289384
8843.000000;-0.289237
8842.000000;-0.289214
8841.000000;-0.289275
8840.000000;-0.289260
8839.000000;-0.289127
8838.000000;-0.288966
8837.000000;-0.288819
8836.000000;-0.288666
8835.000000;-0.288546
8834.000000;-0.288516
8833.000000;-0.288512
8832.000000;-0.288429
8831.000000;-0.288307
8830.000000;-0.288268
8829.000000;-0.288304
8828.000000;-0.288291
8827.000000;-0.288185
8826.000000;-0.288060
8825.000000;-0.287965
8824.000000;-0.287891
8823.000000;-0.287855
8822.000000;-0.287857
8821.000000;-0.287817
8820.000000;-0.287689
8819.000000;-0.287574
8818.000000;-0.287568
8817.000000;-0.287567
8816.000000;-0.287391
8815.000000;-0.287030
8814.000000;-0.286622
8813.000000;-0.286255
8812.000000;-0.285979
8811.000000;-0.285907
8810.000000;-0.286116
8809.000000;-0.286458
8808.000000;-0.286693
8807.000000;-0.286752
8806.000000;-0.286715
8805.000000;-0.286576
8804.000000;-0.286260
8803.000000;-0.285860
8802.000000;-0.285618
8801.000000;-0.285655
8800.000000;-0.285863
8799.000000;-0.286068
8798.000000;-0.286160
8797.000000;-0.286086
8796.000000;-0.285877
8795.000000;-0.285668
8794.000000;-0.285565
8793.000000;-0.285506
8792.000000;-0.285367
8791.000000;-0.285169
8790.000000;-0.285032
8789.000000;-0.285002
8788.000000;-0.285037
8787.000000;-0.285110
8786.000000;-0.285180
8785.000000;-0.285129
8784.000000;-0.284899
8783.000000;-0.284631
8782.000000;-0.284509
8781.000000;-0.284517
8780.000000;-0.284516
8779.000000;-0.284469
8778.000000;-0.284430
8777.000000;-0.284363
8776.000000;-0.284181
8775.000000;-0.283927
8774.000000;-0.283732
8773.000000;-0.283629
8772.000000;-0.283561
8771.000000;-0.283540
8770.000000;-0.283597
8769.000000;-0.283625
8768.000000;-0.283460
8767.000000;-0.283119
8766.000000;-0.282795
8765.000000;-0.282622
8764.000000;-0.282584
8763.000000;-0.282617
8762.000000;-0.282653
8761.000000;-0.282602
8760.000000;-0.282437
8759.000000;-0.282275
8758.000000;-0.282218
8757.000000;-0.282184
8756.000000;-0.282036
8755.000000;-0.281800
8754.000000;-0.281624
8753.000000;-0.281549
8752.000000;-0.281515
8751.000000;-0.281517
8750.000000;-0.281581
8749.000000;-0.281631
8748.000000;-0.281560
8747.000000;-0.281394
8746.000000;-0.281234
8745.000000;-0.281074
8744.000000;-0.280869
8743.000000;-0.280696
8742.000000;-0.280652
8741.000000;-0.280642
8740.000000;-0.280472
8739.000000;-0.280151
8738.000000;-0.279876
8737.000000;-0.279736
8736.000000;-0.279629
8735.000000;-0.279491
8734.000000;-0.279399
8733.000000;-0.279407
8732.000000;-0.279445
8731.000000;-0.279436
8730.000000;-0.279386
8729.000000;-0.279323
8728.000000;-0.279276
8727.000000;-0.279302
8726.000000;-0.279430
8725.000000;-0.279554
8724.000000;-0.279506
8723.000000;-0.279258
8722.000000;-0.278948
8721.000000;-0.278714
8720.000000;-0.278605
8719.000000;-0.278604
8718.000000;-0.278647
8717.000000;-0.278629
8716.000000;-0.278511
8715.000000;-0.278382
8714.000000;-0.278342
8713.000000;-0.278357
8712.000000;-0.278335
8711.000000;-0.278275
8710.000000;-0.278238
8709.000000;-0.278224
8708.000000;-0.278194
8707.000000;-0.278164
8706.000000;-0.278174
8705.000000;-0.278210
8704.000000;-0.278257
8703.000000;-0.278351
8702.000000;-0.278480
8701.000000;-0.278514
8700.000000;-0.278352
8699.000000;-0.278075
8698.000000;-0.277838
8697.000000;-0.277699
8696.000000;-0.277664
8695.000000;-0.277779
8694.000000;-0.278040
8693.000000;-0.278293
8692.000000;-0.278387
8691.000000;-0.278355
8690.000000;-0.278306
8689.000000;-0.278248
8688.000000;-0.278147
8687.000000;-0.278075
8686.000000;-0.278137
8685.000000;-0.278311
8684.000000;-0.278502
8683.000000;-0.278678
8682.000000;-0.278828
8681.000000;-0.278885
8680.000000;-0.278830
8679.000000;-0.278781
8678.000000;-0.278815
8677.000000;-0.278816
8676.000000;-0.278683
8675.000000;-0.278551
8674.000000;-0.278637
8673.000000;-0.278942
8672.000000;-0.279295
8671.000000;-0.279600
8670.000000;-0.279859
8669.000000;-0.280026
8668.000000;-0.280060
8667.000000;-0.280060
8666.000000;-0.280161
8665.000000;-0.280344
8664.000000;-0.280505
8663.000000;-0.280647
8662.000000;-0.280824
8661.000000;-0.280983
8660.000000;-0.281042
8659.000000;-0.281080
8658.000000;-0.281240
8657.000000;-0.281490
8656.000000;-0.281679
8655.000000;-0.281786
8654.000000;-0.281927
8653.000000;-0.282145
8652.000000;-0.282361
8651.000000;-0.282526
8650.000000;-0.282657
8649.000000;-0.282743
8648.000000;-0.282770
8647.000000;-0.282811
8646.000000;-0.282949
8645.000000;-0.283148
8644.000000;-0.283322
8643.000000;-0.283499
8642.000000;-0.283753
8641.000000;-0.284049
8640.000000;-0.284293
8639.000000;-0.284485
8638.000000;-0.284681
8637.000000;-0.284865
8636.000000;-0.284995
8635.000000;-0.285114
8634.000000;-0.285275
8633.000000;-0.285422
8632.000000;-0.285492
8631.000000;-0.285580
8630.000000;-0.285821
8629.000000;-0.286185
8628.000000;-0.286529
8627.000000;-0.286793
8626.000000;-0.286996
8625.000000;-0.287118
8624.000000;-0.287160
8623.000000;-0.287250
8622.000000;-0.287505
8621.000000;-0.287853
8620.000000;-0.288140
8619.000000;-0.288365
8618.000000;-0.288634
8617.000000;-0.288943
8616.000000;-0.289200
8615.000000;-0.289401
8614.000000;-0.289618
8613.000000;-0.289846
8612.000000;-0.290026
8611.000000;-0.290182
8610.000000;-0.290382
8609.000000;-0.290593
8608.000000;-0.290742
8607.000000;-0.290860
8606.000000;-0.291029
8605.000000;-0.291245
8604.000000;-0.291458
8603.000000;-0.291702
8602.000000;-0.292033
8601.000000;-0.292393
8600.000000;-0.292694
8599.000000;-0.292974
8598.000000;-0.293320
8597.000000;-0.293692
8596.000000;-0.293982
8595.000000;-0.294196
8594.000000;-0.294423
8593.000000;-0.294671
8592.000000;-0.294896
8591.000000;-0.295122
8590.000000;-0.295386
8589.000000;-0.295628
8588.000000;-0.295773
8587.000000;-0.295874
8586.000000;-0.296029
8585.000000;-0.296229
8584.000000;-0.296420
8583.000000;-0.296644
8582.000000;-0.296952
8581.000000;-0.297278
8580.000000;-0.297539
8579.000000;-0.297793
8578.000000;-0.298133
8577.000000;-0.298501
8576.000000;-0.298781
8575.000000;-0.299005
8574.000000;-0.299281
8573.000000;-0.299592
8572.000000;-0.299847
8571.000000;-0.300069
8570.000000;-0.300341
8569.000000;-0.300631
8568.000000;-0.300858
8567.000000;-0.301069
8566.000000;-0.301374
8565.000000;-0.301745
8564.000000;-0.302044
8563.000000;-0.302238
8562.000000;-0.302418
8561.000000;-0.302636
8560.000000;-0.302879
8559.000000;-0.303166
8558.000000;-0.303512
8557.000000;-0.303846
8556.000000;-0.304098
8555.000000;-0.304319
8554.000000;-0.304586
8553.000000;-0.304864
8552.000000;-0.305082
8551.000000;-0.305284
8550.000000;-0.305546
8549.000000;-0.305822
8548.000000;-0.306042
8547.000000;-0.306266
8546.000000;-0.306587
8545.000000;-0.306935
8544.000000;-0.307184
8543.000000;-0.307368
8542.000000;-0.307617
8541.000000;-0.307931
8540.000000;-0.308203
8539.000000;-0.308420
8538.000000;-0.308663
8537.000000;-0.308937
8536.000000;-0.309182
8535.000000;-0.309421
8534.000000;-0.309716
8533.000000;-0.310019
8532.000000;-0.310241
8531.000000;-0.310426
8530.000000;-0.310693
8529.000000;-0.311041
8528.000000;-0.311363
8527.000000;-0.311636
8526.000000;-0.311928
8525.000000;-0.312246
8524.000000;-0.312529
8523.000000;-0.312766
8522.000000;-0.312990
8521.000000;-0.313192
8520.000000;-0.313363
8519.000000;-0.313571
8518.000000;-0.313867
8517.000000;-0.314177
8516.000000;-0.314417
8515.000000;-0.314646
8514.000000;-0.314953
8513.000000;-0.315285
8512.000000;-0.315538
8511.000000;-0.315753
8510.000000;-0.316034
8509.000000;-0.316350
8508.000000;-0.316589
8507.000000;-0.316767
8506.000000;-0.316996
8505.000000;-0.317285
8504.000000;-0.317544
8503.000000;-0.317768
8502.000000;-0.318034
8501.000000;-0.318342
8500.000000;-0.318614
8499.000000;-0.318837
8498.000000;-0.319066
8497.000000;-0.319305
8496.000000;-0.319526
8495.000000;-0.319764
8494.000000;-0.320067
8493.000000;-0.320384
8492.000000;-0.320637
8491.000000;-0.320865
8490.000000;-0.321160
8489.000000;-0.321507
8488.000000;-0.321820
8487.000000;-0.322091
8486.000000;-0.322364
8485.000000;-0.322607
8484.000000;-0.322765
8483.000000;-0.322886
8482.000000;-0.323070
8481.000000;-0.323327
8480.000000;-0.323605
8479.000000;-0.323912
8478.000000;-0.324273
8477.000000;-0.324626
8476.000000;-0.324890
8475.000000;-0.325091
8474.000000;-0.325304
8473.000000;-0.325516
8472.000000;-0.325673
8471.000000;-0.325810
8470.000000;-0.325997
8469.000000;-0.326230
8468.000000;-0.326472
8467.000000;-0.326746
8466.000000;-0.327062
8465.000000;-0.327343
8464.000000;-0.327545
8463.000000;-0.327768
8462.000000;-0.328090
8461.000000;-0.328414
8460.000000;-0.328615
8459.000000;-0.328747
8458.000000;-0.328941
8457.000000;-0.329181
8456.000000;-0.329362
8455.000000;-0.329502
8454.000000;-0.329696
8453.000000;-0.329943
8452.000000;-0.330165
8451.000000;-0.330381
8450.000000;-0.330656
8449.000000;-0.330951
8448.000000;-0.331182
8447.000000;-0.331382
8446.000000;-0.331646
8445.000000;-0.331953
8444.000000;-0.332208
8443.000000;-0.332402
8442.000000;-0.332586
8441.000000;-0.332740
8440.000000;-0.332820
8439.000000;-0.332898
8438.000000;-0.333080
8437.000000;-0.333348
8436.000000;-0.333613
8435.000000;-0.333881
8434.000000;-0.334195
8433.000000;-0.334491
8432.000000;-0.334672
8431.000000;-0.334790
8430.000000;-0.334979
8429.000000;-0.335246
8428.000000;-0.335495
8427.000000;-0.335706
8426.000000;-0.335940
8425.000000;-0.336185
8424.000000;-0.336371
8423.000000;-0.336511
8422.000000;-0.336677
8421.000000;-0.336858
8420.000000;-0.336982
8419.000000;-0.337075
8418.000000;-0.337238
8417.000000;-0.337488
8416.000000;-0.337749
8415.000000;-0.337983
8414.000000;-0.338205
8413.000000;-0.338409
8412.000000;-0.338579
8411.000000;-0.338757
8410.000000;-0.338979
8409.000000;-0.339192
8408.000000;-0.339351
8407.000000;-0.339519
8406.000000;-0.339764
8405.000000;-0.340031
8404.000000;-0.340246
8403.000000;-0.340465
8402.000000;-0.340780
8401.000000;-0.341141
8400.000000;-0.341421
8399.000000;-0.341610
8398.000000;-0.341787
8397.000000;-0.341947
8396.000000;-0.342020
8395.000000;-0.342016
8394.000000;-0.342036
8393.000000;-0.342151
8392.000000;-0.342382
8391.000000;-0.342737
8390.000000;-0.343142
8389.000000;-0.343427
8388.000000;-0.343504
8387.000000;-0.343517
8386.000000;-0.343658
8385.000000;-0.343925
8384.000000;-0.344190
8383.000000;-0.344413
8382.000000;-0.344641
8381.000000;-0.344858
8380.000000;-0.345005
8379.000000;-0.345123
8378.000000;-0.345297
8377.000000;-0.345513
8376.000000;-0.345695
8375.000000;-0.345841
8374.000000;-0.345987
8373.000000;-0.346108
8372.000000;-0.346179
8371.000000;-0.346290
8370.000000;-0.346537
8369.000000;-0.346860
8368.000000;-0.347130
8367.000000;-0.347328
8366.000000;-0.347502
8365.000000;-0.347634
8364.000000;-0.347713
8363.000000;-0.347850
8362.000000;-0.348162
8361.000000;-0.348571
8360.000000;-0.348894
8359.000000;-0.349087
8358.000000;-0.349249
8357.000000;-0.349434
8356.000000;-0.349612
8355.000000;-0.349779
8354.000000;-0.349963
8353.000000;-0.350139
8352.000000;-0.350279
8351.000000;-0.350453
8350.000000;-0.350734
8349.000000;-0.351057
8348.000000;-0.351293
8347.000000;-0.351435
8346.000000;-0.351569
8345.000000;-0.351716
8344.000000;-0.351839
8343.000000;-0.351957
8342.000000;-0.352110
8341.000000;-0.352258
8340.000000;-0.352347
8339.000000;-0.352431
8338.000000;-0.352593
8337.000000;-0.352801
8336.000000;-0.352971
8335.000000;-0.353121
8334.000000;-0.353321
8333.000000;-0.353559
8332.000000;-0.353769
8331.000000;-0.353962
8330.000000;-0.354172
8329.000000;-0.354347
8328.000000;-0.354419
8327.000000;-0.354446
8326.000000;-0.354541
8325.000000;-0.354727
8324.000000;-0.354955
8323.000000;-0.355219
8322.000000;-0.355495
8321.000000;-0.355675
8320.000000;-0.355691
8319.000000;-0.355651
8318.000000;-0.355711
8317.000000;-0.355872
8316.000000;-0.356037
8315.000000;-0.356208
8314.000000;-0.356437
8313.000000;-0.356672
8312.000000;-0.356824
8311.000000;-0.356919
8310.000000;-0.357050
8309.000000;-0.357203
8308.000000;-0.357309
8307.000000;-0.357411
8306.000000;-0.357606
8305.000000;-0.357868
8304.000000;-0.358087
8303.000000;-0.358251
8302.000000;-0.358434
8301.000000;-0.358631
8300.000000;-0.358765
8299.000000;-0.358833
8298.000000;-0.358901
8297.000000;-0.358980
8296.000000;-0.359043
8295.000000;-0.359136
8294.000000;-0.359322
8293.000000;-0.359549
8292.000000;-0.359707
8291.000000;-0.359788
8290.000000;-0.359864
8289.000000;-0.359958
8288.000000;-0.360065
8287.000000;-0.360235
8286.000000;-0.360496
8285.000000;-0.360740
8284.000000;-0.360849
8283.000000;-0.360881
8282.000000;-0.360983
8281.000000;-0.361163
8280.000000;-0.361309
8279.000000;-0.361397
8278.000000;-0.361511
8277.000000;-0.361675
8276.000000;-0.361827
8275.000000;-0.361947
8274.000000;-0.362066
8273.000000;-0.362174
8272.000000;-0.362228
8271.000000;-0.362258
8270.000000;-0.362332
8269.000000;-0.362445
8268.000000;-0.362547
8267.000000;-0.362656
8266.000000;-0.362807
8265.000000;-0.362951
8264.000000;-0.363009
8263.000000;-0.363022
8262.000000;-0.363092
8261.000000;-0.363233
8260.000000;-0.363384
8259.000000;-0.363546
8258.000000;-0.363755
8257.000000;-0.363966
8256.000000;-0.364093
8255.000000;-0.364148
8254.000000;-0.364220
8253.000000;-0.364336
8252.000000;-0.364457
8251.000000;-0.364582
8250.000000;-0.364735
8249.000000;-0.364870
8248.000000;-0.364921
8247.000000;-0.364917
8246.000000;-0.364946
8245.000000;-0.365033
8244.000000;-0.365156
8243.000000;-0.365322
8242.000000;-0.365523
8241.000000;-0.365667
8240.000000;-0.365674
8239.000000;-0.365610
8238.000000;-0.365607
8237.000000;-0.365690
8236.000000;-0.365806
8235.000000;-0.365950
8234.000000;-0.366145
8233.000000;-0.366342
8232.000000;-0.366472
8231.000000;-0.366563
8230.000000;-0.366679
8229.000000;-0.366791
8228.000000;-0.366825
8227.000000;-0.366805
8226.000000;-0.366808
8225.000000;-0.366832
8224.000000;-0.366836
8223.000000;-0.366862
8222.000000;-0.366992
8221.000000;-0.367200
8220.000000;-0.367372
8219.000000;-0.367458
8218.000000;-0.367479
8217.000000;-0.367438
8216.000000;-0.367343
8215.000000;-0.367271
8214.000000;-0.367304
8213.000000;-0.367418
8212.000000;-0.367540
8211.000000;-0.367667
8210.000000;-0.367825
8209.000000;-0.367963
8208.000000;-0.368025
8207.000000;-0.368061
8206.000000;-0.368158
8205.000000;-0.368288
8204.000000;-0.368360
8203.000000;-0.368374
8202.000000;-0.368405
8201.000000;-0.368461
8200.000000;-0.368483
8199.000000;-0.368466
8198.000000;-0.368458
8197.000000;-0.368478
8196.000000;-0.368521
8195.000000;-0.368621
8194.000000;-0.368792
8193.000000;-0.368960
8192.000000;-0.369045
8191.000000;-0.369074
8190.000000;-0.369106
8189.000000;-0.369123
8188.000000;-0.369092
8187.000000;-0.369072
8186.000000;-0.369140
8185.000000;-0.369266
8184.000000;-0.369367
8183.000000;-0.369441
8182.000000;-0.369511
8181.000000;-0.369523
8180.000000;-0.369429
8179.000000;-0.369311
8178.000000;-0.369294
8177.000000;-0.369373
8176.000000;-0.369459
8175.000000;-0.369535
8174.000000;-0.369646
8173.000000;-0.369777
8172.000000;-0.369865
8171.000000;-0.369915
8170.000000;-0.369960
8169.000000;-0.369973
8168.000000;-0.369914
8167.000000;-0.369843
8166.000000;-0.369854
8165.000000;-0.369938
8164.000000;-0.370027
8163.000000;-0.370120
8162.000000;-0.370236
8161.000000;-0.370310
8160.000000;-0.370264
8159.000000;-0.370154
8158.000000;-0.370099
8157.000000;-0.370117
8156.000000;-0.370143
8155.000000;-0.370168
8154.000000;-0.370232
8153.000000;-0.370303
8152.000000;-0.370309
8151.000000;-0.370253
8150.000000;-0.370197
8149.000000;-0.370155
8148.000000;-0.370110
8147.000000;-0.370097
8146.000000;-0.370146
8145.000000;-0.370202
8144.000000;-0.370192
8143.000000;-0.370155
8142.000000;-0.370183
8141.000000;-0.370278
8140.000000;-0.370381
8139.000000;-0.370477
8138.000000;-0.370570
8137.000000;-0.370611
8136.000000;-0.370558
8135.000000;-0.370474
8134.000000;-0.370438
8133.000000;-0.370426
8132.000000;-0.370379
8131.000000;-0.370339
8130.000000;-0.370375
8129.000000;-0.370445
8128.000000;-0.370453
8127.000000;-0.370410
8126.000000;-0.370404
8125.000000;-0.370444
8124.000000;-0.370475
8123.000000;-0.370494
8122.000000;-0.370542
8121.000000;-0.370604
8120.000000;-0.370630
8119.000000;-0.370640
8118.000000;-0.370676
8117.000000;-0.370707
8116.000000;-0.370664
8115.000000;-0.370555
8114.000000;-0.370437
8113.000000;-0.370332
8112.000000;-0.370241
8111.000000;-0.370205
8110.000000;-0.370235
8109.000000;-0.370253
8108.000000;-0.370203
8107.000000;-0.370142
8106.000000;-0.370141
8105.000000;-0.370152
8104.000000;-0.370106
8103.000000;-0.370056
8102.000000;-0.370089
8101.000000;-0.370175
8100.000000;-0.370217
8099.000000;-0.370204
8098.000000;-0.370177
8097.000000;-0.370113
8096.000000;-0.369978
8095.000000;-0.369855
8094.000000;-0.369851
8093.000000;-0.369930
8092.000000;-0.369966
8091.000000;-0.369934
8090.000000;-0.369908
8089.000000;-0.369908
8088.000000;-0.369876
8087.000000;-0.369795
8086.000000;-0.369707
8085.000000;-0.369641
8084.000000;-0.369611
8083.000000;-0.369649
8082.000000;-0.369736
8081.000000;-0.369754
8080.000000;-0.369629
8079.000000;-0.369471
8078.000000;-0.369437
8077.000000;-0.369515
8076.000000;-0.369575
8075.000000;-0.369566
8074.000000;-0.369543
8073.000000;-0.369523
8072.000000;-0.369477
8071.000000;-0.369424
8070.000000;-0.369415
8069.000000;-0.369423
8068.000000;-0.369371
8067.000000;-0.369260
8066.000000;-0.369156
8065.000000;-0.369087
8064.000000;-0.369044
8063.000000;-0.369045
8062.000000;-0.369092
8061.000000;-0.369116
8060.000000;-0.369063
8059.000000;-0.368992
8058.000000;-0.368979
8057.000000;-0.368979
8056.000000;-0.368904
8055.000000;-0.368783
8054.000000;-0.368702
8053.000000;-0.368646
8052.000000;-0.368542
8051.000000;-0.368412
8050.000000;-0.368352
8049.000000;-0.368379
8048.000000;-0.368422
8047.000000;-0.368442
8046.000000;-0.368444
8045.000000;-0.368400
8044.000000;-0.368280
8043.000000;-0.368147
8042.000000;-0.368092
8041.000000;-0.368099
8040.000000;-0.368083
8039.000000;-0.368038
8038.000000;-0.368032
8037.000000;-0.368060
8036.000000;-0.368047
8035.000000;-0.367964
8034.000000;-0.367864
8033.000000;-0.367788
8032.000000;-0.367740
8031.000000;-0.367730
8030.000000;-0.367752
8029.000000;-0.367739
8028.000000;-0.367637
8027.000000;-0.367487
8026.000000;-0.367355
8025.000000;-0.367241
8024.000000;-0.367124
8023.000000;-0.367060
8022.000000;-0.367104
8021.000000;-0.367188
8020.000000;-0.367187
8019.000000;-0.367077
8018.000000;-0.366928
8017.000000;-0.366793
8016.000000;-0.366689
8015.000000;-0.366653
8014.000000;-0.366686
8013.000000;-0.366703
8012.000000;-0.366617
8011.000000;-0.366467
8010.000000;-0.366342
8009.000000;-0.366251
8008.000000;-0.366158
8007.000000;-0.366088
8006.000000;-0.366083
8005.000000;-0.366098
8004.000000;-0.366062
8003.000000;-0.366005
8002.000000;-0.365999
8001.000000;-0.366015
8000.000000;-0.365960
7999.000000;-0.365836
7998.000000;-0.365740
7997.000000;-0.365710
7996.000000;-0.365698
7995.000000;-0.365667
7994.000000;-0.365622
7993.000000;-0.365556
7992.000000;-0.365457
7991.000000;-0.365368
7990.000000;-0.365336
7989.000000;-0.365331
7988.000000;-0.365293
7987.000000;-0.365217
7986.000000;-0.365126
7985.000000;-0.365003
7984.000000;-0.364837
7983.000000;-0.364698
7982.000000;-0.364651
7981.000000;-0.364646
7980.000000;-0.364587
7979.000000;-0.364473
7978.000000;-0.364376
7977.000000;-0.364314
7976.000000;-0.364253
7975.000000;-0.364191
7974.000000;-0.364147
7973.000000;-0.364084
7972.000000;-0.363960
7971.000000;-0.363811
7970.000000;-0.363706
7969.000000;-0.363645
7968.000000;-0.363588
7967.000000;-0.363543
7966.000000;-0.363536
7965.000000;-0.363535
7964.000000;-0.363490
7963.000000;-0.363410
7962.000000;-0.363322
7961.000000;-0.363199
7960.000000;-0.363017
7959.000000;-0.362841
7958.000000;-0.362752
7957.000000;-0.362739
7956.000000;-0.362746
7955.000000;-0.362761
7954.000000;-0.362790
7953.000000;-0.362777
7952.000000;-0.362679
7951.000000;-0.362553
7950.000000;-0.362471
7949.000000;-0.362389
7948.000000;-0.362224
7947.000000;-0.362009
7946.000000;-0.361860
7945.000000;-0.361815
7944.000000;-0.361807
7943.000000;-0.361764
7942.000000;-0.361658
7941.000000;-0.361480
7940.000000;-0.361268
7939.000000;-0.361113
7938.000000;-0.361072
7937.000000;-0.361084
7936.000000;-0.361067
7935.000000;-0.361025
7934.000000;-0.360991
7933.000000;-0.360934
7932.000000;-0.360813
7931.000000;-0.360677
7930.000000;-0.360593
7929.000000;-0.360527
7928.000000;-0.360412
7927.000000;-0.360266
7926.000000;-0.360151
7925.000000;-0.360062
7924.000000;-0.359958
7923.000000;-0.359862
7922.000000;-0.359814
7921.000000;-0.359766
7920.000000;-0.359648
7919.000000;-0.359488
7918.000000;-0.359375
7917.000000;-0.359307
7916.000000;-0.359217
7915.000000;-0.359095
7914.000000;-0.358995
7913.000000;-0.358927
7912.000000;-0.358851
7911.000000;-0.358760
7910.000000;-0.358667
7909.000000;-0.358555
7908.000000;-0.358399
7907.000000;-0.358235
7906.000000;-0.358108
7905.000000;-0.357999
7904.000000;-0.357868
7903.000000;-0.357746
7902.000000;-0.357681
7901.000000;-0.357651
7900.000000;-0.357604
7899.000000;-0.357542
7898.000000;-0.357495
7897.000000;-0.357445
7896.000000;-0.357362
7895.000000;-0.357270
7894.000000;-0.357197
7893.000000;-0.357101
7892.000000;-0.356937
7891.000000;-0.356750
7890.000000;-0.356613
7889.000000;-0.356518
7888.000000;-0.356422
7887.000000;-0.356336
7886.000000;-0.356277
7885.000000;-0.356193
7884.000000;-0.356034
7883.000000;-0.355849
7882.000000;-0.355720
7881.000000;-0.355630
7880.000000;-0.355518
7879.000000;-0.355396
7878.000000;-0.355316
7877.000000;-0.355255
7876.000000;-0.355142
7875.000000;-0.354980
7874.000000;-0.354833
7873.000000;-0.354728
7872.000000;-0.354637
7871.000000;-0.354546
7870.000000;-0.354451
7869.000000;-0.354321
7868.000000;-0.354146
7867.000000;-0.353980
7866.000000;-0.353874
7865.000000;-0.353795
7864.000000;-0.353696
7863.000000;-0.353597
7862.000000;-0.353524
7861.000000;-0.353432
7860.000000;-0.353272
7859.000000;-0.353090
7858.000000;-0.352961
7857.000000;-0.352885
7856.000000;-0.352814
7855.000000;-0.352745
7854.000000;-0.352688
7853.000000;-0.352598
7852.000000;-0.352441
7851.000000;-0.352271
7850.000000;-0.352158
7849.000000;-0.352072
7848.000000;-0.351941
7847.000000;-0.351763
7846.000000;-0.351588
7845.000000;-0.351422
7844.000000;-0.351258
7843.000000;-0.351140
7842.000000;-0.351091
7841.000000;-0.351039
7840.000000;-0.350906
7839.000000;-0.350739
7838.000000;-0.350625
7837.000000;-0.350547
7836.000000;-0.350415
7835.000000;-0.350218
7834.000000;-0.350021
7833.000000;-0.349853
7832.000000;-0.349691
7831.000000;-0.349543
7830.000000;-0.349439
7829.000000;-0.349357
7828.000000;-0.349244
7827.000000;-0.349109
7826.000000;-0.348999
7825.000000;-0.348913
7824.000000;-0.348811
7823.000000;-0.348688
7822.000000;-0.348559
7821.000000;-0.348420
7820.000000;-0.348268
7819.000000;-0.348143
7818.000000;-0.348062
7817.000000;-0.347969
7816.000000;-0.347813
7815.000000;-0.347623
7814.000000;-0.347446
7813.000000;-0.347264
7812.000000;-0.347059
7811.000000;-0.346894
7810.000000;-0.346829
7809.000000;-0.346804
7808.000000;-0.346715
7807.000000;-0.346559
7806.000000;-0.346406
7805.000000;-0.346269
7804.000000;-0.346105
7803.000000;-0.345910
7802.000000;-0.345726
7801.000000;-0.345566
7800.000000;-0.345413
7799.000000;-0.345273
7798.000000;-0.345155
7797.000000;-0.345026
7796.000000;-0.344869
7795.000000;-0.344727
7794.000000;-0.344631
7793.000000;-0.344523
7792.000000;-0.344332
7791.000000;-0.344093
7790.000000;-0.343898
7789.000000;-0.343769
7788.000000;-0.343662
7787.000000;-0.343558
7786.000000;-0.343457
7785.000000;-0.343323
7784.000000;-0.343125
7783.000000;-0.342898
7782.000000;-0.342691
7781.000000;-0.342494
7780.000000;-0.342278
7779.000000;-0.342069
7778.000000;-0.341906
7777.000000;-0.341754
7776.000000;-0.341568
7775.000000;-0.341378
7774.000000;-0.341241
7773.000000;-0.341137
7772.000000;-0.341000
7771.000000;-0.340813
7770.000000;-0.340605
7769.000000;-0.340383
7768.000000;-0.340159
7767.000000;-0.339985
7766.000000;-0.339894
7765.000000;-0.339833
7764.000000;-0.339730
7763.000000;-0.339579
7762.000000;-0.339413
7761.000000;-0.339225
7760.000000;-0.339006
7759.000000;-0.338793
7758.000000;-0.338616
7757.000000;-0.338433
7756.000000;-0.338215
7755.000000;-0.338017
7754.000000;-0.337895
7753.000000;-0.337806
7752.000000;-0.337677
7751.000000;-0.337519
7750.000000;-0.337379
7749.000000;-0.337233
7748.000000;-0.337034
7747.000000;-0.336807
7746.000000;-0.336613
7745.000000;-0.336440
7744.000000;-0.336230
7743.000000;-0.335992
7742.000000;-0.335781
7741.000000;-0.335605
7740.000000;-0.335436
7739.000000;-0.335270
7738.000000;-0.335115
7737.000000;-0.334938
7736.000000;-0.334722
7735.000000;-0.334519
7734.000000;-0.334377
7733.000000;-0.334243
7732.000000;-0.334044
7731.000000;-0.333808
7730.000000;-0.333609
7729.000000;-0.333437
7728.000000;-0.333223
7727.000000;-0.332961
7726.000000;-0.332707
7725.000000;-0.332478
7724.000000;-0.332238
7723.000000;-0.331985
7722.000000;-0.331765
7721.000000;-0.331593
7720.000000;-0.331443
7719.000000;-0.331293
7718.000000;-0.331120
7717.000000;-0.330890
7716.000000;-0.330603
7715.000000;-0.330333
7714.000000;-0.330149
7713.000000;-0.330031
7712.000000;-0.329906
7711.000000;-0.329744
7710.000000;-0.329555
7709.000000;-0.329338
7708.000000;-0.329106
7707.000000;-0.328907
7706.000000;-0.328766
7705.000000;-0.328626
7704.000000;-0.328420
7703.000000;-0.328166
7702.000000;-0.327930
7701.000000;-0.327726
7700.000000;-0.327529
7699.000000;-0.327328
7698.000000;-0.327117
7697.000000;-0.326866
7696.000000;-0.326578
7695.000000;-0.326321
7694.000000;-0.326143
7693.000000;-0.325985
7692.000000;-0.325771
7691.000000;-0.325519
7690.000000;-0.325299
7689.000000;-0.325119
7688.000000;-0.324934
7687.000000;-0.324736
7686.000000;-0.324542
7685.000000;-0.324339
7684.000000;-0.324099
7683.000000;-0.323848
7682.000000;-0.323620
7681.000000;-0.323396
7680.000000;-0.323145
7679.000000;-0.322885
7678.000000;-0.322647
7677.000000;-0.322407
7676.000000;-0.322130
7675.000000;-0.321835
7674.000000;-0.321563
7673.000000;-0.321315
7672.000000;-0.321068
7671.000000;-0.320836
7670.000000;-0.320629
7669.000000;-0.320411
7668.000000;-0.320144
7667.000000;-0.319858
7666.000000;-0.319596
7665.000000;-0.319352
7664.000000;-0.319092
7663.000000;-0.318822
7662.000000;-0.318568
7661.000000;-0.318333
7660.000000;-0.318121
7659.000000;-0.317953
7658.000000;-0.317815
7657.000000;-0.317631
7656.000000;-0.317350
7655.000000;-0.317006
7654.000000;-0.316664
7653.000000;-0.316348
7652.000000;-0.316061
7651.000000;-0.315824
7650.000000;-0.315620
7649.000000;-0.315382
7648.000000;-0.315085
7647.000000;-0.314795
7646.000000;-0.314566
7645.000000;-0.314351
7644.000000;-0.314088
7643.000000;-0.313787
7642.000000;-0.313484
7641.000000;-0.313160
7640.000000;-0.312797
7639.000000;-0.312445
7638.000000;-0.312159
7637.000000;-0.311926
7636.000000;-0.311705
7635.000000;-0.311498
7634.000000;-0.311296
7633.000000;-0.311043
7632.000000;-0.310712
7631.000000;-0.310359
7630.000000;-0.310041
7629.000000;-0.309730
7628.000000;-0.309380
7627.000000;-0.309025
7626.000000;-0.308716
7625.000000;-0.308429
7624.000000;-0.308126
7623.000000;-0.307834
7622.000000;-0.307593
7621.000000;-0.307355
7620.000000;-0.307050
7619.000000;-0.306690
7618.000000;-0.306341
7617.000000;-0.306027
7616.000000;-0.305738
7615.000000;-0.305482
7614.000000;-0.305255
7613.000000;-0.304998
7612.000000;-0.304655
7611.000000;-0.304249
7610.000000;-0.303839
7609.000000;-0.303441
7608.000000;-0.303062
7607.000000;-0.302741
7606.000000;-0.302495
7605.000000;-0.302258
7604.000000;-0.301953
7603.000000;-0.301587
7602.000000;-0.301210
7601.000000;-0.300822
7600.000000;-0.300405
7599.000000;-0.299989
7598.000000;-0.299619
7597.000000;-0.299289
7596.000000;-0.298973
7595.000000;-0.298673
7594.000000;-0.298393
7593.000000;-0.298091
7592.000000;-0.297739
7591.000000;-0.297372
7590.000000;-0.297030
7589.000000;-0.296697
7588.000000;-0.296343
7587.000000;-0.295991
7586.000000;-0.295669
7585.000000;-0.295354
7584.000000;-0.295021
7583.000000;-0.294689
7582.000000;-0.294371
7581.000000;-0.294018
7580.000000;-0.293591
7579.000000;-0.293129
7578.000000;-0.292693
7577.000000;-0.292276
7576.000000;-0.291850
7575.000000;-0.291435
7574.000000;-0.291063
7573.000000;-0.290707
7572.000000;-0.290323
7571.000000;-0.289921
7570.000000;-0.289531
7569.000000;-0.289140
7568.000000;-0.288727
7567.000000;-0.288312
7566.000000;-0.287923
7565.000000;-0.287548
7564.000000;-0.287169
7563.000000;-0.286798
7562.000000;-0.286432
7561.000000;-0.286037
7560.000000;-0.285612
7559.000000;-0.285220
7558.000000;-0.284887
7557.000000;-0.284552
7556.000000;-0.284157
7555.000000;-0.283736
7554.000000;-0.283341
7553.000000;-0.282958
7552.000000;-0.282546
7551.000000;-0.282122
7550.000000;-0.281716
7549.000000;-0.281315
7548.000000;-0.280908
7547.000000;-0.280519
7546.000000;-0.280148
7545.000000;-0.279737
7544.000000;-0.279257
7543.000000;-0.278773
7542.000000;-0.278357
7541.000000;-0.277987
7540.000000;-0.277601
7539.000000;-0.277183
7538.000000;-0.276743
7537.000000;-0.276267
7536.000000;-0.275761
7535.000000;-0.275283
7534.000000;-0.274867
7533.000000;-0.274469
7532.000000;-0.274037
7531.000000;-0.273585
7530.000000;-0.273134
7529.000000;-0.272644
7528.000000;-0.272081
7527.000000;-0.271494
7526.000000;-0.270952
7525.000000;-0.270467
7524.000000;-0.270020
7523.000000;-0.269617
7522.000000;-0.269256
7521.000000;-0.268887
7520.000000;-0.268472
7519.000000;-0.268025
7518.000000;-0.267570
7517.000000;-0.267092
7516.000000;-0.266600
7515.000000;-0.266144
7514.000000;-0.265734
7513.000000;-0.265297
7512.000000;-0.264794
7511.000000;-0.264289
7510.000000;-0.263854
7509.000000;-0.263454
7508.000000;-0.263015
7507.000000;-0.262531
7506.000000;-0.262037
7505.000000;-0.261532
7504.000000;-0.261002
7503.000000;-0.260481
7502.000000;-0.260010
7501.000000;-0.259577
7500.000000;-0.259143
7499.000000;-0.258702
7498.000000;-0.258257
7497.000000;-0.257792
7496.000000;-0.257296
7495.000000;-0.256787
7494.000000;-0.256265
7493.000000;-0.255707
7492.000000;-0.255125
7491.000000;-0.254601
7490.000000;-0.254039
7489.000000;-0.253617
7488.000000;-0.253156
7487.000000;-0.252653
7486.000000;-0.252154
7485.000000;-0.251669
7484.000000;-0.251197
7483.000000;-0.250736
7482.000000;-0.250253
7481.000000;-0.249697
7480.000000;-0.249089
7479.000000;-0.248522
7478.000000;-0.248040
7477.000000;-0.247585
7476.000000;-0.247102
7475.000000;-0.246622
7474.000000;-0.246185
7473.000000;-0.245763
7472.000000;-0.245304
7471.000000;-0.244813
7470.000000;-0.244320
7469.000000;-0.243831
7468.000000;-0.243349
7467.000000;-0.242890
7466.000000;-0.242440
7465.000000;-0.241957
7464.000000;-0.241431
7463.000000;-0.240901
7462.000000;-0.240389
7461.000000;-0.239879
7460.000000;-0.239374
7459.000000;-0.238909
7458.000000;-0.238487
7457.000000;-0.238054
7456.000000;-0.237576
7455.000000;-0.237073
7454.000000;-0.236555
7453.000000;-0.236001
7452.000000;-0.235421
7451.000000;-0.234865
7450.000000;-0.234351
7449.000000;-0.233854
7448.000000;-0.233375
7447.000000;-0.232954
7446.000000;-0.232586
7445.000000;-0.232193
7444.000000;-0.231722
7443.000000;-0.231185
7442.000000;-0.230615
7441.000000;-0.230029
7440.000000;-0.229461
7439.000000;-0.228928
7438.000000;-0.228384
7437.000000;-0.227783
7436.000000;-0.227188
7435.000000;-0.226711
7434.000000;-0.226338
7433.000000;-0.225940
7432.000000;-0.225448
7431.000000;-0.224919
7430.000000;-0.224404
7429.000000;-0.223870
7428.000000;-0.223297
7427.000000;-0.222751
7426.000000;-0.222302
7425.000000;-0.221937
7424.000000;-0.221567
7423.000000;-0.221067
7422.000000;-0.220325
7421.000000;-0.219364
7420.000000;-0.218422
7419.000000;-0.217750
7418.000000;-0.217286
7417.000000;-0.216727
7416.000000;-0.215938
7415.000000;-0.215127
7414.000000;-0.214541
7413.000000;-0.214170
7412.000000;-0.213831
7411.000000;-0.213418
7410.000000;-0.212938
7409.000000;-0.212407
7408.000000;-0.211794
7407.000000;-0.211098
7406.000000;-0.210415
7405.000000;-0.209900
7404.000000;-0.209590
7403.000000;-0.209284
7402.000000;-0.208673
7401.000000;-0.207673
7400.000000;-0.206582
7399.000000;-0.205807
7398.000000;-0.205432
7397.000000;-0.205170
7396.000000;-0.204663
7395.000000;-0.203813
7394.000000;-0.202875
7393.000000;-0.202191
7392.000000;-0.201738
7391.000000;-0.201160
7390.000000;-0.200256
7389.000000;-0.199208
7388.000000;-0.198224
7387.000000;-0.197179
7386.000000;-0.195861
7385.000000;-0.194429
7384.000000;-0.193240
7383.000000;-0.192295
7382.000000;-0.191304
7381.000000;-0.190293
7380.000000;-0.189601
7379.000000;-0.189066
7378.000000;-0.187794
7377.000000;-0.185349
7376.000000;-0.182838
7375.000000;-0.181933
7374.000000;-0.182809
7373.000000;-0.183750
7372.000000;-0.183072
7371.000000;-0.180930
7370.000000;-0.179004
7369.000000;-0.178766
7368.000000;-0.180189
7367.000000;-0.181830
7366.000000;-0.182080
7365.000000;-0.180653
7364.000000;-0.178789
7363.000000;-0.177891
7362.000000;-0.178242
7361.000000;-0.179106
7360.000000;-0.179581
7359.000000;-0.179039
7358.000000;-0.177124
7357.000000;-0.174194
7356.000000;-0.171793
7355.000000;-0.171538
7354.000000;-0.173092
7353.000000;-0.174123
7352.000000;-0.172815
7351.000000;-0.169665
7350.000000;-0.166666
7349.000000;-0.165378
7348.000000;-0.165832
7347.000000;-0.166594
7346.000000;-0.165717
7345.000000;-0.162503
7344.000000;-0.158384
7343.000000;-0.155271
7342.000000;-0.153085
7341.000000;-0.150210
7340.000000;-0.146406
7339.000000;-0.143582
7338.000000;-0.143054
7337.000000;-0.143600
7336.000000;-0.143452
7335.000000;-0.142922
7334.000000;-0.143790
7333.000000;-0.146639
7332.000000;-0.150070
7331.000000;-0.152305
7330.000000;-0.152552
7329.000000;-0.151353
7328.000000;-0.150440
7327.000000;-0.151270
7326.000000;-0.152788
7325.000000;-0.152020
7324.000000;-0.147941
7323.000000;-0.143376
7322.000000;-0.141678
7321.000000;-0.142662
7320.000000;-0.143421
7319.000000;-0.142353
7318.000000;-0.140803
7317.000000;-0.140895
7316.000000;-0.143143
7315.000000;-0.146279
7314.000000;-0.148530
7313.000000;-0.148871
7312.000000;-0.147769
7311.000000;-0.146739
7310.000000;-0.146345
7309.000000;-0.145059
7308.000000;-0.141497
7307.000000;-0.137107
7306.000000;-0.134783
7305.000000;-0.134941
7304.000000;-0.134861
7303.000000;-0.132345
7302.000000;-0.128381
7301.000000;-0.125678
7300.000000;-0.125751
7299.000000;-0.127868
7298.000000;-0.129888
7297.000000;-0.129650
7296.000000;-0.126498
7295.000000;-0.122413
7294.000000;-0.120684
7293.000000;-0.122344
7292.000000;-0.124525
7291.000000;-0.123512
7290.000000;-0.119048
7289.000000;-0.114474
7288.000000;-0.113020
7287.000000;-0.114842
7286.000000;-0.117531
7285.000000;-0.118751
7284.000000;-0.118183
7283.000000;-0.117318
7282.000000;-0.117633
7281.000000;-0.119084
7280.000000;-0.120418
7279.000000;-0.120595
7278.000000;-0.119615
7277.000000;-0.118153
7276.000000;-0.116663
7275.000000;-0.115171
7274.000000;-0.113662
7273.000000;-0.112204
7272.000000;-0.110808
7271.000000;-0.109372
7270.000000;-0.107722
7269.000000;-0.105764
7268.000000;-0.103742
7267.000000;-0.102087
7266.000000;-0.100786
7265.000000;-0.099126
7264.000000;-0.096472
7263.000000;-0.093242
7262.000000;-0.090651
7261.000000;-0.089342
7260.000000;-0.088647
7259.000000;-0.087452
7258.000000;-0.085404
7257.000000;-0.082962
7256.000000;-0.080561
7255.000000;-0.078124
7254.000000;-0.075463
7253.000000;-0.072806
7252.000000;-0.070585
7251.000000;-0.068820
7250.000000;-0.066987
7249.000000;-0.064660
7248.000000;-0.061982
7247.000000;-0.059233
7246.000000;-0.056022
7245.000000;-0.051289
7244.000000;-0.044832
7243.000000;-0.038448
7242.000000;-0.034327
7241.000000;-0.032268
7240.000000;-0.029725
7239.000000;-0.024991
7238.000000;-0.019305
7237.000000;-0.015154
7236.000000;-0.012991
7235.000000;-0.010550
7234.000000;-0.005647
7233.000000;0.000904
7232.000000;0.005832
7231.000000;0.007092
7230.000000;0.006448
7229.000000;0.007683
7228.000000;0.012470
7227.000000;0.018598
7226.000000;0.022488
7225.000000;0.023296
7224.000000;0.023527
7223.000000;0.025710
7222.000000;0.029745
7221.000000;0.033508
7220.000000;0.035160
7219.000000;0.034800
7218.000000;0.034426
7217.000000;0.036244
7216.000000;0.040613
7215.000000;0.045722
7214.000000;0.049550
7213.000000;0.051877
7212.000000;0.054075
7211.000000;0.057254
7210.000000;0.061218
7209.000000;0.065170
7208.000000;0.068889
7207.000000;0.072811
7206.000000;0.077247
7205.000000;0.081995
7204.000000;0.086593
7203.000000;0.090784
7202.000000;0.094876
7201.000000;0.099486
7200.000000;0.104692
7199.000000;0.109736
7198.000000;0.113967
7197.000000;0.117762
7196.000000;0.121961
7195.000000;0.126606
7194.000000;0.130879
7193.000000;0.134331
7192.000000;0.137518
7191.000000;0.141169
7190.000000;0.145311
7189.000000;0.149583
7188.000000;0.153987
7187.000000;0.158828
7186.000000;0.164238
7185.000000;0.170264
7184.000000;0.177108
7183.000000;0.184792
7182.000000;0.192588
7181.000000;0.199513
7180.000000;0.205633
7179.000000;0.212216
7178.000000;0.220172
7177.000000;0.228702
7176.000000;0.235912
7175.000000;0.240728
7174.000000;0.243984
7173.000000;0.247522
7172.000000;0.252395
7171.000000;0.258191
7170.000000;0.263891
7169.000000;0.268925
7168.000000;0.273549
7167.000000;0.278482
7166.000000;0.284345
7165.000000;0.291373
7164.000000;0.299472
7163.000000;0.308379
7162.000000;0.317390
7161.000000;0.325358
7160.000000;0.331716
7159.000000;0.337380
7158.000000;0.343914
7157.000000;0.351507
7156.000000;0.358385
7155.000000;0.362729
7154.000000;0.364954
7153.000000;0.367301
7152.000000;0.371211
7151.000000;0.375996
7150.000000;0.380306
7149.000000;0.383936
7148.000000;0.387837
7147.000000;0.392886
7146.000000;0.399071
7145.000000;0.405772
7144.000000;0.412567
7143.000000;0.419695
7142.000000;0.427791
7141.000000;0.437037
7140.000000;0.446348
7139.000000;0.454029
7138.000000;0.459834
7137.000000;0.465613
7136.000000;0.472995
7135.000000;0.481077
7134.000000;0.487540
7133.000000;0.491660
7132.000000;0.495024
7131.000000;0.499256
7130.000000;0.504284
7129.000000;0.509067
7128.000000;0.513048
7127.000000;0.516480
7126.000000;0.519902
7125.000000;0.523814
7124.000000;0.528437
7123.000000;0.533440
7122.000000;0.538402
7121.000000;0.543726
7120.000000;0.550427
7119.000000;0.558673
7118.000000;0.567101
7117.000000;0.574153
7116.000000;0.579827
7115.000000;0.585556
7114.000000;0.592417
7113.000000;0.599781
7112.000000;0.605892
7111.000000;0.609809
7110.000000;0.612610
7109.000000;0.616273
7108.000000;0.621453
7107.000000;0.626883
7106.000000;0.631087
7105.000000;0.634075
7104.000000;0.636987
7103.000000;0.640668
7102.000000;0.645130
7101.000000;0.649939
7100.000000;0.654662
7099.000000;0.659123
7098.000000;0.663608
7097.000000;0.668705
7096.000000;0.674402
7095.000000;0.679679
7094.000000;0.683788
7093.000000;0.687476
7092.000000;0.691960
7091.000000;0.697131
7090.000000;0.701747
7089.000000;0.705127
7088.000000;0.707741
7087.000000;0.710255
7086.000000;0.712858
7085.000000;0.715526
7084.000000;0.718194
7083.000000;0.720692
7082.000000;0.723060
7081.000000;0.725732
7080.000000;0.728913
7079.000000;0.732129
7078.000000;0.734994
7077.000000;0.737983
7076.000000;0.741649
7075.000000;0.745587
7074.000000;0.749154
7073.000000;0.752600
7072.000000;0.756410
7071.000000;0.760150
7070.000000;0.763165
7069.000000;0.765909
7068.000000;0.769318
7067.000000;0.773236
7066.000000;0.776630
7065.000000;0.779159
7064.000000;0.781377
7063.000000;0.783606
7062.000000;0.785675
7061.000000;0.787620
7060.000000;0.789626
7059.000000;0.791406
7058.000000;0.792611
7057.000000;0.793694
7056.000000;0.795416
7055.000000;0.797649
7054.000000;0.799703
7053.000000;0.801593
7052.000000;0.803873
7051.000000;0.806501
7050.000000;0.808980
7049.000000;0.811278
7048.000000;0.813648
7047.000000;0.815908
7046.000000;0.817870
7045.000000;0.820095
7044.000000;0.823122
7043.000000;0.826253
7042.000000;0.828260
7041.000000;0.829091
7040.000000;0.829765
7039.000000;0.830817
7038.000000;0.831985
7037.000000;0.833167
7036.000000;0.834563
7035.000000;0.835960
7034.000000;0.836968
7033.000000;0.837809
7032.000000;0.838928
7031.000000;0.840067
7030.000000;0.840763
7029.000000;0.841390
7028.000000;0.842668
7027.000000;0.844467
7026.000000;0.846136
7025.000000;0.847669
7024.000000;0.849468
7023.000000;0.851296
7022.000000;0.852639
7021.000000;0.853795
7020.000000;0.855407
7019.000000;0.857166
7018.000000;0.858196
7017.000000;0.858506
7016.000000;0.858922
7015.000000;0.859743
7014.000000;0.860553
7013.000000;0.861171
7012.000000;0.861764
7011.000000;0.862236
7010.000000;0.862497
7009.000000;0.863084
7008.000000;0.864504
7007.000000;0.866230
7006.000000;0.867340
7005.000000;0.867876
7004.000000;0.868533
7003.000000;0.869370
7002.000000;0.869956
7001.000000;0.870427
7000.000000;0.871256
6999.000000;0.872222
6998.000000;0.872751
6997.000000;0.873003
6996.000000;0.873555
6995.000000;0.874281
6994.000000;0.874602
6993.000000;0.874610
6992.000000;0.874898
6991.000000;0.875531
6990.000000;0.876141
6989.000000;0.876758
6988.000000;0.877531
6987.000000;0.878044
6986.000000;0.877913
6985.000000;0.877703
6984.000000;0.878250
6983.000000;0.879424
6982.000000;0.880497
6981.000000;0.881299
6980.000000;0.882025
6979.000000;0.882377
6978.000000;0.882041
6977.000000;0.881583
6976.000000;0.881707
6975.000000;0.882075
6974.000000;0.881961
6973.000000;0.881594
6972.000000;0.881672
6971.000000;0.881985
6970.000000;0.881819
6969.000000;0.881338
6968.000000;0.881284
6967.000000;0.881661
6966.000000;0.881926
6965.000000;0.882134
6964.000000;0.882699
6963.000000;0.883284
6962.000000;0.883134
6961.000000;0.882339
6960.000000;0.881660
6959.000000;0.881324
6958.000000;0.881091
6957.000000;0.881161
6956.000000;0.881835
6955.000000;0.882531
6954.000000;0.882384
6953.000000;0.881614
6952.000000;0.881194
6951.000000;0.881405
6950.000000;0.881774
6949.000000;0.882134
6948.000000;0.882618
6947.000000;0.882885
6946.000000;0.882480
6945.000000;0.881772
6944.000000;0.881467
6943.000000;0.881439
6942.000000;0.881092
6941.000000;0.880546
6940.000000;0.880385
6939.000000;0.880494
6938.000000;0.880235
6937.000000;0.879614
6936.000000;0.879224
6935.000000;0.879190
6934.000000;0.879184
6933.000000;0.879224
6932.000000;0.879468
6931.000000;0.879483
6930.000000;0.878759
6929.000000;0.877729
6928.000000;0.877242
6927.000000;0.877255
6926.000000;0.877020
6925.000000;0.876322
6924.000000;0.875556
6923.000000;0.874840
6922.000000;0.874063
6921.000000;0.873552
6920.000000;0.873715
6919.000000;0.874217
6918.000000;0.874345
6917.000000;0.874047
6916.000000;0.873803
6915.000000;0.873708
6914.000000;0.873517
6913.000000;0.873300
6912.000000;0.873191
6911.000000;0.872819
6910.000000;0.871886
6909.000000;0.870897
6908.000000;0.870433
6907.000000;0.870098
6906.000000;0.869153
6905.000000;0.867785
6904.000000;0.866768
6903.000000;0.866227
6902.000000;0.865710
6901.000000;0.865156
6900.000000;0.864782
6899.000000;0.864348
6898.000000;0.863525
6897.000000;0.862745
6896.000000;0.862695
6895.000000;0.863173
6894.000000;0.863349
6893.000000;0.862990
6892.000000;0.862501
6891.000000;0.862028
6890.000000;0.861475
6889.000000;0.861180
6888.000000;0.861580
6887.000000;0.862330
6886.000000;0.862590
6885.000000;0.862082
6884.000000;0.861133
6883.000000;0.859936
6882.000000;0.858563
6881.000000;0.857421
6880.000000;0.856832
6879.000000;0.856416
6878.000000;0.855643
6877.000000;0.854729
6876.000000;0.854195
6875.000000;0.853908
6874.000000;0.853402
6873.000000;0.852823
6872.000000;0.852636
6871.000000;0.852712
6870.000000;0.852580
6869.000000;0.852281
6868.000000;0.852084
6867.000000;0.851690
6866.000000;0.850627
6865.000000;0.849231
6864.000000;0.848317
6863.000000;0.848033
6862.000000;0.847839
6861.000000;0.847403
6860.000000;0.846765
6859.000000;0.845863
6858.000000;0.844671
6857.000000;0.843572
6856.000000;0.842870
6855.000000;0.842204
6854.000000;0.841120
6853.000000;0.839887
6852.000000;0.839000
6851.000000;0.838298
6850.000000;0.837335
6849.000000;0.836234
6848.000000;0.835370
6847.000000;0.834560
6846.000000;0.833403
6845.000000;0.832076
6844.000000;0.831006
6843.000000;0.830059
6842.000000;0.828860
6841.000000;0.827589
6840.000000;0.826651
6839.000000;0.825852
6838.000000;0.824704
6837.000000;0.823304
6836.000000;0.822143
6835.000000;0.821252
6834.000000;0.820279
6833.000000;0.819154
6832.000000;0.817983
6831.000000;0.816541
6830.000000;0.814597
6829.000000;0.812489
6828.000000;0.810717
6827.000000;0.809241
6826.000000;0.807757
6825.000000;0.806309
6824.000000;0.805026
6823.000000;0.803612
6822.000000;0.801760
6821.000000;0.799748
6820.000000;0.797979
6819.000000;0.796313
6818.000000;0.794470
6817.000000;0.792689
6816.000000;0.791286
6815.000000;0.789955
6814.000000;0.788213
6813.000000;0.786200
6812.000000;0.784349
6811.000000;0.782609
6810.000000;0.780679
6809.000000;0.778660
6808.000000;0.776798
6807.000000;0.774893
6806.000000;0.772643
6805.000000;0.770241
6804.000000;0.768064
6803.000000;0.766049
6802.000000;0.763995
6801.000000;0.762079
6800.000000;0.760455
6799.000000;0.758731
6798.000000;0.756510
6797.000000;0.754097
6796.000000;0.752012
6795.000000;0.750164
6794.000000;0.748167
6793.000000;0.746068
6792.000000;0.744097
6791.000000;0.742031
6790.000000;0.739555
6789.000000;0.736939
6788.000000;0.734667
6787.000000;0.732647
6786.000000;0.730447
6785.000000;0.728044
6784.000000;0.725712
6783.000000;0.723417
6782.000000;0.720953
6781.000000;0.718451
6780.000000;0.716156
6779.000000;0.713919
6778.000000;0.711471
6777.000000;0.708958
6776.000000;0.706669
6775.000000;0.704491
6774.000000;0.702191
6773.000000;0.699926
6772.000000;0.697921
6771.000000;0.695944
6770.000000;0.693680
6769.000000;0.691342
6768.000000;0.689304
6767.000000;0.687386
6766.000000;0.685114
6765.000000;0.682481
6764.000000;0.679866
6763.000000;0.677399
6762.000000;0.674957
6761.000000;0.672570
6760.000000;0.670294
6759.000000;0.667903
6758.000000;0.665251
6757.000000;0.662703
6756.000000;0.660631
6755.000000;0.658719
6754.000000;0.656357
6753.000000;0.653548
6752.000000;0.650845
6751.000000;0.648519
6750.000000;0.646357
6749.000000;0.644182
6748.000000;0.642017
6747.000000;0.639799
6746.000000;0.637421
6745.000000;0.634985
6744.000000;0.632616
6743.000000;0.630148
6742.000000;0.627384
6741.000000;0.624546
6740.000000;0.622013
6739.000000;0.619764
6738.000000;0.617468
6737.000000;0.615000
6736.000000;0.612470
6735.000000;0.609905
6734.000000;0.607286
6733.000000;0.604783
6732.000000;0.602568
6731.000000;0.600505
6730.000000;0.598343
6729.000000;0.596093
6728.000000;0.593901
6727.000000;0.591700
6726.000000;0.589335
6725.000000;0.586868
6724.000000;0.584422
6723.000000;0.581910
6722.000000;0.579222
6721.000000;0.576534
6720.000000;0.574093
6719.000000;0.571867
6718.000000;0.569682
6717.000000;0.567518
6716.000000;0.565392
6715.000000;0.563144
6714.000000;0.560645
6713.000000;0.558059
6712.000000;0.555602
6711.000000;0.553234
6710.000000;0.550837
6709.000000;0.548482
6708.000000;0.546260
6707.000000;0.544023
6706.000000;0.541673
6705.000000;0.539342
6704.000000;0.537155
6703.000000;0.535035
6702.000000;0.532814
6701.000000;0.530519
6700.000000;0.528255
6699.000000;0.525865
6698.000000;0.523351
6697.000000;0.520737
6696.000000;0.518452
6695.000000;0.516292
6694.000000;0.513921
6693.000000;0.511576
6692.000000;0.509463
6691.000000;0.507470
6690.000000;0.505330
6689.000000;0.503086
6688.000000;0.500911
6687.000000;0.498733
6686.000000;0.496386
6685.000000;0.493965
6684.000000;0.491673
6683.000000;0.489483
6682.000000;0.487235
6681.000000;0.484949
6680.000000;0.482735
6679.000000;0.480563
6678.000000;0.478374
6677.000000;0.476260
6676.000000;0.474253
6675.000000;0.472152
6674.000000;0.469817
6673.000000;0.467452
6672.000000;0.465303
6671.000000;0.463272
6670.000000;0.461128
6669.000000;0.458889
6668.000000;0.456705
6667.000000;0.454551
6666.000000;0.452336
6665.000000;0.450162
6664.000000;0.448149
6663.000000;0.446174
6662.000000;0.444063
6661.000000;0.441891
6660.000000;0.439825
6659.000000;0.437807
6658.000000;0.435694
6657.000000;0.433536
6656.000000;0.431448
6655.000000;0.429354
6654.000000;0.427148
6653.000000;0.424947
6652.000000;0.422919
6651.000000;0.420988
6650.000000;0.418989
6649.000000;0.416956
6648.000000;0.414992
6647.000000;0.413005
6646.000000;0.410846
6645.000000;0.408595
6644.000000;0.406445
6643.000000;0.404409
6642.000000;0.402398
6641.000000;0.400435
6640.000000;0.398556
6639.000000;0.396634
6638.000000;0.394550
6637.000000;0.392420
6636.000000;0.390418
6635.000000;0.388499
6634.000000;0.386528
6633.000000;0.384543
6632.000000;0.382651
6631.000000;0.380807
6630.000000;0.378911
6629.000000;0.377004
6628.000000;0.375124
6627.000000;0.373141
6626.000000;0.370970
6625.000000;0.368800
6624.000000;0.366860
6623.000000;0.365077
6622.000000;0.363227
6621.000000;0.361291
6620.000000;0.359415
6619.000000;0.357619
6618.000000;0.355804
6617.000000;0.353969
6616.000000;0.352172
6615.000000;0.350363
6614.000000;0.348459
6613.000000;0.346515
6612.000000;0.344631
6611.000000;0.342780
6610.000000;0.340901
6609.000000;0.339050
6608.000000;0.337288
6607.000000;0.335533
6606.000000;0.333696
6605.000000;0.331849
6604.000000;0.330087
6603.000000;0.328344
6602.000000;0.326541
6601.000000;0.324758
6600.000000;0.323079
6599.000000;0.321384
6598.000000;0.319537
6597.000000;0.317630
6596.000000;0.315842
6595.000000;0.314153
6594.000000;0.312414
6593.000000;0.310601
6592.000000;0.308796
6591.000000;0.307026
6590.000000;0.305291
6589.000000;0.303662
6588.000000;0.302158
6587.000000;0.300637
6586.000000;0.298971
6585.000000;0.297244
6584.000000;0.295597
6583.000000;0.293997
6582.000000;0.292343
6581.000000;0.290661
6580.000000;0.289015
6579.000000;0.287338
6578.000000;0.285542
6577.000000;0.283715
6576.000000;0.282007
6575.000000;0.280417
6574.000000;0.278848
6573.000000;0.277275
6572.000000;0.275697
6571.000000;0.274034
6570.000000;0.272266
6569.000000;0.270545
6568.000000;0.269008
6567.000000;0.267575
6566.000000;0.266089
6565.000000;0.264544
6564.000000;0.263008
6563.000000;0.261441
6562.000000;0.259791
6561.000000;0.258153
6560.000000;0.256648
6559.000000;0.255227
6558.000000;0.253763
6557.000000;0.252264
6556.000000;0.250801
6555.000000;0.249335
6554.000000;0.247786
6553.000000;0.246191
6552.000000;0.244626
6551.000000;0.243063
6550.000000;0.241465
6549.000000;0.239914
6548.000000;0.238493
6547.000000;0.237121
6546.000000;0.235677
6545.000000;0.234189
6544.000000;0.232754
6543.000000;0.231354
6542.000000;0.229923
6541.000000;0.228501
6540.000000;0.227144
6539.000000;0.225776
6538.000000;0.224297
6537.000000;0.222753
6536.000000;0.221259
6535.000000;0.219816
6534.000000;0.218367
6533.000000;0.216936
6532.000000;0.215576
6531.000000;0.214241
6530.000000;0.212862
6529.000000;0.211484
6528.000000;0.210169
6527.000000;0.208871
6526.000000;0.207515
6525.000000;0.206138
6524.000000;0.204810
6523.000000;0.203496
6522.000000;0.202139
6521.000000;0.200787
6520.000000;0.199497
6519.000000;0.198214
6518.000000;0.196876
6517.000000;0.195552
6516.000000;0.194310
6515.000000;0.193065
6514.000000;0.191694
6513.000000;0.190235
6512.000000;0.188825
6511.000000;0.187509
6510.000000;0.186256
6509.000000;0.185061
6508.000000;0.183913
6507.000000;0.182731
6506.000000;0.181472
6505.000000;0.180221
6504.000000;0.179047
6503.000000;0.177859
6502.000000;0.176557
6501.000000;0.175204
6500.000000;0.173930
6499.000000;0.172735
6498.000000;0.171553
6497.000000;0.170410
6496.000000;0.169354
6495.000000;0.168317
6494.000000;0.167191
6493.000000;0.165982
6492.000000;0.164761
6491.000000;0.163526
6490.000000;0.162244
6489.000000;0.160969
6488.000000;0.159766
6487.000000;0.158596
6486.000000;0.157404
6485.000000;0.156233
6484.000000;0.155134
6483.000000;0.154045
6482.000000;0.152884
6481.000000;0.151700
6480.000000;0.150580
6479.000000;0.149488
6478.000000;0.148338
6477.000000;0.147145
6476.000000;0.145989
6475.000000;0.144871
6474.000000;0.143756
6473.000000;0.142671
6472.000000;0.141650
6471.000000;0.140633
6470.000000;0.139553
6469.000000;0.138457
6468.000000;0.137418
6467.000000;0.136397
6466.000000;0.135322
6465.000000;0.134217
6464.000000;0.133145
6463.000000;0.132089
6462.000000;0.131014
6461.000000;0.129962
6460.000000;0.128978
6459.000000;0.127996
6458.000000;0.126944
6457.000000;0.125864
6456.000000;0.124834
6455.000000;0.123825
6454.000000;0.122785
6453.000000;0.121760
6452.000000;0.120806
6451.000000;0.119866
6450.000000;0.118854
6449.000000;0.117801
6448.000000;0.116790
6447.000000;0.115802
6446.000000;0.114778
6445.000000;0.113749
6444.000000;0.112786
6443.000000;0.111855
6442.000000;0.110882
6441.000000;0.109882
6440.000000;0.108919
6439.000000;0.107982
6438.000000;0.107027
6437.000000;0.106086
6436.000000;0.105214
6435.000000;0.104378
6434.000000;0.103502
6433.000000;0.102583
6432.000000;0.101649
6431.000000;0.100681
6430.000000;0.099679
6429.000000;0.098734
6428.000000;0.097916
6427.000000;0.097148
6426.000000;0.096301
6425.000000;0.095356
6424.000000;0.094377
6423.000000;0.093392
6422.000000;0.092415
6421.000000;0.091510
6420.000000;0.090712
6419.000000;0.089947
6418.000000;0.089133
6417.000000;0.088304
6416.000000;0.087519
6415.000000;0.086727
6414.000000;0.085851
6413.000000;0.084932
6412.000000;0.084064
6411.000000;0.083241
6410.000000;0.082411
6409.000000;0.081598
6408.000000;0.080851
6407.000000;0.080131
6406.000000;0.079359
6405.000000;0.078548
6404.000000;0.077752
6403.000000;0.076959
6402.000000;0.076125
6401.000000;0.075290
6400.000000;0.074515
6399.000000;0.073773
6398.000000;0.072991
6397.000000;0.072182
6396.000000;0.071400
6395.000000;0.070634
6394.000000;0.069839
6393.000000;0.069040
6392.000000;0.068281
6391.000000;0.067525
6390.000000;0.066719
6389.000000;0.065904
6388.000000;0.065161
6387.000000;0.064481
6386.000000;0.063787
6385.000000;0.063057
6384.000000;0.062323
6383.000000;0.061587
6382.000000;0.060847
6381.000000;0.060145
6380.000000;0.059510
6379.000000;0.058877
6378.000000;0.058172
6377.000000;0.057420
6376.000000;0.056685
6375.000000;0.055962
6374.000000;0.055217
6373.000000;0.054481
6372.000000;0.053798
6371.000000;0.053135
6370.000000;0.052440
6369.000000;0.051739
6368.000000;0.051076
6367.000000;0.050413
6366.000000;0.049697
6365.000000;0.048974
6364.000000;0.048324
6363.000000;0.047725
6362.000000;0.047100
6361.000000;0.046441
6360.000000;0.045796
6359.000000;0.045163
6358.000000;0.044507
6357.000000;0.043840
6356.000000;0.043199
6355.000000;0.042565
6354.000000;0.041901
6353.000000;0.041229
6352.000000;0.040596
6351.000000;0.039997
6350.000000;0.039406
6349.000000;0.038847
6348.000000;0.038336
6347.000000;0.037815
6346.000000;0.037224
6345.000000;0.036599
6344.000000;0.036010
6343.000000;0.035443
6342.000000;0.034838
6341.000000;0.034199
6340.000000;0.033571
6339.000000;0.032956
6338.000000;0.032339
6337.000000;0.031748
6336.000000;0.031207
6335.000000;0.030679
6334.000000;0.030124
6333.000000;0.029579
6332.000000;0.029082
6331.000000;0.028581
6330.000000;0.028013
6329.000000;0.027413
6328.000000;0.026858
6327.000000;0.026350
6326.000000;0.025835
6325.000000;0.025308
6324.000000;0.024795
6323.000000;0.024276
6322.000000;0.023723
6321.000000;0.023163
6320.000000;0.022641
6319.000000;0.022139
6318.000000;0.021622
6317.000000;0.021104
6316.000000;0.020604
6315.000000;0.020080
6314.000000;0.019502
6313.000000;0.018926
6312.000000;0.018428
6311.000000;0.017983
6310.000000;0.017525
6309.000000;0.017047
6308.000000;0.016574
6307.000000;0.016083
6306.000000;0.015547
6305.000000;0.015010
6304.000000;0.014525
6303.000000;0.014064
6302.000000;0.013562
6301.000000;0.013030
6300.000000;0.012521
6299.000000;0.012038
6298.000000;0.011549
6297.000000;0.011070
6296.000000;0.010634
6295.000000;0.010220
6294.000000;0.009791
6293.000000;0.009363
6292.000000;0.008965
6291.000000;0.008566
6290.000000;0.008113
6289.000000;0.007619
6288.000000;0.007131
6287.000000;0.006652
6286.000000;0.006166
6285.000000;0.005704
6284.000000;0.005300
6283.000000;0.004921
6282.000000;0.004517
6281.000000;0.004093
6280.000000;0.003678
6279.000000;0.003262
6278.000000;0.002836
6277.000000;0.002445
6276.000000;0.002121
6275.000000;0.001807
6274.000000;0.001429
6273.000000;0.000995
6272.000000;0.000560
6271.000000;0.000129
6270.000000;-0.000317
6269.000000;-0.000749
6268.000000;-0.001141
6267.000000;-0.001530
6266.000000;-0.001960
6265.000000;-0.002393
6264.000000;-0.002772
6263.000000;-0.003113
6262.000000;-0.003473
6261.000000;-0.003855
6260.000000;-0.004234
6259.000000;-0.004628
6258.000000;-0.005059
6257.000000;-0.005488
6256.000000;-0.005863
6255.000000;-0.006199
6254.000000;-0.006536
6253.000000;-0.006872
6252.000000;-0.007191
6251.000000;-0.007532
6250.000000;-0.007923
6249.000000;-0.008314
6248.000000;-0.008643
6247.000000;-0.008938
6246.000000;-0.009271
6245.000000;-0.009641
6244.000000;-0.010006
6243.000000;-0.010362
6242.000000;-0.010728
6241.000000;-0.011078
6240.000000;-0.011381
6239.000000;-0.011674
6238.000000;-0.012015
6237.000000;-0.012399
6236.000000;-0.012785
6235.000000;-0.013169
6234.000000;-0.013563
6233.000000;-0.013940
6232.000000;-0.014270
6231.000000;-0.014579
6230.000000;-0.014903
6229.000000;-0.015221
6228.000000;-0.015503
6227.000000;-0.015773
6226.000000;-0.016069
6225.000000;-0.016377
6224.000000;-0.016674
6223.000000;-0.016987
6222.000000;-0.017334
6221.000000;-0.017670
6220.000000;-0.017940
6219.000000;-0.018171
6218.000000;-0.018418
6217.000000;-0.018675
6216.000000;-0.018917
6215.000000;-0.019173
6214.000000;-0.019481
6213.000000;-0.019814
6212.000000;-0.020122
6211.000000;-0.020415
6210.000000;-0.020726
6209.000000;-0.021042
6208.000000;-0.021331
6207.000000;-0.021617
6206.000000;-0.021937
6205.000000;-0.022266
6204.000000;-0.022557
6203.000000;-0.022818
6202.000000;-0.023086
6201.000000;-0.023358
6200.000000;-0.023619
6199.000000;-0.023892
6198.000000;-0.024198
6197.000000;-0.024505
6196.000000;-0.024781
6195.000000;-0.025052
6194.000000;-0.025338
6193.000000;-0.025602
6192.000000;-0.025816
6191.000000;-0.026044
6190.000000;-0.026352
6189.000000;-0.026704
6188.000000;-0.027013
6187.000000;-0.027268
6186.000000;-0.027516
6185.000000;-0.027766
6184.000000;-0.027987
6183.000000;-0.028181
6182.000000;-0.028377
6181.000000;-0.028571
6180.000000;-0.028757
6179.000000;-0.028971
6178.000000;-0.029244
6177.000000;-0.029536
6176.000000;-0.029795
6175.000000;-0.030038
6174.000000;-0.030308
6173.000000;-0.030588
6172.000000;-0.030833
6171.000000;-0.031047
6170.000000;-0.031261
6169.000000;-0.031463
6168.000000;-0.031632
6167.000000;-0.031797
6166.000000;-0.032004
6165.000000;-0.032236
6164.000000;-0.032453
6163.000000;-0.032664
6162.000000;-0.032898
6161.000000;-0.033131
6160.000000;-0.033327
6159.000000;-0.033511
6158.000000;-0.033738
6157.000000;-0.034001
6156.000000;-0.034251
6155.000000;-0.034478
6154.000000;-0.034693
6153.000000;-0.034885
6152.000000;-0.035044
6151.000000;-0.035217
6150.000000;-0.035446
6149.000000;-0.035698
6148.000000;-0.035914
6147.000000;-0.036107
6146.000000;-0.036326
6145.000000;-0.036564
6144.000000;-0.036769
6143.000000;-0.036930
6142.000000;-0.037081
6141.000000;-0.037236
6140.000000;-0.037394
6139.000000;-0.037581
6138.000000;-0.037815
6137.000000;-0.038053
6136.000000;-0.038240
6135.000000;-0.038395
6134.000000;-0.038573
6133.000000;-0.038784
6132.000000;-0.038987
6131.000000;-0.039160
6130.000000;-0.039314
6129.000000;-0.039456
6128.000000;-0.039600
6127.000000;-0.039786
6126.000000;-0.040024
6125.000000;-0.040256
6124.000000;-0.040422
6123.000000;-0.040541
6122.000000;-0.040670
6121.000000;-0.040819
6120.000000;-0.040971
6119.000000;-0.041140
6118.000000;-0.041339
6117.000000;-0.041530
6116.000000;-0.041673
6115.000000;-0.041798
6114.000000;-0.041961
6113.000000;-0.042149
6112.000000;-0.042307
6111.000000;-0.042427
6110.000000;-0.042547
6109.000000;-0.042683
6108.000000;-0.042833
6107.000000;-0.043004
6106.000000;-0.043197
6105.000000;-0.043378
6104.000000;-0.043519
6103.000000;-0.043644
6102.000000;-0.043792
6101.000000;-0.043947
6100.000000;-0.044081
6099.000000;-0.044211
6098.000000;-0.044364
6097.000000;-0.044521
6096.000000;-0.044651
6095.000000;-0.044771
6094.000000;-0.044906
6093.000000;-0.045038
6092.000000;-0.045134
6091.000000;-0.045214
6090.000000;-0.045316
6089.000000;-0.045435
6088.000000;-0.045554
6087.000000;-0.045690
6086.000000;-0.045862
6085.000000;-0.046036
6084.000000;-0.046167
6083.000000;-0.046265
6082.000000;-0.046359
6081.000000;-0.046439
6080.000000;-0.046495
6079.000000;-0.046562
6078.000000;-0.046679
6077.000000;-0.046825
6076.000000;-0.046956
6075.000000;-0.047082
6074.000000;-0.047232
6073.000000;-0.047387
6072.000000;-0.047503
6071.000000;-0.047579
6070.000000;-0.047646
6069.000000;-0.047713
6068.000000;-0.047778
6067.000000;-0.047865
6066.000000;-0.047992
6065.000000;-0.048130
6064.000000;-0.048246
6063.000000;-0.048359
6062.000000;-0.048495
6061.000000;-0.048626
6060.000000;-0.048710
6059.000000;-0.048755
6058.000000;-0.048802
6057.000000;-0.048865
6056.000000;-0.048942
6055.000000;-0.049046
6054.000000;-0.049168
6053.000000;-0.049265
6052.000000;-0.049321
6051.000000;-0.049385
6050.000000;-0.049493
6049.000000;-0.049599
6048.000000;-0.049647
6047.000000;-0.049663
6046.000000;-0.049708
6045.000000;-0.049790
6044.000000;-0.049876
6043.000000;-0.049964
6042.000000;-0.050072
6041.000000;-0.050180
6040.000000;-0.050261
6039.000000;-0.050341
6038.000000;-0.050444
6037.000000;-0.050541
6036.000000;-0.050588
6035.000000;-0.050599
6034.000000;-0.050623
6033.000000;-0.050662
6032.000000;-0.050694
6031.000000;-0.050730
6030.000000;-0.050798
6029.000000;-0.050886
6028.000000;-0.050967
6027.000000;-0.051041
6026.000000;-0.051119
6025.000000;-0.051180
6024.000000;-0.051202
6023.000000;-0.051214
6022.000000;-0.051254
6021.000000;-0.051311
6020.000000;-0.051353
6019.000000;-0.051388
6018.000000;-0.051437
6017.000000;-0.051492
6016.000000;-0.051536
6015.000000;-0.051585
6014.000000;-0.051643
6013.000000;-0.051681
6012.000000;-0.051682
6011.000000;-0.051689
6010.000000;-0.051731
6009.000000;-0.051773
6008.000000;-0.051774
6007.000000;-0.051772
6006.000000;-0.051814
6005.000000;-0.051879
6004.000000;-0.051911
6003.000000;-0.051913
6002.000000;-0.051915
6001.000000;-0.051902
6000.000000;-0.051841
5999.000000;-0.051761
5998.000000;-0.051718
5997.000000;-0.051715
5996.000000;-0.051712
5995.000000;-0.051707
5994.000000;-0.051723
5993.000000;-0.051751
5992.000000;-0.051764
5991.000000;-0.051768
5990.000000;-0.051784
5989.000000;-0.051804
5988.000000;-0.051808
5987.000000;-0.051805
5986.000000;-0.051814
5985.000000;-0.051819
5984.000000;-0.051807
5983.000000;-0.051811
5982.000000;-0.051859
5981.000000;-0.051910
5980.000000;-0.051904
5979.000000;-0.051842
5978.000000;-0.051771
5977.000000;-0.051710
5976.000000;-0.051655
5975.000000;-0.051619
5974.000000;-0.051609
5973.000000;-0.051596
5972.000000;-0.051557
5971.000000;-0.051523
5970.000000;-0.051523
5969.000000;-0.051528
5968.000000;-0.051494
5967.000000;-0.051432
5966.000000;-0.051374
5965.000000;-0.051309
5964.000000;-0.051211
5963.000000;-0.051103
5962.000000;-0.051032
5961.000000;-0.050996
5960.000000;-0.050956
5959.000000;-0.050902
5958.000000;-0.050849
5957.000000;-0.050796
5956.000000;-0.050739
5955.000000;-0.050696
5954.000000;-0.050674
5953.000000;-0.050638
5952.000000;-0.050566
5951.000000;-0.050485
5950.000000;-0.050424
5949.000000;-0.050351
5948.000000;-0.050233
5947.000000;-0.050102
5946.000000;-0.050012
5945.000000;-0.049965
5944.000000;-0.049932
5943.000000;-0.049912
5942.000000;-0.049908
5941.000000;-0.049880
5940.000000;-0.049795
5939.000000;-0.049683
5938.000000;-0.049592
5937.000000;-0.049521
5936.000000;-0.049440
5935.000000;-0.049357
5934.000000;-0.049287
5933.000000;-0.049202
5932.000000;-0.049065
5931.000000;-0.048892
5930.000000;-0.048724
5929.000000;-0.048564
5928.000000;-0.048397
5927.000000;-0.048249
5926.000000;-0.048151
5925.000000;-0.048076
5924.000000;-0.047982
5923.000000;-0.047872
5922.000000;-0.047777
5921.000000;-0.047688
5920.000000;-0.047581
5919.000000;-0.047465
5918.000000;-0.047366
5917.000000;-0.047271
5916.000000;-0.047156
5915.000000;-0.047037
5914.000000;-0.046937
5913.000000;-0.046835
5912.000000;-0.046707
5911.000000;-0.046577
5910.000000;-0.046480
5909.000000;-0.046397
5908.000000;-0.046286
5907.000000;-0.046154
5906.000000;-0.046039
5905.000000;-0.045944
5904.000000;-0.045842
5903.000000;-0.045731
5902.000000;-0.045623
5901.000000;-0.045506
5900.000000;-0.045369
5899.000000;-0.045232
5898.000000;-0.045107
5897.000000;-0.044964
5896.000000;-0.044789
5895.000000;-0.044625
5894.000000;-0.044510
5893.000000;-0.044414
5892.000000;-0.044282
5891.000000;-0.044123
5890.000000;-0.043971
5889.000000;-0.043811
5888.000000;-0.043608
5887.000000;-0.043381
5886.000000;-0.043183
5885.000000;-0.043028
5884.000000;-0.042891
5883.000000;-0.042764
5882.000000;-0.042639
5881.000000;-0.042482
5880.000000;-0.042264
5879.000000;-0.042020
5878.000000;-0.041797
5877.000000;-0.041590
5876.000000;-0.041359
5875.000000;-0.041118
5874.000000;-0.040922
5873.000000;-0.040792
5872.000000;-0.040694
5871.000000;-0.040586
5870.000000;-0.040438
5869.000000;-0.040231
5868.000000;-0.039980
5867.000000;-0.039733
5866.000000;-0.039518
5865.000000;-0.039318
5864.000000;-0.039112
5863.000000;-0.038921
5862.000000;-0.038755
5861.000000;-0.038577
5860.000000;-0.038352
5859.000000;-0.038100
5858.000000;-0.037846
5857.000000;-0.037575
5856.000000;-0.037275
5855.000000;-0.036982
5854.000000;-0.036728
5853.000000;-0.036485
5852.000000;-0.036217
5851.000000;-0.035949
5850.000000;-0.035717
5849.000000;-0.035510
5848.000000;-0.035293
5847.000000;-0.035072
5846.000000;-0.034857
5845.000000;-0.034618
5844.000000;-0.034323
5843.000000;-0.033997
5842.000000;-0.033682
5841.000000;-0.033375
5840.000000;-0.033063
5839.000000;-0.032777
5838.000000;-0.032540
5837.000000;-0.032312
5836.000000;-0.032046
5835.000000;-0.031755
5834.000000;-0.031482
5833.000000;-0.031218
5832.000000;-0.030932
5831.000000;-0.030627
5830.000000;-0.030323
5829.000000;-0.030004
5828.000000;-0.029651
5827.000000;-0.029295
5826.000000;-0.028970
5825.000000;-0.028653
5824.000000;-0.028305
5823.000000;-0.027943
5822.000000;-0.027605
5821.000000;-0.027286
5820.000000;-0.026956
5819.000000;-0.026617
5818.000000;-0.026290
5817.000000;-0.025959
5816.000000;-0.025597
5815.000000;-0.025221
5814.000000;-0.024860
5813.000000;-0.024501
5812.000000;-0.024122
5811.000000;-0.023740
5810.000000;-0.023380
5809.000000;-0.023021
5808.000000;-0.022639
5807.000000;-0.022256
5806.000000;-0.021905
5805.000000;-0.021570
5804.000000;-0.021214
5803.000000;-0.020846
5802.000000;-0.020480
5801.000000;-0.020092
5800.000000;-0.019655
5799.000000;-0.019199
5798.000000;-0.018771
5797.000000;-0.018365
5796.000000;-0.017947
5795.000000;-0.017525
5794.000000;-0.017125
5793.000000;-0.016736
5792.000000;-0.016328
5791.000000;-0.015905
5790.000000;-0.015486
5789.000000;-0.015068
5788.000000;-0.014645
5787.000000;-0.014230
5786.000000;-0.013827
5785.000000;-0.013401
5784.000000;-0.012931
5783.000000;-0.012450
5782.000000;-0.011984
5781.000000;-0.011508
5780.000000;-0.010999
5779.000000;-0.010491
5778.000000;-0.010018
5777.000000;-0.009551
5776.000000;-0.009051
5775.000000;-0.008545
5774.000000;-0.008073
5773.000000;-0.007618
5772.000000;-0.007142
5771.000000;-0.006661
5770.000000;-0.006201
5769.000000;-0.005729
5768.000000;-0.005200
5767.000000;-0.004635
5766.000000;-0.004087
5765.000000;-0.003558
5764.000000;-0.003020
5763.000000;-0.002477
5762.000000;-0.001950
5761.000000;-0.001414
5760.000000;-0.000843
5759.000000;-0.000272
5758.000000;0.000247
5757.000000;0.000728
5756.000000;0.001233
5755.000000;0.001781
5754.000000;0.002354
5753.000000;0.002957
5752.000000;0.003598
5751.000000;0.004244
5750.000000;0.004848
5749.000000;0.005415
5748.000000;0.005978
5747.000000;0.006536
5746.000000;0.007086
5745.000000;0.007670
5744.000000;0.008322
5743.000000;0.009005
5742.000000;0.009648
5741.000000;0.010247
5740.000000;0.010846
5739.000000;0.011458
5738.000000;0.012064
5737.000000;0.012664
5736.000000;0.013271
5735.000000;0.013876
5734.000000;0.014479
5733.000000;0.015125
5732.000000;0.015849
5731.000000;0.016612
5730.000000;0.017350
5729.000000;0.018059
5728.000000;0.018773
5727.000000;0.019488
5726.000000;0.020178
5725.000000;0.020848
5724.000000;0.021521
5723.000000;0.022184
5722.000000;0.022827
5721.000000;0.023477
5720.000000;0.024163
5719.000000;0.024858
5718.000000;0.025522
5717.000000;0.026182
5716.000000;0.026890
5715.000000;0.027653
5714.000000;0.028438
5713.000000;0.029238
5712.000000;0.030054
5711.000000;0.030851
5710.000000;0.031596
5709.000000;0.032311
5708.000000;0.033040
5707.000000;0.033782
5706.000000;0.034515
5705.000000;0.035248
5704.000000;0.036003
5703.000000;0.036768
5702.000000;0.037534
5701.000000;0.038328
5700.000000;0.039160
5699.000000;0.039965
5698.000000;0.040682
5697.000000;0.041349
5696.000000;0.042047
5695.000000;0.042823
5694.000000;0.043627
5693.000000;0.044525
5692.000000;0.045417
5691.000000;0.046238
5690.000000;0.047018
5689.000000;0.047758
5688.000000;0.048508
5687.000000;0.049253
5686.000000;0.049976
5685.000000;0.050706
5684.000000;0.051482
5683.000000;0.052285
5682.000000;0.053072
5681.000000;0.053848
5680.000000;0.054637
5679.000000;0.055430
5678.000000;0.056212
5677.000000;0.057014
5676.000000;0.057859
5675.000000;0.058701
5674.000000;0.059488
5673.000000;0.060246
5672.000000;0.061034
5671.000000;0.061858
5670.000000;0.062685
5669.000000;0.063512
5668.000000;0.064340
5667.000000;0.065123
5666.000000;0.065836
5665.000000;0.066540
5664.000000;0.067312
5663.000000;0.068132
5662.000000;0.068929
5661.000000;0.069690
5660.000000;0.070442
5659.000000;0.071166
5658.000000;0.071835
5657.000000;0.072491
5656.000000;0.073207
5655.000000;0.073972
5654.000000;0.074706
5653.000000;0.075379
5652.000000;0.076027
5651.000000;0.076678
5650.000000;0.077337
5649.000000;0.078031
5648.000000;0.078781
5647.000000;0.079550
5646.000000;0.080279
5645.000000;0.080968
5644.000000;0.081654
5643.000000;0.082343
5642.000000;0.083016
5641.000000;0.083682
5640.000000;0.084358
5639.000000;0.085018
5638.000000;0.085631
5637.000000;0.086229
5636.000000;0.086859
5635.000000;0.087513
5634.000000;0.088155
5633.000000;0.088785
5632.000000;0.089414
5631.000000;0.090009
5630.000000;0.090546
5629.000000;0.091069
5628.000000;0.091634
5627.000000;0.092218
5626.000000;0.092761
5625.000000;0.093270
5624.000000;0.093786
5623.000000;0.094304
5622.000000;0.094785
5621.000000;0.095244
5620.000000;0.095728
5619.000000;0.096233
5618.000000;0.096723
5617.000000;0.097209
5616.000000;0.097719
5615.000000;0.098221
5614.000000;0.098652
5613.000000;0.099018
5612.000000;0.099389
5611.000000;0.099798
5610.000000;0.100217
5609.000000;0.100630
5608.000000;0.101038
5607.000000;0.101429
5606.000000;0.101796
5605.000000;0.102168
5604.000000;0.102563
5603.000000;0.102946
5602.000000;0.103296
5601.000000;0.103666
5600.000000;0.104102
5599.000000;0.104549
5598.000000;0.104913
5597.000000;0.105183
5596.000000;0.105409
5595.000000;0.105597
5594.000000;0.105734
5593.000000;0.105872
5592.000000;0.106076
5591.000000;0.106323
5590.000000;0.106543
5589.000000;0.106744
5588.000000;0.106994
5587.000000;0.107288
5586.000000;0.107547
5585.000000;0.107735
5584.000000;0.107882
5583.000000;0.108011
5582.000000;0.108122
5581.000000;0.108260
5580.000000;0.108477
5579.000000;0.108749
5578.000000;0.108996
5577.000000;0.109185
5576.000000;0.109338
5575.000000;0.109462
5574.000000;0.109553
5573.000000;0.109665
5572.000000;0.109862
5571.000000;0.110106
5570.000000;0.110295
5569.000000;0.110399
5568.000000;0.110493
5567.000000;0.110620
5566.000000;0.110724
5565.000000;0.110750
5564.000000;0.110737
5563.000000;0.110744
5562.000000;0.110769
5561.000000;0.110766
5560.000000;0.110721
5559.000000;0.110671
5558.000000;0.110664
5557.000000;0.110722
5556.000000;0.110851
5555.000000;0.111065
5554.000000;0.111388
5553.000000;0.111798
5552.000000;0.112219
5551.000000;0.112593
5550.000000;0.112934
5549.000000;0.113271
5548.000000;0.113555
5547.000000;0.113695
5546.000000;0.113682
5545.000000;0.113580
5544.000000;0.113410
5543.000000;0.113111
5542.000000;0.112695
5541.000000;0.112318
5540.000000;0.112164
5539.000000;0.112282
5538.000000;0.112570
5537.000000;0.112882
5536.000000;0.113155
5535.000000;0.113433
5534.000000;0.113767
5533.000000;0.114094
5532.000000;0.114268
5531.000000;0.114227
5530.000000;0.114062
5529.000000;0.113868
5528.000000;0.113600
5527.000000;0.113183
5526.000000;0.112722
5525.000000;0.112475
5524.000000;0.112582
5523.000000;0.112901
5522.000000;0.113212
5521.000000;0.113490
5520.000000;0.113904
5519.000000;0.114569
5518.000000;0.115338
5517.000000;0.115897
5516.000000;0.116094
5515.000000;0.116059
5514.000000;0.115988
5513.000000;0.115880
5512.000000;0.115624
5511.000000;0.115375
5510.000000;0.115527
5509.000000;0.116192
5508.000000;0.116974
5507.000000;0.117485
5506.000000;0.117876
5505.000000;0.118519
5504.000000;0.119313
5503.000000;0.119734
5502.000000;0.119623
5501.000000;0.119397
5500.000000;0.119301
5499.000000;0.118984
5498.000000;0.118112
5497.000000;0.117212
5496.000000;0.117428
5495.000000;0.119196
5494.000000;0.121691
5493.000000;0.123873
5492.000000;0.125730
5491.000000;0.128075
5490.000000;0.131058
5489.000000;0.133596
5488.000000;0.134630
5487.000000;0.134348
5486.000000;0.133632
5485.000000;0.132650
5484.000000;0.130795
5483.000000;0.127948
5482.000000;0.124957
5481.000000;0.122619
5480.000000;0.120920
5479.000000;0.119928
5478.000000;0.120490
5477.000000;0.123085
5476.000000;0.126669
5475.000000;0.129557
5474.000000;0.131438
5473.000000;0.133445
5472.000000;0.135991
5471.000000;0.137935
5470.000000;0.138319
5469.000000;0.137741
5468.000000;0.137289
5467.000000;0.137049
5466.000000;0.136433
5465.000000;0.135567
5464.000000;0.135544
5463.000000;0.137134
5462.000000;0.139815
5461.000000;0.142312
5460.000000;0.143832
5459.000000;0.144652
5458.000000;0.145403
5457.000000;0.146000
5456.000000;0.145769
5455.000000;0.144490
5454.000000;0.142831
5453.000000;0.141711
5452.000000;0.141426
5451.000000;0.141549
5450.000000;0.141777
5449.000000;0.142756
5448.000000;0.145542
5447.000000;0.150084
5446.000000;0.154768
5445.000000;0.158313
5444.000000;0.161612
5443.000000;0.166173
5442.000000;0.171229
5441.000000;0.174216
5440.000000;0.174141
5439.000000;0.172999
5438.000000;0.173177
5437.000000;0.174562
5436.000000;0.175319
5435.000000;0.174631
5434.000000;0.173489
5433.000000;0.173470
5432.000000;0.175367
5431.000000;0.178653
5430.000000;0.182078
5429.000000;0.184837
5428.000000;0.187055
5427.000000;0.189084
5426.000000;0.190528
5425.000000;0.190478
5424.000000;0.188707
5423.000000;0.186036
5422.000000;0.183441
5421.000000;0.181101
5420.000000;0.178500
5419.000000;0.175417
5418.000000;0.172927
5417.000000;0.173143
5416.000000;0.177214
5415.000000;0.183969
5414.000000;0.191232
5413.000000;0.198336
5412.000000;0.206314
5411.000000;0.215263
5410.000000;0.223151
5409.000000;0.228151
5408.000000;0.230792
5407.000000;0.232487
5406.000000;0.232984
5405.000000;0.231014
5404.000000;0.226868
5403.000000;0.222554
5402.000000;0.219575
5401.000000;0.217905
5400.000000;0.217340
5399.000000;0.218228
5398.000000;0.220761
5397.000000;0.224960
5396.000000;0.230893
5395.000000;0.238237
5394.000000;0.245841
5393.000000;0.252502
5392.000000;0.258264
5391.000000;0.263834
5390.000000;0.269044
5389.000000;0.273131
5388.000000;0.276170
5387.000000;0.279073
5386.000000;0.282130
5385.000000;0.284815
5384.000000;0.287202
5383.000000;0.290303
5382.000000;0.294461
5381.000000;0.298929
5380.000000;0.303673
5379.000000;0.309658
5378.000000;0.316919
5377.000000;0.324085
5376.000000;0.330389
5375.000000;0.336897
5374.000000;0.344687
5373.000000;0.352844
5372.000000;0.359655
5371.000000;0.364837
5370.000000;0.369261
5369.000000;0.373183
5368.000000;0.376181
5367.000000;0.378781
5366.000000;0.382578
5365.000000;0.388471
5364.000000;0.395848
5363.000000;0.403885
5362.000000;0.412516
5361.000000;0.421784
5360.000000;0.431174
5359.000000;0.440103
5358.000000;0.448897
5357.000000;0.458707
5356.000000;0.470388
5355.000000;0.483774
5354.000000;0.497924
5353.000000;0.512048
5352.000000;0.526225
5351.000000;0.541003
5350.000000;0.556053
5349.000000;0.570139
5348.000000;0.583186
5347.000000;0.597052
5346.000000;0.613052
5345.000000;0.629785
5344.000000;0.644802
5343.000000;0.658230
5342.000000;0.673049
5341.000000;0.690874
5340.000000;0.709688
5339.000000;0.726950
5338.000000;0.742823
5337.000000;0.758831
5336.000000;0.774967
5335.000000;0.790102
5334.000000;0.804226
5333.000000;0.818437
5332.000000;0.833092
5331.000000;0.847767
5330.000000;0.862723
5329.000000;0.878770
5328.000000;0.895919
5327.000000;0.913523
5326.000000;0.931818
5325.000000;0.951631
5324.000000;0.972181
5323.000000;0.991346
5322.000000;1.008754
5321.000000;1.026274
5320.000000;1.044962
5319.000000;1.063783
5318.000000;1.082000
5317.000000;1.100624
5316.000000;1.120549
5315.000000;1.141275
5314.000000;1.162258
5313.000000;1.183644
5312.000000;1.204909
5311.000000;1.225013
5310.000000;1.244433
5309.000000;1.264769
5308.000000;1.285991
5307.000000;1.306301
5306.000000;1.325217
5305.000000;1.344060
5304.000000;1.362794
5303.000000;1.379498
5302.000000;1.393717
5301.000000;1.407262
5300.000000;1.420812
5299.000000;1.432813
5298.000000;1.442789
5297.000000;1.452579
5296.000000;1.463082
5295.000000;1.472958
5294.000000;1.481828
5293.000000;1.491416
5292.000000;1.502109
5291.000000;1.511844
5290.000000;1.519717
5289.000000;1.527555
5288.000000;1.536422
5287.000000;1.544581
5286.000000;1.550359
5285.000000;1.554196
5284.000000;1.556874
5283.000000;1.558436
5282.000000;1.559572
5281.000000;1.561378
5280.000000;1.563211
5279.000000;1.563353
5278.000000;1.562171
5277.000000;1.561737
5276.000000;1.562319
5275.000000;1.562364
5274.000000;1.561878
5273.000000;1.562567
5272.000000;1.564381
5271.000000;1.565342
5270.000000;1.565180
5269.000000;1.565796
5268.000000;1.568008
5267.000000;1.570997
5266.000000;1.574712
5265.000000;1.579798
5264.000000;1.585090
5263.000000;1.588507
5262.000000;1.590474
5261.000000;1.592869
5260.000000;1.594863
5259.000000;1.594037
5258.000000;1.591178
5257.000000;1.589557
5256.000000;1.589690
5255.000000;1.589060
5254.000000;1.587136
5253.000000;1.586283
5252.000000;1.587161
5251.000000;1.587628
5250.000000;1.587102
5249.000000;1.587742
5248.000000;1.590505
5247.000000;1.593714
5246.000000;1.596244
5245.000000;1.598715
5244.000000;1.600657
5243.000000;1.600367
5242.000000;1.598224
5241.000000;1.596299
5240.000000;1.594198
5239.000000;1.589506
5238.000000;1.582761
5237.000000;1.577640
5236.000000;1.575461
5235.000000;1.573776
5234.000000;1.571419
5233.000000;1.570604
5232.000000;1.572633
5231.000000;1.575478
5230.000000;1.577300
5229.000000;1.579129
5228.000000;1.582148
5227.000000;1.585326
5226.000000;1.587548
5225.000000;1.589520
5224.000000;1.591748
5223.000000;1.593085
5222.000000;1.592880
5221.000000;1.592129
5220.000000;1.591320
5219.000000;1.589472
5218.000000;1.586328
5217.000000;1.583198
5216.000000;1.580628
5215.000000;1.577791
5214.000000;1.574874
5213.000000;1.573451
5212.000000;1.573824
5211.000000;1.574480
5210.000000;1.575089
5209.000000;1.577384
5208.000000;1.581802
5207.000000;1.586121
5206.000000;1.588834
5205.000000;1.590997
5204.000000;1.593264
5203.000000;1.594152
5202.000000;1.592588
5201.000000;1.589538
5200.000000;1.585989
5199.000000;1.581686
5198.000000;1.576975
5197.000000;1.573457
5196.000000;1.571702
5195.000000;1.570630
5194.000000;1.569839
5193.000000;1.570012
5192.000000;1.570602
5191.000000;1.569776
5190.000000;1.567458
5189.000000;1.565877
5188.000000;1.566270
5187.000000;1.567637
5186.000000;1.569196
5185.000000;1.571357
5184.000000;1.573662
5183.000000;1.574613
5182.000000;1.574199
5181.000000;1.573835
5180.000000;1.573518
5179.000000;1.571917
5178.000000;1.569437
5177.000000;1.567998
5176.000000;1.567489
5175.000000;1.565946
5174.000000;1.563598
5173.000000;1.563016
5172.000000;1.564583
5171.000000;1.565530
5170.000000;1.564385
5169.000000;1.562811
5168.000000;1.561945
5167.000000;1.560739
5166.000000;1.559094
5165.000000;1.558941
5164.000000;1.560710
5163.000000;1.562060
5162.000000;1.561636
5161.000000;1.561018
5160.000000;1.561424
5159.000000;1.561714
5158.000000;1.561052
5157.000000;1.560499
5156.000000;1.560504
5155.000000;1.559749
5154.000000;1.557887
5153.000000;1.556510
5152.000000;1.556182
5151.000000;1.555430
5150.000000;1.553750
5149.000000;1.552630
5148.000000;1.552607
5147.000000;1.552229
5146.000000;1.550977
5145.000000;1.550272
5144.000000;1.550498
5143.000000;1.550145
5142.000000;1.548919
5141.000000;1.548651
5140.000000;1.549942
5139.000000;1.550984
5138.000000;1.550678
5137.000000;1.550037
5136.000000;1.549468
5135.000000;1.547811
5134.000000;1.545267
5133.000000;1.544098
5132.000000;1.545089
5131.000000;1.546256
5130.000000;1.546222
5129.000000;1.545991
5128.000000;1.546163
5127.000000;1.545448
5126.000000;1.543379
5125.000000;1.541568
5124.000000;1.540883
5123.000000;1.540278
5122.000000;1.539493
5121.000000;1.539909
5120.000000;1.541569
5119.000000;1.542377
5118.000000;1.541557
5117.000000;1.540905
5116.000000;1.541439
5115.000000;1.541778
5114.000000;1.540979
5113.000000;1.540051
5112.000000;1.539422
5111.000000;1.538000
5110.000000;1.535998
5109.000000;1.535608
5108.000000;1.537484
5107.000000;1.539468
5106.000000;1.540057
5105.000000;1.540239
5104.000000;1.540626
5103.000000;1.539939
5102.000000;1.537841
5101.000000;1.536250
5100.000000;1.536210
5099.000000;1.536324
5098.000000;1.535679
5097.000000;1.535484
5096.000000;1.536334
5095.000000;1.536720
5094.000000;1.535751
5093.000000;1.534689
5092.000000;1.534423
5091.000000;1.534105
5090.000000;1.533542
5089.000000;1.534114
5088.000000;1.536014
5087.000000;1.537304
5086.000000;1.537059
5085.000000;1.536767
5084.000000;1.537313
5083.000000;1.537451
5082.000000;1.536514
5081.000000;1.535702
5080.000000;1.535340
5079.000000;1.533849
5078.000000;1.530916
5077.000000;1.528800
5076.000000;1.528874
5075.000000;1.529696
5074.000000;1.529822
5073.000000;1.529904
5072.000000;1.530542
5071.000000;1.530781
5070.000000;1.530335
5069.000000;1.530663
5068.000000;1.532269
5067.000000;1.533419
5066.000000;1.532898
5065.000000;1.531603
5064.000000;1.530259
5063.000000;1.528247
5062.000000;1.525813
5061.000000;1.524669
5060.000000;1.525195
5059.000000;1.525689
5058.000000;1.525458
5057.000000;1.525873
5056.000000;1.527217
5055.000000;1.527459
5054.000000;1.525563
5053.000000;1.523241
5052.000000;1.521999
5051.000000;1.521315
5050.000000;1.520879
5049.000000;1.521692
5048.000000;1.523545
5047.000000;1.524215
5046.000000;1.522746
5045.000000;1.520896
5044.000000;1.519991
5043.000000;1.519168
5042.000000;1.517913
5041.000000;1.517369
5040.000000;1.517815
5039.000000;1.517726
5038.000000;1.516734
5037.000000;1.516602
5036.000000;1.517808
5035.000000;1.518136
5034.000000;1.516238
5033.000000;1.513833
5032.000000;1.512636
5031.000000;1.511963
5030.000000;1.511012
5029.000000;1.510652
5028.000000;1.511167
5027.000000;1.510911
5026.000000;1.509027
5025.000000;1.507063
5024.000000;1.506177
5023.000000;1.505264
5022.000000;1.503372
5021.000000;1.501583
5020.000000;1.500966
5019.000000;1.500853
5018.000000;1.500590
5017.000000;1.500794
5016.000000;1.501427
5015.000000;1.500960
5014.000000;1.498869
5013.000000;1.496709
5012.000000;1.495521
5011.000000;1.494476
5010.000000;1.493064
5009.000000;1.492247
5008.000000;1.492289
5007.000000;1.491773
5006.000000;1.489981
5005.000000;1.488011
5004.000000;1.486454
5003.000000;1.484459
5002.000000;1.482061
5001.000000;1.480731
5000.000000;1.480473
4999.000000;1.479178
4998.000000;1.476041
4997.000000;1.473189
4996.000000;1.472283
4995.000000;1.471980
4994.000000;1.470657
4993.000000;1.468691
4992.000000;1.466932
4991.000000;1.464989
4990.000000;1.462658
4989.000000;1.460900
4988.000000;1.460048
4987.000000;1.458937
4986.000000;1.456893
4985.000000;1.454691
4984.000000;1.452642
4983.000000;1.449908
4982.000000;1.446627
4981.000000;1.444376
4980.000000;1.443624
4979.000000;1.442971
4978.000000;1.441687
4977.000000;1.440698
4976.000000;1.440155
4975.000000;1.438531
4974.000000;1.435274
4973.000000;1.432011
4972.000000;1.429965
4971.000000;1.428405
4970.000000;1.426583
4969.000000;1.424942
4968.000000;1.423499
4967.000000;1.421273
4966.000000;1.418327
4965.000000;1.416126
4964.000000;1.414892
4963.000000;1.412934
4962.000000;1.409541
4961.000000;1.406217
4960.000000;1.403985
4959.000000;1.401863
4958.000000;1.399134
4957.000000;1.396838
4956.000000;1.395701
4955.000000;1.394676
4954.000000;1.392742
4953.000000;1.390331
4952.000000;1.387961
4951.000000;1.385302
4950.000000;1.382490
4949.000000;1.380413
4948.000000;1.378870
4947.000000;1.376383
4946.000000;1.372614
4945.000000;1.369000
4944.000000;1.366236
4943.000000;1.363270
4942.000000;1.359544
4941.000000;1.356062
4940.000000;1.353368
4939.000000;1.350641
4938.000000;1.347590
4937.000000;1.345161
4936.000000;1.343494
4935.000000;1.341277
4934.000000;1.338060
4933.000000;1.335101
4932.000000;1.332946
4931.000000;1.330326
4930.000000;1.326534
4929.000000;1.322825
4928.000000;1.320240
4927.000000;1.317963
4926.000000;1.314971
4925.000000;1.311620
4924.000000;1.308462
4923.000000;1.305163
4922.000000;1.301662
4921.000000;1.298818
4920.000000;1.296901
4919.000000;1.294888
4918.000000;1.292122
4917.000000;1.289216
4916.000000;1.286598
4915.000000;1.283727
4914.000000;1.280412
4913.000000;1.277303
4912.000000;1.274372
4911.000000;1.270575
4910.000000;1.265777
4909.000000;1.261376
4908.000000;1.258299
4907.000000;1.255911
4906.000000;1.253450
4905.000000;1.251007
4904.000000;1.248444
4903.000000;1.245027
4902.000000;1.240897
4901.000000;1.237285
4900.000000;1.234565
4899.000000;1.231649
4898.000000;1.227975
4897.000000;1.224469
4896.000000;1.221744
4895.000000;1.218969
4894.000000;1.215362
4893.000000;1.211398
4892.000000;1.207728
4891.000000;1.204214
4890.000000;1.200724
4889.000000;1.197613
4888.000000;1.194752
4887.000000;1.191364
4886.000000;1.187405
4885.000000;1.183836
4884.000000;1.181008
4883.000000;1.178098
4882.000000;1.174600
4881.000000;1.170999
4880.000000;1.167524
4879.000000;1.163671
4878.000000;1.159492
4877.000000;1.155902
4876.000000;1.153137
4875.000000;1.150272
4874.000000;1.146796
4873.000000;1.143333
4872.000000;1.140254
4871.000000;1.136963
4870.000000;1.133144
4869.000000;1.129394
4868.000000;1.126019
4867.000000;1.122496
4866.000000;1.118660
4865.000000;1.115137
4864.000000;1.112106
4863.000000;1.108914
4862.000000;1.105434
4861.000000;1.102453
4860.000000;1.100148
4859.000000;1.097496
4858.000000;1.093858
4857.000000;1.089899
4856.000000;1.086286
4855.000000;1.082737
4854.000000;1.078969
4853.000000;1.075402
4852.000000;1.072250
4851.000000;1.069013
4850.000000;1.065482
4849.000000;1.062191
4848.000000;1.059319
4847.000000;1.056187
4846.000000;1.052406
4845.000000;1.048520
4844.000000;1.045001
4843.000000;1.041595
4842.000000;1.038133
4841.000000;1.034951
4840.000000;1.032037
4839.000000;1.028775
4838.000000;1.025009
4837.000000;1.021377
4836.000000;1.018172
4835.000000;1.014889
4834.000000;1.011298
4833.000000;1.007914
4832.000000;1.004954
4831.000000;1.001855
4830.000000;0.998307
4829.000000;0.994784
4828.000000;0.991580
4827.000000;0.988293
4826.000000;0.984702
4825.000000;0.981194
4824.000000;0.977903
4823.000000;0.974375
4822.000000;0.970526
4821.000000;0.966953
4820.000000;0.963895
4819.000000;0.960826
4818.000000;0.957475
4817.000000;0.954282
4816.000000;0.951412
4815.000000;0.948325
4814.000000;0.944799
4813.000000;0.941418
4812.000000;0.938534
4811.000000;0.935618
4810.000000;0.932192
4809.000000;0.928541
4808.000000;0.925046
4807.000000;0.921593
4806.000000;0.918145
4805.000000;0.915084
4804.000000;0.912461
4803.000000;0.909708
4802.000000;0.906508
4801.000000;0.903261
4800.000000;0.900254
4799.000000;0.897136
4798.000000;0.893632
4797.000000;0.890051
4796.000000;0.886673
4795.000000;0.883327
4794.000000;0.879967
4793.000000;0.876912
4792.000000;0.874185
4791.000000;0.871292
4790.000000;0.868026
4789.000000;0.864814
4788.000000;0.861922
4787.000000;0.859041
4786.000000;0.855962
4785.000000;0.852960
4784.000000;0.850133
4783.000000;0.847100
4782.000000;0.843716
4781.000000;0.840423
4780.000000;0.837528
4779.000000;0.834761
4778.000000;0.831840
4777.000000;0.828852
4776.000000;0.825795
4775.000000;0.822447
4774.000000;0.818972
4773.000000;0.815960
4772.000000;0.813523
4771.000000;0.811023
4770.000000;0.808006
4769.000000;0.804775
4768.000000;0.801725
4767.000000;0.798764
4766.000000;0.795776
4765.000000;0.792990
4764.000000;0.790519
4763.000000;0.788065
4762.000000;0.785415
4761.000000;0.782725
4760.000000;0.780074
4759.000000;0.777266
4758.000000;0.774299
4757.000000;0.771474
4756.000000;0.768813
4755.000000;0.765965
4754.000000;0.762875
4753.000000;0.759940
4752.000000;0.757289
4751.000000;0.754561
4750.000000;0.751616
4749.000000;0.748836
4748.000000;0.746421
4747.000000;0.744032
4746.000000;0.741394
4745.000000;0.738703
4744.000000;0.736140
4743.000000;0.733557
4742.000000;0.730904
4741.000000;0.728412
4740.000000;0.726112
4739.000000;0.723692
4738.000000;0.721065
4737.000000;0.718529
4736.000000;0.716167
4735.000000;0.713675
4734.000000;0.710972
4733.000000;0.708404
4732.000000;0.706101
4731.000000;0.703737
4730.000000;0.701148
4729.000000;0.698626
4728.000000;0.696340
4727.000000;0.694048
4726.000000;0.691627
4725.000000;0.689332
4724.000000;0.687263
4723.000000;0.685118
4722.000000;0.682738
4721.000000;0.680380
4720.000000;0.678197
4719.000000;0.675961
4718.000000;0.673562
4717.000000;0.671251
4716.000000;0.669154
4715.000000;0.667036
4714.000000;0.664772
4713.000000;0.662566
4712.000000;0.660495
4711.000000;0.658347
4710.000000;0.656083
4709.000000;0.653973
4708.000000;0.652063
4707.000000;0.650028
4706.000000;0.647752
4705.000000;0.645539
4704.000000;0.643557
4703.000000;0.641620
4702.000000;0.639680
4701.000000;0.637982
4700.000000;0.636505
4699.000000;0.634803
4698.000000;0.632675
4697.000000;0.630459
4696.000000;0.628432
4695.000000;0.626455
4694.000000;0.624425
4693.000000;0.622555
4692.000000;0.620920
4691.000000;0.619233
4690.000000;0.617344
4689.000000;0.615477
4688.000000;0.613749
4687.000000;0.611942
4686.000000;0.610006
4685.000000;0.608250
4684.000000;0.606779
4683.000000;0.605242
4682.000000;0.603435
4681.000000;0.601647
4680.000000;0.600127
4679.000000;0.598668
4678.000000;0.597018
4677.000000;0.595277
4676.000000;0.593586
4675.000000;0.591851
4674.000000;0.590053
4673.000000;0.588428
4672.000000;0.587083
4671.000000;0.585803
4670.000000;0.584447
4669.000000;0.583146
4668.000000;0.581909
4667.000000;0.580478
4666.000000;0.578787
4665.000000;0.577144
4664.000000;0.575738
4663.000000;0.574377
4662.000000;0.572917
4661.000000;0.571503
4660.000000;0.570183
4659.000000;0.568737
4658.000000;0.567119
4657.000000;0.565628
4656.000000;0.564426
4655.000000;0.563291
4654.000000;0.562066
4653.000000;0.560909
4652.000000;0.559882
4651.000000;0.558732
4650.000000;0.557322
4649.000000;0.555879
4648.000000;0.554577
4647.000000;0.553280
4646.000000;0.551912
4645.000000;0.550663
4644.000000;0.549603
4643.000000;0.548514
4642.000000;0.547305
4641.000000;0.546211
4640.000000;0.545341
4639.000000;0.544456
4638.000000;0.543388
4637.000000;0.542303
4636.000000;0.541324
4635.000000;0.540309
4634.000000;0.539196
4633.000000;0.538164
4632.000000;0.537254
4631.000000;0.536238
4630.000000;0.535069
4629.000000;0.534034
4628.000000;0.533257
4627.000000;0.532466
4626.000000;0.531467
4625.000000;0.530432
4624.000000;0.529512
4623.000000;0.528560
4622.000000;0.527488
4621.000000;0.526483
4620.000000;0.525640
4619.000000;0.524759
4618.000000;0.523754
4617.000000;0.522854
4616.000000;0.522195
4615.000000;0.521565
4614.000000;0.520776
4613.000000;0.519929
4612.000000;0.519123
4611.000000;0.518282
4610.000000;0.517442
4609.000000;0.516818
4608.000000;0.516396
4607.000000;0.515853
4606.000000;0.515052
4605.000000;0.514245
4604.000000;0.513610
4603.000000;0.513010
4602.000000;0.512372
4601.000000;0.511858
4600.000000;0.511471
4599.000000;0.510940
4598.000000;0.510200
4597.000000;0.509567
4596.000000;0.509203
4595.000000;0.508843
4594.000000;0.508262
4593.000000;0.507621
4592.000000;0.507091
4591.000000;0.506567
4590.000000;0.505974
4589.000000;0.505479
4588.000000;0.505159
4587.000000;0.504819
4586.000000;0.504365
4585.000000;0.503989
4584.000000;0.503783
4583.000000;0.503547
4582.000000;0.503183
4581.000000;0.502884
4580.000000;0.502745
4579.000000;0.502581
4578.000000;0.502311
4577.000000;0.502126
4576.000000;0.502077
4575.000000;0.501928
4574.000000;0.501588
4573.000000;0.501298
4572.000000;0.501182
4571.000000;0.501044
4570.000000;0.500801
4569.000000;0.500669
4568.000000;0.500725
4567.000000;0.500716
4566.000000;0.500538
4565.000000;0.500451
4564.000000;0.500607
4563.000000;0.500775
4562.000000;0.500788
4561.000000;0.500817
4560.000000;0.500984
4559.000000;0.501130
4558.000000;0.501201
4557.000000;0.501417
4556.000000;0.501820
4555.000000;0.502094
4554.000000;0.502104
4553.000000;0.502166
4552.000000;0.502518
4551.000000;0.502953
4550.000000;0.503255
4549.000000;0.503577
4548.000000;0.504079
4547.000000;0.504590
4546.000000;0.504942
4545.000000;0.505268
4544.000000;0.505686
4543.000000;0.506054
4542.000000;0.506286
4541.000000;0.506562
4540.000000;0.506979
4539.000000;0.507362
4538.000000;0.507638
4537.000000;0.508025
4536.000000;0.508615
4535.000000;0.509176
4534.000000;0.509570
4533.000000;0.509984
4532.000000;0.510518
4531.000000;0.510964
4530.000000;0.511236
4529.000000;0.511580
4528.000000;0.512151
4527.000000;0.512764
4526.000000;0.513292
4525.000000;0.513882
4524.000000;0.514561
4523.000000;0.515071
4522.000000;0.515339
4521.000000;0.515662
4520.000000;0.516191
4519.000000;0.516677
4518.000000;0.516960
4517.000000;0.517261
4516.000000;0.517735
4515.000000;0.518183
4514.000000;0.518485
4513.000000;0.518875
4512.000000;0.519509
4511.000000;0.520189
4510.000000;0.520744
4509.000000;0.521281
4508.000000;0.521816
4507.000000;0.522133
4506.000000;0.522237
4505.000000;0.522500
4504.000000;0.523091
4503.000000;0.523714
4502.000000;0.524179
4501.000000;0.524739
4500.000000;0.525596
4499.000000;0.526542
4498.000000;0.527384
4497.000000;0.528275
4496.000000;0.529308
4495.000000;0.530239
4494.000000;0.530902
4493.000000;0.531489
4492.000000;0.532147
4491.000000;0.532734
4490.000000;0.533239
4489.000000;0.533974
4488.000000;0.535056
4487.000000;0.536136
4486.000000;0.536951
4485.000000;0.537700
4484.000000;0.538602
4483.000000;0.539515
4482.000000;0.540307
4481.000000;0.541165
4480.000000;0.542239
4479.000000;0.543360
4478.000000;0.544398
4477.000000;0.545497
4476.000000;0.546723
4475.000000;0.547885
4474.000000;0.548926
4473.000000;0.550075
4472.000000;0.551406
4471.000000;0.552684
4470.000000;0.553848
4469.000000;0.555142
4468.000000;0.556607
4467.000000;0.557925
4466.000000;0.558992
4465.000000;0.560113
4464.000000;0.561431
4463.000000;0.562712
4462.000000;0.563902
4461.000000;0.565320
4460.000000;0.567034
4459.000000;0.568644
4458.000000;0.569971
4457.000000;0.571363
4456.000000;0.573051
4455.000000;0.574776
4454.000000;0.576358
4453.000000;0.578033
4452.000000;0.579891
4451.000000;0.581586
4450.000000;0.582949
4449.000000;0.584343
4448.000000;0.586047
4447.000000;0.587832
4446.000000;0.589464
4445.000000;0.591070
4444.000000;0.592698
4443.000000;0.594103
4442.000000;0.595292
4441.000000;0.596713
4440.000000;0.598565
4439.000000;0.600478
4438.000000;0.602193
4437.000000;0.603969
4436.000000;0.605996
4435.000000;0.608019
4434.000000;0.609877
4433.000000;0.611836
4432.000000;0.614022
4431.000000;0.616126
4430.000000;0.617990
4429.000000;0.619910
4428.000000;0.622064
4427.000000;0.624212
4426.000000;0.626277
4425.000000;0.628537
4424.000000;0.630980
4423.000000;0.633128
4422.000000;0.634851
4421.000000;0.636663
4420.000000;0.638863
4419.000000;0.641118
4418.000000;0.643226
4417.000000;0.645544
4416.000000;0.648228
4415.000000;0.650804
4414.000000;0.652939
4413.000000;0.654962
4412.000000;0.657182
4411.000000;0.659376
4410.000000;0.661402
4409.000000;0.663614
4408.000000;0.666222
4407.000000;0.668904
4406.000000;0.671453
4405.000000;0.674118
4404.000000;0.676928
4403.000000;0.679430
4402.000000;0.681506
4401.000000;0.683714
4400.000000;0.686387
4399.000000;0.689133
4398.000000;0.691640
4397.000000;0.694195
4396.000000;0.696987
4395.000000;0.699676
4394.000000;0.702106
4393.000000;0.704682
4392.000000;0.707587
4391.000000;0.710415
4390.000000;0.713000
4389.000000;0.715787
4388.000000;0.718949
4387.000000;0.721984
4386.000000;0.724636
4385.000000;0.727365
4384.000000;0.730419
4383.000000;0.733333
4382.000000;0.735842
4381.000000;0.738423
4380.000000;0.741402
4379.000000;0.744398
4378.000000;0.747136
4377.000000;0.749981
4376.000000;0.753146
4375.000000;0.756255
4374.000000;0.759153
4373.000000;0.762279
4372.000000;0.765756
4371.000000;0.769044
4370.000000;0.771951
4369.000000;0.775038
4368.000000;0.778588
4367.000000;0.782170
4366.000000;0.785610
4365.000000;0.789325
4364.000000;0.793248
4363.000000;0.796582
4362.000000;0.799144
4361.000000;0.801792
4360.000000;0.804972
4359.000000;0.808094
4358.000000;0.810917
4357.000000;0.814236
4356.000000;0.818489
4355.000000;0.822927
4354.000000;0.826913
4353.000000;0.830874
4352.000000;0.835177
4351.000000;0.839252
4350.000000;0.842643
4349.000000;0.845816
4348.000000;0.849184
4347.000000;0.852478
4346.000000;0.855751
4345.000000;0.859759
4344.000000;0.864611
4343.000000;0.869269
4342.000000;0.873109
4341.000000;0.876811
4340.000000;0.880971
4339.000000;0.885125
4338.000000;0.888894
4337.000000;0.892757
4336.000000;0.896959
4335.000000;0.900990
4334.000000;0.904841
4333.000000;0.909350
4332.000000;0.914544
4331.000000;0.919158
4330.000000;0.922599
4329.000000;0.925882
4328.000000;0.929804
4327.000000;0.933797
4326.000000;0.937427
4325.000000;0.941392
4324.000000;0.946081
4323.000000;0.950758
4322.000000;0.955079
4321.000000;0.959795
4320.000000;0.965015
4319.000000;0.969506
4318.000000;0.972766
4317.000000;0.976083
4316.000000;0.980502
4315.000000;0.985420
4314.000000;0.990132
4313.000000;0.995046
4312.000000;1.000345
4311.000000;1.005221
4310.000000;1.009440
4309.000000;1.013909
4308.000000;1.018807
4307.000000;1.023071
4306.000000;1.026620
4305.000000;1.030986
4304.000000;1.036740
4303.000000;1.042401
4302.000000;1.046943
4301.000000;1.051301
4300.000000;1.056262
4299.000000;1.061111
4298.000000;1.065534
4297.000000;1.070497
4296.000000;1.076134
4295.000000;1.081124
4294.000000;1.085221
4293.000000;1.090024
4292.000000;1.096068
4291.000000;1.101690
4290.000000;1.105971
4289.000000;1.110149
4288.000000;1.114852
4287.000000;1.118809
4286.000000;1.121730
4285.000000;1.125447
4284.000000;1.130702
4283.000000;1.135765
4282.000000;1.139797
4281.000000;1.144622
4280.000000;1.151426
4279.000000;1.158697
4278.000000;1.165129
4277.000000;1.171639
4276.000000;1.178653
4275.000000;1.184465
4274.000000;1.188329
4273.000000;1.192110
4272.000000;1.196990
4271.000000;1.201658
4270.000000;1.205525
4269.000000;1.210306
4268.000000;1.216622
4267.000000;1.222535
4266.000000;1.227355
4265.000000;1.233148
4264.000000;1.240484
4263.000000;1.246846
4262.000000;1.251283
4261.000000;1.256543
4260.000000;1.264125
4259.000000;1.271264
4258.000000;1.275541
4257.000000;1.278618
4256.000000;1.282502
4255.000000;1.286373
4254.000000;1.289833
4253.000000;1.295065
4252.000000;1.302846
4251.000000;1.310339
4250.000000;1.315688
4249.000000;1.321033
4248.000000;1.328015
4247.000000;1.334618
4246.000000;1.339324
4245.000000;1.343951
4244.000000;1.349720
4243.000000;1.354853
4242.000000;1.358942
4241.000000;1.364679
4240.000000;1.372704
4239.000000;1.379489
4238.000000;1.383496
4237.000000;1.388281
4236.000000;1.396139
4235.000000;1.404334
4234.000000;1.410709
4233.000000;1.417226
4232.000000;1.424535
4231.000000;1.429134
4230.000000;1.429913
4229.000000;1.431519
4228.000000;1.437097
4227.000000;1.443571
4226.000000;1.447940
4225.000000;1.452345
4224.000000;1.458757
4223.000000;1.464979
4222.000000;1.469925
4221.000000;1.476790
4220.000000;1.486901
4219.000000;1.496076
4218.000000;1.501376
4217.000000;1.505874
4216.000000;1.512376
4215.000000;1.519024
4214.000000;1.524672
4213.000000;1.531898
4212.000000;1.540834
4211.000000;1.547015
4210.000000;1.549510
4209.000000;1.553320
4208.000000;1.559910
4207.000000;1.563901
4206.000000;1.563351
4205.000000;1.564437
4204.000000;1.570725
4203.000000;1.577593
4202.000000;1.581311
4201.000000;1.585190
4200.000000;1.591914
4199.000000;1.598360
4198.000000;1.603291
4197.000000;1.610696
4196.000000;1.620597
4195.000000;1.626074
4194.000000;1.625673
4193.000000;1.627821
4192.000000;1.637277
4191.000000;1.648442
4190.000000;1.655969
4189.000000;1.662649
4188.000000;1.670707
4187.000000;1.676285
4186.000000;1.678227
4185.000000;1.681518
4184.000000;1.687408
4183.000000;1.690091
4182.000000;1.689010
4181.000000;1.692871
4180.000000;1.704347
4179.000000;1.715157
4178.000000;1.720757
4177.000000;1.726817
4176.000000;1.736011
4175.000000;1.741677
4174.000000;1.742220
4173.000000;1.747388
4172.000000;1.760928
4171.000000;1.772652
4170.000000;1.776714
4169.000000;1.780909
4168.000000;1.790461
4167.000000;1.798712
4166.000000;1.801725
4165.000000;1.806907
4164.000000;1.816056
4163.000000;1.818866
4162.000000;1.812973
4161.000000;1.811773
4160.000000;1.821480
4159.000000;1.831376
4158.000000;1.834378
4157.000000;1.839006
4156.000000;1.848784
4155.000000;1.852585
4154.000000;1.845580
4153.000000;1.840980
4152.000000;1.848812
4151.000000;1.860208
4150.000000;1.866741
4149.000000;1.875668
4148.000000;1.890517
4147.000000;1.899126
4146.000000;1.895469
4145.000000;1.893261
4144.000000;1.903333
4143.000000;1.918005
4142.000000;1.929424
4141.000000;1.944359
4140.000000;1.964309
4139.000000;1.974598
4138.000000;1.969982
4137.000000;1.965598
4136.000000;1.971271
4135.000000;1.977537
4134.000000;1.977832
4133.000000;1.985339
4132.000000;2.006340
4131.000000;2.023525
4130.000000;2.024287
4129.000000;2.019914
4128.000000;2.019522
4127.000000;2.015531
4126.000000;2.007554
4125.000000;2.010816
4124.000000;2.027117
4123.000000;2.034961
4122.000000;2.025118
4121.000000;2.017093
4120.000000;2.021343
4119.000000;2.025578
4118.000000;2.023558
4117.000000;2.027492
4116.000000;2.043046
4115.000000;2.054252
4114.000000;2.050485
4113.000000;2.045994
4112.000000;2.051592
4111.000000;2.055526
4110.000000;2.054173
4109.000000;2.064140
4108.000000;2.085548
4107.000000;2.098085
4106.000000;2.099365
4105.000000;2.111425
4104.000000;2.137797
4103.000000;2.150376
4102.000000;2.136327
4101.000000;2.121623
4100.000000;2.122462
4099.000000;2.122319
4098.000000;2.111426
4097.000000;2.109709
4096.000000;2.126249
4095.000000;2.136793
4094.000000;2.127234
4093.000000;2.118924
4092.000000;2.127846
4091.000000;2.139964
4090.000000;2.143411
4089.000000;2.150552
4088.000000;2.165078
4087.000000;2.164915
4086.000000;2.146943
4085.000000;2.141533
4084.000000;2.158650
4083.000000;2.179379
4082.000000;2.195223
4081.000000;2.218803
4080.000000;2.248362
4079.000000;2.247705
4078.000000;2.208146
4077.000000;2.176402
4076.000000;2.168671
4075.000000;2.164610
4074.000000;2.156854
4073.000000;2.162654
4072.000000;2.189375
4071.000000;2.209877
4070.000000;2.209890
4069.000000;2.224528
4068.000000;2.268444
4067.000000;2.292582
4066.000000;2.268072
4065.000000;2.237315
4064.000000;2.228400
4063.000000;2.224386
4062.000000;2.214596
4061.000000;2.219669
4060.000000;2.241259
4059.000000;2.252841
4058.000000;2.258694
4057.000000;2.291233
4056.000000;2.342419
4055.000000;2.353080
4054.000000;2.307519
4053.000000;2.275557
4052.000000;2.290468
4051.000000;2.307130
4050.000000;2.295179
4049.000000;2.291571
4048.000000;2.304721
4047.000000;2.294716
4046.000000;2.267238
4045.000000;2.268483
4044.000000;2.304262
4043.000000;2.334506
4042.000000;2.337555
4041.000000;2.346540
4040.000000;2.377466
4039.000000;2.394459
4038.000000;2.382491
4037.000000;2.385384
4036.000000;2.413335
4035.000000;2.398093
4034.000000;2.334302
4033.000000;2.295158
4032.000000;2.296907
4031.000000;2.291340
4030.000000;2.260728
4029.000000;2.252374
4028.000000;2.273072
4027.000000;2.289755
4026.000000;2.301195
4025.000000;2.334234
4024.000000;2.393622
4023.000000;2.433266
4022.000000;2.415404
4021.000000;2.395124
4020.000000;2.405011
4019.000000;2.406109
4018.000000;2.389800
4017.000000;2.389263
4016.000000;2.412293
4015.000000;2.405772
4014.000000;2.341987
4013.000000;2.302840
4012.000000;2.329150
4011.000000;2.376491
4010.000000;2.408366
4009.000000;2.450756
4008.000000;2.532029
4007.000000;2.573382
4006.000000;2.512451
4005.000000;2.462922
4004.000000;2.455720
4003.000000;2.446257
4002.000000;2.418319
4001.000000;2.408587
4000.000000;2.430451
3999.000000;2.433363
3998.000000;2.413987
3997.000000;2.438238
3996.000000;2.514574
3995.000000;2.551269
3994.000000;2.515771
3993.000000;2.513365
3992.000000;2.573299
3991.000000;2.623260
3990.000000;2.610977
3989.000000;2.581409
3988.000000;2.577843
3987.000000;2.566347
3986.000000;2.530341
3985.000000;2.523831
3984.000000;2.570541
3983.000000;2.576296
3982.000000;2.507625
3981.000000;2.479842
3980.000000;2.515777
3979.000000;2.534273
3978.000000;2.501238
3977.000000;2.503873
3976.000000;2.557019
3975.000000;2.577158
3974.000000;2.555369
3973.000000;2.560469
3972.000000;2.590603
3971.000000;2.554606
3970.000000;2.463956
3969.000000;2.438088
3968.000000;2.515144
3967.000000;2.583949
3966.000000;2.564332
3965.000000;2.554870
3964.000000;2.582324
3963.000000;2.602371
3962.000000;2.589624
3961.000000;2.604541
3960.000000;2.698592
3959.000000;2.744160
3958.000000;2.702068
3957.000000;2.693708
3956.000000;2.745668
3955.000000;2.770080
3954.000000;2.688804
3953.000000;2.626477
3952.000000;2.659711
3951.000000;2.723000
3950.000000;2.727560
3949.000000;2.784857
3948.000000;2.980164
3947.000000;3.061077
3946.000000;2.926836
3945.000000;2.839440
3944.000000;2.822808
3943.000000;2.803318
3942.000000;2.716121
3941.000000;2.727234
3940.000000;2.900904
3939.000000;3.081098
3938.000000;3.094669
3937.000000;3.003363
3936.000000;3.088860
3935.000000;3.044639
3934.000000;2.811777
3933.000000;2.776291
3932.000000;2.889562
3931.000000;2.892329
3930.000000;2.763539
3929.000000;2.727563
3928.000000;2.773172
3927.000000;2.814549
3926.000000;2.839807
3925.000000;2.976276
3924.000000;3.292450
3923.000000;3.329008
3922.000000;3.193568
3921.000000;3.132236
3920.000000;3.125593
3919.000000;3.135653
3918.000000;2.978262
3917.000000;2.972215
3916.000000;3.059418
3915.000000;2.937523
3914.000000;3.226268
3913.000000;3.414834
3912.000000;3.017304
3911.000000;3.343053
3910.000000;3.318459
3909.000000;3.068405
3908.000000;3.131852
3907.000000;2.977149
3906.000000;2.891682
3905.000000;2.756581
3904.000000;2.806818
3903.000000;2.927614
3902.000000;2.928047
3901.000000;3.109281
3900.000000;3.131373
3899.000000;2.928909
3898.000000;3.008927
3897.000000;3.146239
3896.000000;2.982039
3895.000000;3.091015
3894.000000;3.158289
3893.000000;2.992594
3892.000000;3.200702
3891.000000;3.140884
3890.000000;3.133651
3889.000000;3.302551
3888.000000;3.000597
3887.000000;3.041132
3886.000000;3.098489
3885.000000;3.338224
3884.000000;3.062818
3883.000000;2.748927
3882.000000;2.895454
3881.000000;3.221811
3880.000000;3.000521
3879.000000;2.821028
3878.000000;3.058300
3877.000000;3.565874
3876.000000;3.757174
3875.000000;3.271430
3874.000000;2.798690
3873.000000;2.873637
3872.000000;3.774779
3871.000000;3.002924
3870.000000;3.004424
3869.000000;2.851364
3868.000000;2.653518
3867.000000;2.763416
3866.000000;3.011465
3865.000000;2.546710
3864.000000;2.512333
3863.000000;3.025179
3862.000000;2.855367
3861.000000;2.792182
3860.000000;2.681693
3859.000000;2.819785
3858.000000;3.411999
3857.000000;3.357760
3856.000000;3.156208
3855.000000;3.416296
3854.000000;2.918189
3853.000000;2.643643
3852.000000;2.672400
3851.000000;3.023494
3850.000000;3.401553
3849.000000;3.311921
3848.000000;3.278737
3847.000000;3.178943
3846.000000;3.235953
3845.000000;3.311524
3844.000000;3.548799
3843.000000;3.135135
3842.000000;2.919291
3841.000000;3.127164
3840.000000;2.995589
3839.000000;2.609862
3838.000000;2.604521
3837.000000;2.659491
3836.000000;2.482395
3835.000000;2.540848
3834.000000;2.439641
3833.000000;2.131780
3832.000000;2.036350
3831.000000;2.108337
3830.000000;2.230053
3829.000000;2.287916
3828.000000;2.392369
3827.000000;2.548348
3826.000000;2.647852
3825.000000;2.640685
3824.000000;2.763005
3823.000000;3.225416
3822.000000;2.999042
3821.000000;2.699824
3820.000000;2.721601
3819.000000;2.900151
3818.000000;2.896075
3817.000000;3.146587
3816.000000;2.574696
3815.000000;2.198355
3814.000000;2.200969
3813.000000;2.156471
3812.000000;2.106994
3811.000000;2.288458
3810.000000;2.542728
3809.000000;2.560802
3808.000000;2.702700
3807.000000;2.966928
3806.000000;3.141865
3805.000000;3.079996
3804.000000;2.540853
3803.000000;2.214339
3802.000000;2.160976
3801.000000;2.278710
3800.000000;2.323160
3799.000000;2.473729
3798.000000;2.546545
3797.000000;2.206070
3796.000000;2.097847
3795.000000;2.280632
3794.000000;2.435212
3793.000000;2.383865
3792.000000;2.610895
3791.000000;3.174495
3790.000000;3.023506
3789.000000;2.896463
3788.000000;2.785653
3787.000000;2.736417
3786.000000;2.854860
3785.000000;3.002616
3784.000000;2.810956
3783.000000;2.591938
3782.000000;2.657411
3781.000000;2.748662
3780.000000;2.535895
3779.000000;2.375520
3778.000000;2.442759
3777.000000;2.566415
3776.000000;2.616120
3775.000000;2.720137
3774.000000;2.614827
3773.000000;2.387721
3772.000000;2.424326
3771.000000;2.808362
3770.000000;2.922032
3769.000000;2.459071
3768.000000;2.446105
3767.000000;2.733326
3766.000000;2.894010
3765.000000;3.322960
3764.000000;2.662745
3763.000000;2.469793
3762.000000;2.731492
3761.000000;3.130880
3760.000000;2.832086
3759.000000;2.709649
3758.000000;2.908546
3757.000000;2.704613
3756.000000;2.662304
3755.000000;2.663913
3754.000000;2.492417
3753.000000;2.515555
3752.000000;2.638091
3751.000000;2.653634
3750.000000;2.559821
3749.000000;2.482261
3748.000000;2.552022
3747.000000;2.601853
3746.000000;2.596481
3745.000000;2.636156
3744.000000;2.543837
3743.000000;2.526271
3742.000000;2.687610
3741.000000;2.649416
3740.000000;2.520986
3739.000000;2.564842
3738.000000;2.746690
3737.000000;2.686731
3736.000000;2.726846
3735.000000;2.884879
3734.000000;2.637152
3733.000000;2.674520
3732.000000;2.756221
3731.000000;2.643257
3730.000000;2.571912
3729.000000;2.476832
3728.000000;2.491393
3727.000000;2.390723
3726.000000;2.068525
3725.000000;2.071043
3724.000000;2.398478
3723.000000;2.623919
3722.000000;2.829003
3721.000000;3.408779
3720.000000;3.480954
3719.000000;3.049239
3718.000000;3.173398
3717.000000;3.100771
3716.000000;2.897828
3715.000000;3.001545
3714.000000;3.044064
3713.000000;2.753354
3712.000000;2.607857
3711.000000;2.382390
3710.000000;2.166180
3709.000000;2.126822
3708.000000;2.370039
3707.000000;2.516494
3706.000000;2.472092
3705.000000;2.716939
3704.000000;2.900870
3703.000000;3.183526
3702.000000;2.783050
3701.000000;2.519900
3700.000000;2.468360
3699.000000;2.490122
3698.000000;2.542299
3697.000000;2.446941
3696.000000;2.223408
3695.000000;2.217840
3694.000000;2.401167
3693.000000;2.356816
3692.000000;2.290408
3691.000000;2.364122
3690.000000;2.496705
3689.000000;2.409942
3688.000000;2.251846
3687.000000;2.168671
3686.000000;2.276678
3685.000000;3.032766
3684.000000;2.302691
3683.000000;2.111268
3682.000000;2.128502
3681.000000;1.971625
3680.000000;2.062457
3679.000000;2.336527
3678.000000;2.667162
3677.000000;2.670048
3676.000000;2.464617
3675.000000;2.246949
3674.000000;1.979121
3673.000000;1.819052
3672.000000;1.770964
3671.000000;1.740090
3670.000000;1.602590
3669.000000;1.503675
3668.000000;1.524268
3667.000000;1.613099
3666.000000;1.732577
3665.000000;1.773625
3664.000000;1.735227
3663.000000;1.899906
3662.000000;2.228336
3661.000000;2.169979
3660.000000;2.131871
3659.000000;2.235361
3658.000000;2.350459
3657.000000;2.299871
3656.000000;2.207303
3655.000000;2.169170
3654.000000;2.255460
3653.000000;2.343206
3652.000000;2.135038
3651.000000;2.471562
3650.000000;2.407829
3649.000000;2.058587
3648.000000;2.330572
3647.000000;2.410829
3646.000000;2.286357
3645.000000;2.119246
3644.000000;1.916138
3643.000000;1.909655
3642.000000;2.185963
3641.000000;2.811650
3640.000000;2.775969
3639.000000;2.501477
3638.000000;2.595612
3637.000000;2.509726
3636.000000;2.377516
3635.000000;2.706872
3634.000000;2.410159
3633.000000;2.309195
3632.000000;2.637391
3631.000000;2.326289
3630.000000;2.281423
3629.000000;2.365600
3628.000000;2.354395
3627.000000;2.684218
3626.000000;2.691145
3625.000000;2.322657
3624.000000;2.096585
3623.000000;2.201963
3622.000000;2.229820
3621.000000;2.033433
3620.000000;2.054924
3619.000000;2.281027
3618.000000;2.232596
3617.000000;2.112279
3616.000000;2.285793
3615.000000;2.503945
3614.000000;2.642380
3613.000000;2.510315
3612.000000;2.162187
3611.000000;2.080635
3610.000000;2.173616
3609.000000;2.110449
3608.000000;1.920610
3607.000000;1.786675
3606.000000;1.853343
3605.000000;2.053455
3604.000000;2.089863
3603.000000;2.129168
3602.000000;2.476538
3601.000000;2.532265
3600.000000;2.272645
3599.000000;2.212692
3598.000000;2.274912
3597.000000;2.395611
3596.000000;2.273455
3595.000000;2.153940
3594.000000;2.162860
3593.000000;2.326287
3592.000000;2.310048
3591.000000;2.146441
3590.000000;2.297194
3589.000000;2.738183
3588.000000;2.630769
3587.000000;2.708842
3586.000000;2.319619
3585.000000;2.251675
3584.000000;2.744201
3583.000000;2.804415
3582.000000;2.514855
3581.000000;2.286061
3580.000000;2.015463
3579.000000;1.940165
3578.000000;2.072660
3577.000000;2.122545
3576.000000;1.994319
3575.000000;1.949521
3574.000000;2.063572
3573.000000;2.355239
3572.000000;2.402624
3571.000000;2.459976
3570.000000;2.409063
3569.000000;2.048584
3568.000000;2.237226
3567.000000;2.435525
3566.000000;2.375809
3565.000000;2.900645
3564.000000;2.799833
3563.000000;2.516510
3562.000000;2.328747
3561.000000;2.235779
3560.000000;2.148692
3559.000000;2.167935
3558.000000;2.616058
3557.000000;2.473085
3556.000000;2.213337
3555.000000;2.262491
3554.000000;2.396847
3553.000000;2.292782
3552.000000;2.264346
3551.000000;2.303040
3550.000000;2.196106
3549.000000;2.172831
3548.000000;2.202985
3547.000000;2.086696
3546.000000;2.066528
3545.000000;2.533023
3544.000000;3.005779
3543.000000;2.393165
3542.000000;2.376295
3541.000000;2.331462
3540.000000;2.339448
3539.000000;2.656081
3538.000000;2.845227
3537.000000;2.548359
3536.000000;2.241779
3535.000000;2.157171
3534.000000;2.109826
3533.000000;1.965632
3532.000000;1.971332
3531.000000;2.165071
3530.000000;2.120510
3529.000000;2.021244
3528.000000;2.164156
3527.000000;2.372390
3526.000000;2.259633
3525.000000;2.076208
3524.000000;2.125618
3523.000000;2.466193
3522.000000;2.917184
3521.000000;3.082268
3520.000000;2.534864
3519.000000;2.169896
3518.000000;2.138291
3517.000000;2.198135
3516.000000;2.055680
3515.000000;2.023081
3514.000000;2.154435
3513.000000;2.078778
3512.000000;1.968074
3511.000000;2.008554
3510.000000;2.065691
3509.000000;1.998320
3508.000000;1.995580
3507.000000;2.163290
3506.000000;2.153875
3505.000000;2.035049
3504.000000;2.101772
3503.000000;2.420174
3502.000000;2.574011
3501.000000;2.515626
3500.000000;2.830556
3499.000000;2.517769
3498.000000;2.402889
3497.000000;2.663176
3496.000000;3.054970
3495.000000;2.621370
3494.000000;2.404399
3493.000000;2.393959
3492.000000;2.131605
3491.000000;1.922040
3490.000000;1.930424
3489.000000;2.090849
3488.000000;2.158668
3487.000000;2.304190
3486.000000;2.409073
3485.000000;2.065259
3484.000000;1.961250
3483.000000;2.149088
3482.000000;2.237726
3481.000000;2.126227
3480.000000;2.449782
3479.000000;2.790268
3478.000000;2.774526
3477.000000;2.788938
3476.000000;2.549354
3475.000000;2.385173
3474.000000;2.251908
3473.000000;2.275180
3472.000000;2.230341
3471.000000;2.127784
3470.000000;2.191702
3469.000000;2.261219
3468.000000;2.314436
3467.000000;2.646175
3466.000000;2.885524
3465.000000;2.832019
3464.000000;3.024911
3463.000000;3.005747
3462.000000;2.491689
3461.000000;2.160448
3460.000000;2.231838
3459.000000;2.291134
3458.000000;2.322229
3457.000000;2.421106
3456.000000;2.336683
3455.000000;2.395984
3454.000000;2.284030
3453.000000;2.209055
3452.000000;2.284880
3451.000000;2.281091
3450.000000;2.574183
3449.000000;2.802507
3448.000000;2.377533
3447.000000;2.085331
3446.000000;2.051387
3445.000000;2.284541
3444.000000;2.482542
3443.000000;2.251657
3442.000000;2.270249
3441.000000;2.339095
3440.000000;2.304998
3439.000000;2.517221
3438.000000;2.351026
3437.000000;2.041123
3436.000000;1.964238
3435.000000;1.993473
3434.000000;1.998520
3433.000000;1.965937
3432.000000;2.207417
3431.000000;2.460630
3430.000000;2.372183
3429.000000;2.588322
3428.000000;2.269669
3427.000000;2.142537
3426.000000;2.331982
3425.000000;2.493384
3424.000000;2.275527
3423.000000;2.123578
3422.000000;2.267799
3421.000000;2.661939
3420.000000;2.468480
3419.000000;2.173806
3418.000000;2.187922
3417.000000;2.498826
3416.000000;2.546005
3415.000000;2.585039
3414.000000;3.108453
3413.000000;2.293740
3412.000000;2.198859
3411.000000;2.324950
3410.000000;2.226275
3409.000000;2.302346
3408.000000;2.511788
3407.000000;2.239274
3406.000000;2.253609
3405.000000;2.276660
3404.000000;2.219245
3403.000000;2.337316
3402.000000;2.465392
3401.000000;2.370747
3400.000000;2.279436
3399.000000;2.234502
3398.000000;2.252695
3397.000000;2.484559
3396.000000;2.494005
3395.000000;2.538137
3394.000000;2.461475
3393.000000;2.276105
3392.000000;2.342000
3391.000000;2.551873
3390.000000;2.770630
3389.000000;2.485912
3388.000000;2.536308
3387.000000;2.329284
3386.000000;2.119217
3385.000000;2.043038
3384.000000;1.942984
3383.000000;1.954320
3382.000000;2.190785
3381.000000;2.560129
3380.000000;2.449167
3379.000000;2.298620
3378.000000;2.315068
3377.000000;2.329682
3376.000000;2.128782
3375.000000;1.978511
3374.000000;1.988870
3373.000000;1.988908
3372.000000;2.001442
3371.000000;2.179706
3370.000000;2.087910
3369.000000;1.989920
3368.000000;2.136152
3367.000000;2.368722
3366.000000;2.249278
3365.000000;2.157947
3364.000000;2.269733
3363.000000;2.266882
3362.000000;2.419154
3361.000000;2.347568
3360.000000;2.090621
3359.000000;2.112064
3358.000000;2.219788
3357.000000;2.223631
3356.000000;2.091644
3355.000000;2.035141
3354.000000;2.206093
3353.000000;2.505971
3352.000000;2.719512
3351.000000;2.707869
3350.000000;2.225133
3349.000000;2.050293
3348.000000;2.142367
3347.000000;2.347522
3346.000000;2.278535
3345.000000;2.156406
3344.000000;2.198916
3343.000000;2.168939
3342.000000;2.108241
3341.000000;2.207594
3340.000000;2.345766
3339.000000;2.794482
3338.000000;2.359817
3337.000000;2.001852
3336.000000;1.957870
3335.000000;1.985221
3334.000000;1.917346
3333.000000;1.813459
3332.000000;1.788900
3331.000000;1.912540
3330.000000;2.363975
3329.000000;3.003482
3328.000000;2.178750
3327.000000;1.986371
3326.000000;1.946484
3325.000000;2.070436
3324.000000;2.215642
3323.000000;2.261599
3322.000000;2.343529
3321.000000;2.341249
3320.000000;2.292622
3319.000000;2.359642
3318.000000;2.484880
3317.000000;2.371113
3316.000000;2.377110
3315.000000;2.445684
3314.000000;2.339653
3313.000000;2.101543
3312.000000;1.978117
3311.000000;2.028685
3310.000000;2.120131
3309.000000;2.114141
3308.000000;2.159089
3307.000000;2.314932
3306.000000;2.634586
3305.000000;2.996698
3304.000000;2.378203
3303.000000;2.016306
3302.000000;2.016023
3301.000000;2.186085
3300.000000;2.253024
3299.000000;2.282889
3298.000000;2.769755
3297.000000;2.890798
3296.000000;2.363565
3295.000000;2.257291
3294.000000;2.181937
3293.000000;2.715188
3292.000000;2.511047
3291.000000;2.121018
3290.000000;2.052513
3289.000000;1.923779
3288.000000;1.876308
3287.000000;1.935380
3286.000000;2.031556
3285.000000;2.101310
3284.000000;2.172885
3283.000000;2.388953
3282.000000;2.657109
3281.000000;2.495595
3280.000000;2.595512
3279.000000;2.620533
3278.000000;3.037340
3277.000000;2.620633
3276.000000;2.543214
3275.000000;2.661932
3274.000000;2.416682
3273.000000;2.169427
3272.000000;2.131365
3271.000000;2.268831
3270.000000;2.519599
3269.000000;2.509403
3268.000000;2.338318
3267.000000;2.351707
3266.000000;2.386653
3265.000000;2.401537
3264.000000;2.315605
3263.000000;2.195258
3262.000000;2.236633
3261.000000;2.238511
3260.000000;2.106694
3259.000000;2.041472
3258.000000;2.124057
3257.000000;2.309519
3256.000000;2.363234
3255.000000;2.280236
3254.000000;2.351665
3253.000000;2.762480
3252.000000;2.636741
3251.000000;2.623233
3250.000000;2.378580
3249.000000;2.070026
3248.000000;2.095144
3247.000000;2.224425
3246.000000;2.193998
3245.000000;2.165003
3244.000000;2.410277
3243.000000;2.810062
3242.000000;2.503173
3241.000000;2.212613
3240.000000;2.070185
3239.000000;2.099402
3238.000000;2.278111
3237.000000;2.446127
3236.000000;2.200606
3235.000000;1.972619
3234.000000;1.944708
3233.000000;2.043125
3232.000000;2.153876
3231.000000;2.255272
3230.000000;2.748818
3229.000000;2.422872
3228.000000;2.217929
3227.000000;2.126202
3226.000000;2.029090
3225.000000;2.102301
3224.000000;2.342126
3223.000000;2.437099
3222.000000;2.690279
3221.000000;2.573834
3220.000000;2.335448
3219.000000;2.165571
3218.000000;1.921438
3217.000000;1.783557
3216.000000;1.792331
3215.000000;2.000507
3214.000000;2.272290
3213.000000;1.976214
3212.000000;1.717847
3211.000000;1.633491
3210.000000;1.663580
3209.000000;1.770448
3208.000000;1.907387
3207.000000;2.130160
3206.000000;2.205116
3205.000000;1.933437
3204.000000;1.749020
3203.000000;1.686291
3202.000000;1.783790
3201.000000;2.128130
3200.000000;3.393050
3199.000000;2.242646
3198.000000;2.063951
3197.000000;1.996374
3196.000000;2.072422
3195.000000;2.208879
3194.000000;2.152464
3193.000000;1.893732
3192.000000;1.875508
3191.000000;1.947452
3190.000000;2.376595
3189.000000;2.463281
3188.000000;1.861022
3187.000000;1.766304
3186.000000;1.798964
3185.000000;1.879110
3184.000000;1.932342
3183.000000;2.101405
3182.000000;2.509709
3181.000000;2.874199
3180.000000;2.149726
3179.000000;1.882249
3178.000000;1.900595
3177.000000;2.058633
3176.000000;2.037431
3175.000000;1.950734
3174.000000;1.895908
3173.000000;1.898818
3172.000000;2.016916
3171.000000;2.269979
3170.000000;2.534451
3169.000000;2.373045
3168.000000;2.158804
3167.000000;2.057445
3166.000000;1.960441
3165.000000;1.877552
3164.000000;1.847325
3163.000000;1.837509
3162.000000;1.815141
3161.000000;1.837661
3160.000000;1.913865
3159.000000;2.383187
3158.000000;2.525482
3157.000000;2.164569
3156.000000;2.423391
3155.000000;2.592300
3154.000000;2.423891
3153.000000;2.240037
3152.000000;1.980525
3151.000000;1.812030
3150.000000;1.803792
3149.000000;1.970688
3148.000000;2.313195
3147.000000;2.304079
3146.000000;2.179452
3145.000000;2.140369
3144.000000;2.282369
3143.000000;2.582120
3142.000000;2.343982
3141.000000;2.347292
3140.000000;2.326408
3139.000000;2.121900
3138.000000;2.000993
3137.000000;1.940723
3136.000000;1.918697
3135.000000;1.942270
3134.000000;2.083058
3133.000000;2.325363
3132.000000;2.313666
3131.000000;2.166288
3130.000000;2.178787
3129.000000;2.373694
3128.000000;2.384542
3127.000000;2.331503
3126.000000;2.675283
3125.000000;2.450351
3124.000000;2.282791
3123.000000;2.284371
3122.000000;2.251631
3121.000000;2.300556
3120.000000;2.528376
3119.000000;2.400661
3118.000000;2.411687
3117.000000;2.804363
3116.000000;4.203780
3115.000000;3.011344
3114.000000;2.507344
3113.000000;2.201683
3112.000000;2.066926
3111.000000;2.055763
3110.000000;2.189247
3109.000000;2.466370
3108.000000;2.596335
3107.000000;2.393488
3106.000000;2.425546
3105.000000;2.716903
3104.000000;2.620165
3103.000000;2.717843
3102.000000;3.035050
3101.000000;2.581107
3100.000000;2.442695
3099.000000;2.395524
3098.000000;2.254711
3097.000000;2.144788
3096.000000;2.108112
3095.000000;2.118405
3094.000000;2.215462
3093.000000;2.386423
3092.000000;2.760534
3091.000000;2.719388
3090.000000;2.716583
3089.000000;2.599168
3088.000000;2.348424
3087.000000;2.327409
3086.000000;2.363708
3085.000000;2.392317
3084.000000;2.308303
3083.000000;2.226335
3082.000000;2.291413
3081.000000;2.589724
3080.000000;2.908524
3079.000000;2.705850
3078.000000;2.882857
3077.000000;3.090185
3076.000000;2.833371
3075.000000;2.903516
3074.000000;2.576351
3073.000000;2.253847
3072.000000;2.172666
3071.000000;2.227683
3070.000000;2.283109
3069.000000;2.305981
3068.000000;2.423014
3067.000000;2.601057
3066.000000;2.734331
3065.000000;2.920242
3064.000000;3.794672
3063.000000;2.741949
3062.000000;2.725248
3061.000000;2.669076
3060.000000;2.406105
3059.000000;2.276500
3058.000000;2.382346
3057.000000;2.485199
3056.000000;2.470582
3055.000000;2.461774
3054.000000;2.276130
3053.000000;2.126963
3052.000000;2.143929
3051.000000;2.286509
3050.000000;2.334239
3049.000000;2.281350
3048.000000;2.330079
3047.000000;2.416707
3046.000000;2.409193
3045.000000;2.336999
3044.000000;2.331266
3043.000000;2.396882
3042.000000;2.434038
3041.000000;2.506037
3040.000000;2.720036
3039.000000;2.675710
3038.000000;2.623015
3037.000000;2.448518
3036.000000;2.165558
3035.000000;2.027607
3034.000000;2.079880
3033.000000;2.292093
3032.000000;2.454268
3031.000000;2.422892
3030.000000;2.473871
3029.000000;2.705037
3028.000000;3.152908
3027.000000;3.254302
3026.000000;2.675317
3025.000000;2.472810
3024.000000;2.483417
3023.000000;2.491668
3022.000000;2.497807
3021.000000;2.501930
3020.000000;2.742151
3019.000000;2.421130
3018.000000;2.176786
3017.000000;2.154008
3016.000000;2.141224
3015.000000;2.170167
3014.000000;2.434285
3013.000000;2.632835
3012.000000;2.492849
3011.000000;2.705388
3010.000000;3.361452
3009.000000;2.677184
3008.000000;2.673184
3007.000000;2.737012
3006.000000;2.524847
3005.000000;2.427237
3004.000000;2.677783
3003.000000;2.653562
3002.000000;2.412828
3001.000000;2.595522
3000.000000;2.560663
2999.000000;2.392908
2998.000000;2.452882
2997.000000;2.551518
2996.000000;2.403994
2995.000000;2.217146
2994.000000;2.169265
2993.000000;2.208370
2992.000000;2.201666
2991.000000;2.222352
2990.000000;2.443403
2989.000000;2.772402
2988.000000;2.542485
2987.000000;2.345435
2986.000000;2.434837
2985.000000;2.821870
2984.000000;2.898645
2983.000000;2.932998
2982.000000;2.634428
2981.000000;2.443755
2980.000000;2.611299
2979.000000;3.284160
2978.000000;3.595857
2977.000000;3.553160
2976.000000;3.216313
2975.000000;2.666277
2974.000000;2.599836
2973.000000;2.790136
2972.000000;3.019826
2971.000000;2.780676
2970.000000;2.650523
2969.000000;2.590685
2968.000000;2.394852
2967.000000;2.258064
2966.000000;2.295923
2965.000000;2.640814
2964.000000;3.169321
2963.000000;3.046438
2962.000000;2.565020
2961.000000;2.326270
2960.000000;2.356190
2959.000000;2.488228
2958.000000;2.574558
2957.000000;2.388719
2956.000000;2.222158
2955.000000;2.218097
2954.000000;2.339274
2953.000000;2.385969
2952.000000;2.647707
2951.000000;3.158555
2950.000000;2.479817
2949.000000;2.422036
2948.000000;2.492649
2947.000000;2.400468
2946.000000;2.386824
2945.000000;2.420209
2944.000000;2.300359
2943.000000;2.212150
2942.000000;2.297971
2941.000000;2.476446
2940.000000;2.353419
2939.000000;2.231865
2938.000000;2.298289
2937.000000;2.459009
2936.000000;2.543091
2935.000000;2.660848
2934.000000;2.756600
2933.000000;2.519896
2932.000000;2.509205
2931.000000;2.605427
2930.000000;2.506642
2929.000000;2.527653
2928.000000;2.908288
2927.000000;2.404424
2926.000000;2.168962
2925.000000;2.157577
2924.000000;2.130673
2923.000000;2.140972
2922.000000;2.309790
2921.000000;2.604025
2920.000000;2.724228
2919.000000;2.585064
2918.000000;2.374373
2917.000000;2.252922
2916.000000;2.356326
2915.000000;2.991680
2914.000000;2.655078
2913.000000;2.223430
2912.000000;2.185903
2911.000000;2.465782
2910.000000;2.766507
2909.000000;2.753861
2908.000000;2.866939
2907.000000;2.509986
2906.000000;2.528522
2905.000000;2.654466
2904.000000;2.466172
2903.000000;2.288503
2902.000000;2.294106
2901.000000;2.396147
2900.000000;2.241840
2899.000000;2.082966
2898.000000;2.035951
2897.000000;2.005991
2896.000000;2.005257
2895.000000;2.115637
2894.000000;2.554775
2893.000000;2.828617
2892.000000;2.463232
2891.000000;2.352357
2890.000000;2.130716
2889.000000;2.003917
2888.000000;2.076554
2887.000000;2.326211
2886.000000;2.375879
2885.000000;2.466507
2884.000000;2.705326
2883.000000;2.430384
2882.000000;2.330675
2881.000000;2.270268
2880.000000;2.166458
2879.000000;2.158669
2878.000000;2.220044
2877.000000;2.278264
2876.000000;2.320024
2875.000000;2.261066
2874.000000;2.199671
2873.000000;2.161685
2872.000000;2.268386
2871.000000;2.676524
2870.000000;2.598129
2869.000000;2.378057
2868.000000;2.410430
2867.000000;2.388678
2866.000000;2.287450
2865.000000;2.255422
2864.000000;2.391552
2863.000000;2.732355
2862.000000;2.848664
2861.000000;2.790765
2860.000000;2.955977
2859.000000;2.881877
2858.000000;2.832477
2857.000000;2.940051
2856.000000;2.568974
2855.000000;2.192625
2854.000000;2.029224
2853.000000;1.998986
2852.000000;2.007598
2851.000000;2.194170
2850.000000;2.779785
2849.000000;2.618051
2848.000000;2.677952
2847.000000;2.489373
2846.000000;2.212440
2845.000000;2.176747
2844.000000;2.144258
2843.000000;2.111115
2842.000000;2.136072
2841.000000;2.428972
2840.000000;2.871927
2839.000000;2.678414
2838.000000;2.611075
2837.000000;2.691425
2836.000000;2.775098
2835.000000;2.572402
2834.000000;2.595796
2833.000000;2.351835
2832.000000;2.068475
2831.000000;2.008137
2830.000000;2.084863
2829.000000;2.239208
2828.000000;2.518784
2827.000000;2.675748
2826.000000;2.369618
2825.000000;2.449322
2824.000000;2.867140
2823.000000;2.703409
2822.000000;2.620800
2821.000000;2.791150
2820.000000;2.641436
2819.000000;2.265167
2818.000000;2.233616
2817.000000;2.510020
2816.000000;2.774637
2815.000000;2.575838
2814.000000;2.453145
2813.000000;2.394338
2812.000000;2.263815
2811.000000;2.200087
2810.000000;2.382156
2809.000000;2.387068
2808.000000;2.142961
2807.000000;2.116096
2806.000000;2.209664
2805.000000;2.429227
2804.000000;2.652073
2803.000000;2.515657
2802.000000;2.616305
2801.000000;2.858366
2800.000000;2.792371
2799.000000;2.703008
2798.000000;2.445207
2797.000000;2.343310
2796.000000;2.329057
2795.000000;2.205049
2794.000000;2.137421
2793.000000;2.217792
2792.000000;2.448625
2791.000000;2.632488
2790.000000;2.484283
2789.000000;2.347027
2788.000000;2.383805
2787.000000;2.340928
2786.000000;2.221446
2785.000000;2.217290
2784.000000;2.259506
2783.000000;2.529567
2782.000000;2.810088
2781.000000;2.374304
2780.000000;2.225572
2779.000000;2.224354
2778.000000;2.112911
2777.000000;2.012904
2776.000000;2.073068
2775.000000;2.259882
2774.000000;2.422704
2773.000000;2.726495
2772.000000;2.608856
2771.000000;2.164023
2770.000000;2.087498
2769.000000;2.233584
2768.000000;2.608828
2767.000000;2.890817
2766.000000;2.391137
2765.000000;2.214853
2764.000000;2.209634
2763.000000;2.155245
2762.000000;2.079272
2761.000000;2.073461
2760.000000;2.105080
2759.000000;2.345039
2758.000000;2.586241
2757.000000;2.250983
2756.000000;2.172993
2755.000000;2.215847
2754.000000;2.142178
2753.000000;2.090219
2752.000000;2.086261
2751.000000;2.123157
2750.000000;2.152363
2749.000000;2.307874
2748.000000;2.674165
2747.000000;2.297655
2746.000000;2.151328
2745.000000;2.242543
2744.000000;2.406236
2743.000000;2.841035
2742.000000;2.537754
2741.000000;2.179140
2740.000000;2.095549
2739.000000;2.139052
2738.000000;2.226816
2737.000000;2.375839
2736.000000;2.709976
2735.000000;2.699056
2734.000000;2.452600
2733.000000;2.464759
2732.000000;2.392073
2731.000000;2.201799
2730.000000;2.128560
2729.000000;2.136126
2728.000000;2.135545
2727.000000;2.139822
2726.000000;2.238493
2725.000000;2.549781
2724.000000;2.684711
2723.000000;2.490878
2722.000000;2.361967
2721.000000;2.328952
2720.000000;2.269710
2719.000000;2.363388
2718.000000;2.889531
2717.000000;2.436619
2716.000000;2.252113
2715.000000;2.350826
2714.000000;2.403062
2713.000000;2.521760
2712.000000;2.775904
2711.000000;2.743789
2710.000000;2.535424
2709.000000;2.555049
2708.000000;2.584587
2707.000000;2.492954
2706.000000;2.465968
2705.000000;2.393976
2704.000000;2.209459
2703.000000;2.089579
2702.000000;2.188926
2701.000000;2.800073
2700.000000;2.728845
2699.000000;2.401986
2698.000000;2.423391
2697.000000;2.429701
2696.000000;2.581764
2695.000000;2.824144
2694.000000;3.157252
2693.000000;3.065152
2692.000000;3.003427
2691.000000;3.125512
2690.000000;3.138129
2689.000000;3.367253
2688.000000;2.972569
2687.000000;2.540373
2686.000000;2.508654
2685.000000;2.762290
2684.000000;2.752990
2683.000000;2.513630
2682.000000;2.508699
2681.000000;2.514427
2680.000000;2.366282
2679.000000;2.324461
2678.000000;2.445036
2677.000000;2.670268
2676.000000;2.714876
2675.000000;2.596201
2674.000000;2.651401
2673.000000;2.914480
2672.000000;2.652897
2671.000000;2.515456
2670.000000;2.861542
2669.000000;3.008796
2668.000000;2.684712
2667.000000;2.542129
2666.000000;2.349308
2665.000000;2.310712
2664.000000;2.557264
2663.000000;2.553411
2662.000000;2.382417
2661.000000;2.482348
2660.000000;2.577113
2659.000000;2.689044
2658.000000;2.799715
2657.000000;2.518967
2656.000000;2.428310
2655.000000;2.444305
2654.000000;2.386962
2653.000000;2.319444
2652.000000;2.241364
2651.000000;2.239149
2650.000000;2.422678
2649.000000;2.539384
2648.000000;2.558169
2647.000000;2.935588
2646.000000;2.841763
2645.000000;2.520340
2644.000000;2.389487
2643.000000;2.206554
2642.000000;2.088658
2641.000000;2.067885
2640.000000;2.317004
2639.000000;2.786922
2638.000000;2.316940
2637.000000;2.127035
2636.000000;2.042503
2635.000000;1.991979
2634.000000;2.084519
2633.000000;2.303121
2632.000000;2.501667
2631.000000;2.455183
2630.000000;2.340128
2629.000000;2.174301
2628.000000;2.114575
2627.000000;2.164536
2626.000000;2.146140
2625.000000;2.036231
2624.000000;2.056444
2623.000000;2.522253
2622.000000;2.730036
2621.000000;2.119924
2620.000000;1.885495
2619.000000;1.722295
2618.000000;1.673818
2617.000000;1.734214
2616.000000;1.951317
2615.000000;2.231824
2614.000000;1.937058
2613.000000;1.683384
2612.000000;1.633039
2611.000000;1.693337
2610.000000;1.982643
2609.000000;2.550328
2608.000000;1.969363
2607.000000;1.722759
2606.000000;1.660645
2605.000000;1.696357
2604.000000;1.897049
2603.000000;2.347642
2602.000000;2.343128
2601.000000;1.926724
2600.000000;1.815664
2599.000000;1.816498
2598.000000;1.931988
2597.000000;2.137510
2596.000000;2.292794
2595.000000;2.368114
2594.000000;2.451241
2593.000000;2.427891
2592.000000;2.309102
2591.000000;2.294384
2590.000000;2.247375
2589.000000;2.152112
2588.000000;2.149460
2587.000000;2.405891
2586.000000;2.675121
2585.000000;2.272675
2584.000000;2.085562
2583.000000;2.028958
2582.000000;2.049748
2581.000000;2.164265
2580.000000;2.472861
2579.000000;2.934030
2578.000000;2.501857
2577.000000;2.258028
2576.000000;2.172600
2575.000000;2.219723
2574.000000;2.430019
2573.000000;2.723787
2572.000000;2.910259
2571.000000;3.093461
2570.000000;2.743607
2569.000000;2.395353
2568.000000;2.341822
2567.000000;2.355229
2566.000000;2.308402
2565.000000;2.278735
2564.000000;2.296675
2563.000000;2.325911
2562.000000;2.373239
2561.000000;2.435590
2560.000000;2.430574
2559.000000;2.417180
2558.000000;2.464093
2557.000000;2.466513
2556.000000;2.458592
2555.000000;2.485684
2554.000000;2.485851
2553.000000;2.581564
2552.000000;2.671262
2551.000000;2.599233
2550.000000;2.697907
2549.000000;2.739853
2548.000000;2.791861
2547.000000;3.272907
2546.000000;3.025514
2545.000000;2.947798
2544.000000;2.998385
2543.000000;2.871224
2542.000000;3.000926
2541.000000;2.696481
2540.000000;2.539043
2539.000000;2.670914
2538.000000;2.749778
2537.000000;2.701679
2536.000000;2.657438
2535.000000;2.682108
2534.000000;2.903105
2533.000000;3.277355
2532.000000;3.059344
2531.000000;2.765274
2530.000000;2.666468
2529.000000;2.767077
2528.000000;2.737931
2527.000000;2.610847
2526.000000;2.630773
2525.000000;2.585691
2524.000000;2.617541
2523.000000;2.608731
2522.000000;2.767825
2521.000000;3.021727
2520.000000;2.539652
2519.000000;2.435641
2518.000000;2.542331
2517.000000;2.552648
2516.000000;2.563098
2515.000000;2.906057
2514.000000;2.841519
2513.000000;2.702328
2512.000000;3.032687
2511.000000;2.754389
2510.000000;2.651071
2509.000000;2.682633
2508.000000;2.512132
2507.000000;2.442555
2506.000000;2.526178
2505.000000;2.547612
2504.000000;2.389933
2503.000000;2.314173
2502.000000;2.371026
2501.000000;2.496591
2500.000000;2.555647
2499.000000;2.712070
2498.000000;2.951711
2497.000000;2.739718
2496.000000;2.686115
2495.000000;2.744806
2494.000000;2.675652
2493.000000;2.508139
2492.000000;2.524690
2491.000000;2.795123
2490.000000;2.995174
2489.000000;3.074144
2488.000000;3.013057
2487.000000;2.970163
2486.000000;3.018409
2485.000000;3.019267
2484.000000;2.759389
2483.000000;2.702108
2482.000000;3.417223
2481.000000;2.914945
2480.000000;2.550637
2479.000000;2.490504
2478.000000;2.512374
2477.000000;2.534971
2476.000000;2.503448
2475.000000;2.563782
2474.000000;2.667492
2473.000000;2.694268
2472.000000;2.615528
2471.000000;2.695600
2470.000000;3.132494
2469.000000;3.323017
2468.000000;2.877947
2467.000000;2.725217
2466.000000;2.840078
2465.000000;2.690248
2464.000000;2.505146
2463.000000;2.593950
2462.000000;2.813674
2461.000000;2.866888
2460.000000;2.607447
2459.000000;2.513789
2458.000000;2.827031
2457.000000;3.248850
2456.000000;2.907152
2455.000000;2.912183
2454.000000;3.043519
2453.000000;2.924520
2452.000000;2.988063
2451.000000;2.836592
2450.000000;2.751044
2449.000000;2.692679
2448.000000;2.585499
2447.000000;2.608584
2446.000000;2.910350
2445.000000;3.557203
2444.000000;3.274853
2443.000000;3.433034
2442.000000;2.921898
2441.000000;2.640872
2440.000000;2.749050
2439.000000;2.982846
2438.000000;2.902053
2437.000000;2.742557
2436.000000;2.693643
2435.000000;2.756747
2434.000000;3.146617
2433.000000;3.359537
2432.000000;3.002627
2431.000000;3.035381
2430.000000;3.342804
2429.000000;3.042317
2428.000000;2.855711
2427.000000;2.852556
2426.000000;2.719310
2425.000000;2.602865
2424.000000;2.684879
2423.000000;2.999505
2422.000000;3.168426
2421.000000;2.803513
2420.000000;2.576947
2419.000000;2.507830
2418.000000;2.666406
2417.000000;3.014789
2416.000000;2.930920
2415.000000;2.862814
2414.000000;2.778510
2413.000000;2.678544
2412.000000;2.580731
2411.000000;2.484313
2410.000000;2.534068
2409.000000;2.556905
2408.000000;2.528003
2407.000000;2.659161
2406.000000;3.080753
2405.000000;3.604088
2404.000000;3.265644
2403.000000;2.836733
2402.000000;2.765274
2401.000000;3.061956
2400.000000;3.035272
2399.000000;2.780999
2398.000000;2.654962
2397.000000;2.518905
2396.000000;2.557580
2395.000000;2.793425
2394.000000;2.881239
2393.000000;2.931513
2392.000000;2.873465
2391.000000;2.726758
2390.000000;2.952103
2389.000000;3.633618
2388.000000;3.467856
2387.000000;3.891532
2386.000000;3.322961
2385.000000;2.727321
2384.000000;2.560826
2383.000000;2.595774
2382.000000;2.765271
2381.000000;2.780401
2380.000000;2.801214
2379.000000;2.918656
2378.000000;2.939064
2377.000000;2.823539
2376.000000;2.687194
2375.000000;2.746708
2374.000000;2.843456
2373.000000;2.873101
2372.000000;2.952704
2371.000000;2.966601
2370.000000;3.023647
2369.000000;3.018916
2368.000000;2.836681
2367.000000;2.763075
2366.000000;2.788368
2365.000000;2.716007
2364.000000;2.627591
2363.000000;2.685416
2362.000000;3.011340
2361.000000;2.935762
2360.000000;2.687292
2359.000000;2.929701
2358.000000;2.915592
2357.000000;2.511833
2356.000000;2.496751
2355.000000;2.668488
2354.000000;2.836684
2353.000000;2.845134
2352.000000;2.756846
2351.000000;2.748855
2350.000000;2.897303
2349.000000;3.133116
2348.000000;2.888777
2347.000000;2.698597
2346.000000;2.717763
2345.000000;2.841183
2344.000000;2.705919
2343.000000;2.526564
2342.000000;2.666758
2341.000000;3.208580
2340.000000;3.190980
2339.000000;3.020573
2338.000000;2.953076
2337.000000;2.670566
2336.000000;2.589883
2335.000000;2.929257
2334.000000;3.785073
2333.000000;2.955284
2332.000000;3.034582
2331.000000;2.992382
2330.000000;2.945642
2329.000000;2.880367
2328.000000;2.733926
2327.000000;2.701334
2326.000000;2.846350
2325.000000;2.937268
2324.000000;2.805647
2323.000000;2.720610
2322.000000;2.806216
2321.000000;2.930995
2320.000000;2.783508
2319.000000;2.732757
2318.000000;2.929331
2317.000000;2.890337
2316.000000;2.782753
2315.000000;2.776842
2314.000000;2.634688
2313.000000;2.529017
2312.000000;2.587815
2311.000000;2.885057
2310.000000;3.270592
2309.000000;3.087050
2308.000000;3.344738
2307.000000;3.086145
2306.000000;2.741665
2305.000000;2.653570
2304.000000;2.687539
2303.000000;2.710911
2302.000000;2.654169
2301.000000;2.983243
2300.000000;2.978579
2299.000000;2.610373
2298.000000;2.716955
2297.000000;2.789426
2296.000000;2.703841
2295.000000;2.787465
2294.000000;3.190946
2293.000000;2.992725
2292.000000;2.746241
2291.000000;2.521790
2290.000000;2.443574
2289.000000;2.621430
2288.000000;3.163289
2287.000000;2.872540
2286.000000;2.616248
2285.000000;2.406069
2284.000000;2.359718
2283.000000;2.460808
2282.000000;2.740389
2281.000000;3.013473
2280.000000;3.219515
2279.000000;3.282604
2278.000000;2.951661
2277.000000;3.224939
2276.000000;2.704357
2275.000000;2.468353
2274.000000;2.531147
2273.000000;2.662959
2272.000000;2.660656
2271.000000;2.684124
2270.000000;3.000668
2269.000000;3.032115
2268.000000;2.692836
2267.000000;2.644800
2266.000000;3.032243
2265.000000;2.969216
2264.000000;2.915406
2263.000000;3.008110
2262.000000;2.797437
2261.000000;2.534530
2260.000000;2.508263
2259.000000;2.666500
2258.000000;2.894882
2257.000000;3.052181
2256.000000;3.127109
2255.000000;2.800522
2254.000000;2.578555
2253.000000;2.564677
2252.000000;2.603457
2251.000000;2.631478
2250.000000;2.687458
2249.000000;2.723701
2248.000000;2.739740
2247.000000;2.600907
2246.000000;2.665683
2245.000000;2.988939
2244.000000;3.033832
2243.000000;2.824760
2242.000000;2.477405
2241.000000;2.348721
2240.000000;2.432868
2239.000000;2.549386
2238.000000;2.251526
2237.000000;1.976478
2236.000000;1.854525
2235.000000;1.848864
2234.000000;1.935277
2233.000000;2.063404
2232.000000;2.195343
2231.000000;2.270413
2230.000000;2.259437
2229.000000;2.290852
2228.000000;2.462298
2227.000000;2.554309
2226.000000;2.262927
2225.000000;2.035508
2224.000000;1.895102
2223.000000;1.879991
2222.000000;2.010827
2221.000000;2.260988
2220.000000;2.420859
2219.000000;2.406624
2218.000000;2.368218
2217.000000;2.521828
2216.000000;2.881185
2215.000000;2.429884
2214.000000;2.230401
2213.000000;2.253368
2212.000000;2.361830
2211.000000;2.518161
2210.000000;2.785848
2209.000000;3.496418
2208.000000;2.894671
2207.000000;2.629868
2206.000000;2.711253
2205.000000;2.862604
2204.000000;2.650056
2203.000000;2.603774
2202.000000;2.466636
2201.000000;2.320306
2200.000000;2.292697
2199.000000;2.395861
2198.000000;2.730839
2197.000000;3.364054
2196.000000;2.900987
2195.000000;2.602719
2194.000000;2.510942
2193.000000;2.615670
2192.000000;2.776629
2191.000000;2.605244
2190.000000;2.466426
2189.000000;2.513226
2188.000000;2.704268
2187.000000;3.000059
2186.000000;2.816431
2185.000000;2.508110
2184.000000;2.313963
2183.000000;2.224320
2182.000000;2.287449
2181.000000;2.508278
2180.000000;3.533472
2179.000000;2.569972
2178.000000;2.252516
2177.000000;2.140288
2176.000000;2.173117
2175.000000;2.291259
2174.000000;2.393230
2173.000000;2.448575
2172.000000;2.604689
2171.000000;2.865961
2170.000000;2.699822
2169.000000;2.518791
2168.000000;2.409444
2167.000000;2.339577
2166.000000;2.394508
2165.000000;2.489232
2164.000000;2.478611
2163.000000;2.475351
2162.000000;2.817794
2161.000000;2.808779
2160.000000;2.469222
2159.000000;2.377904
2158.000000;2.427018
2157.000000;2.548931
2156.000000;3.038198
2155.000000;2.756433
2154.000000;2.422389
2153.000000;2.297238
2152.000000;2.301483
2151.000000;2.352952
2150.000000;2.373939
2149.000000;2.428282
2148.000000;2.550072
2147.000000;2.654010
2146.000000;2.848237
2145.000000;2.748022
2144.000000;2.263009
2143.000000;2.122478
2142.000000;2.133355
2141.000000;2.219781
2140.000000;2.326434
2139.000000;2.513801
2138.000000;3.027434
2137.000000;2.944523
2136.000000;2.618729
2135.000000;2.571584
2134.000000;2.496590
2133.000000;2.456025
2132.000000;2.413355
2131.000000;2.359416
2130.000000;2.405646
2129.000000;2.532165
2128.000000;2.556101
2127.000000;2.516618
2126.000000;2.622234
2125.000000;2.913571
2124.000000;2.684459
2123.000000;2.597995
2122.000000;2.644179
2121.000000;2.725566
2120.000000;2.712478
2119.000000;2.844576
2118.000000;2.994569
2117.000000;2.696844
2116.000000;2.868050
2115.000000;3.317338
2114.000000;2.968698
2113.000000;2.952718
2112.000000;3.159944
2111.000000;3.168810
2110.000000;3.020398
2109.000000;3.237701
2108.000000;3.153189
2107.000000;2.878550
2106.000000;2.930534
2105.000000;3.190490
2104.000000;3.144127
2103.000000;2.771343
2102.000000;2.801906
2101.000000;3.088429
2100.000000;3.142255
2099.000000;3.373374
2098.000000;3.149819
2097.000000;3.070406
2096.000000;3.389958
2095.000000;3.786892
2094.000000;3.191055
2093.000000;3.239448
2092.000000;3.419612
2091.000000;2.874089
2090.000000;2.713628
2089.000000;2.889288
2088.000000;3.288908
2087.000000;2.911075
2086.000000;2.739962
2085.000000;2.643499
2084.000000;2.584079
2083.000000;2.535313
2082.000000;2.582605
2081.000000;2.778506
2080.000000;2.997149
2079.000000;2.894769
2078.000000;2.682941
2077.000000;2.597910
2076.000000;2.747303
2075.000000;2.847166
2074.000000;2.728820
2073.000000;2.676360
2072.000000;2.551640
2071.000000;2.472264
2070.000000;2.509639
2069.000000;2.558696
2068.000000;2.516676
2067.000000;2.538966
2066.000000;2.749749
2065.000000;3.122027
2064.000000;2.968406
2063.000000;2.730861
2062.000000;2.594356
2061.000000;2.585397
2060.000000;2.953999
2059.000000;2.997058
2058.000000;2.657888
2057.000000;2.685965
2056.000000;2.649115
2055.000000;2.535365
2054.000000;2.495342
2053.000000;2.550986
2052.000000;2.586664
2051.000000;2.606215
2050.000000;2.826707
2049.000000;3.336235
2048.000000;2.806100
2047.000000;2.716599
2046.000000;2.810959
2045.000000;2.733209
2044.000000;2.543917
2043.000000;2.440024
2042.000000;2.502520
2041.000000;2.645927
2040.000000;2.692536
2039.000000;2.907077
2038.000000;3.389306
2037.000000;3.333937
2036.000000;3.179678
2035.000000;3.125907
2034.000000;3.337057
2033.000000;3.209656
2032.000000;3.415117
2031.000000;3.013591
2030.000000;2.810680
2029.000000;2.842414
2028.000000;2.677789
2027.000000;2.503761
2026.000000;2.480288
2025.000000;2.517510
2024.000000;2.490265
2023.000000;2.469955
2022.000000;2.568406
2021.000000;2.813314
2020.000000;3.199240
2019.000000;3.207185
2018.000000;2.811660
2017.000000;2.633135
2016.000000;2.670708
2015.000000;2.796511
2014.000000;2.895674
2013.000000;2.991323
2012.000000;2.754640
2011.000000;2.427298
2010.000000;2.246171
2009.000000;2.174515
2008.000000;2.202899
2007.000000;2.298761
2006.000000;2.393693
2005.000000;2.462513
2004.000000;2.449859
2003.000000;2.260749
2002.000000;2.139446
2001.000000;2.119923
2000.000000;2.124866
1999.000000;2.151744
1998.000000;2.256597
1997.000000;2.306072
1996.000000;2.213259
1995.000000;2.148431
1994.000000;2.130172
1993.000000;2.183497
1992.000000;2.363531
1991.000000;2.662520
1990.000000;2.854005
1989.000000;3.069769
1988.000000;3.014384
1987.000000;2.548080
1986.000000;2.389064
1985.000000;2.372223
1984.000000;2.424024
1983.000000;2.515782
1982.000000;2.820052
1981.000000;2.880626
1980.000000;2.436836
1979.000000;2.267443
1978.000000;2.220457
1977.000000;2.242190
1976.000000;2.274300
1975.000000;2.324342
1974.000000;2.481706
1973.000000;2.839811
1972.000000;3.556771
1971.000000;3.137088
1970.000000;2.747964
1969.000000;2.711431
1968.000000;2.762260
1967.000000;2.655061
1966.000000;2.563693
1965.000000;2.617193
1964.000000;2.909904
1963.000000;2.973471
1962.000000;2.928421
1961.000000;2.955596
1960.000000;2.809866
1959.000000;2.832793
1958.000000;2.899003
1957.000000;2.694924
1956.000000;2.545049
1955.000000;2.501831
1954.000000;2.489411
1953.000000;2.425901
1952.000000;2.364773
1951.000000;2.417785
1950.000000;2.647311
1949.000000;2.685611
1948.000000;2.545239
1947.000000;2.511600
1946.000000;2.505356
1945.000000;2.493043
1944.000000;2.538750
1943.000000;3.150505
1942.000000;2.589120
1941.000000;2.313937
1940.000000;2.323603
1939.000000;2.346357
1938.000000;2.272007
1937.000000;2.215332
1936.000000;2.330656
1935.000000;2.634691
1934.000000;2.695328
1933.000000;2.715906
1932.000000;2.658939
1931.000000;2.551993
1930.000000;2.683400
1929.000000;2.708187
1928.000000;2.644074
1927.000000;2.801689
1926.000000;2.747760
1925.000000;2.545301
1924.000000;2.533712
1923.000000;2.593374
1922.000000;2.526452
1921.000000;2.396889
1920.000000;2.384188
1919.000000;2.359037
1918.000000;2.191258
1917.000000;2.112625
1916.000000;2.170399
1915.000000;2.287686
1914.000000;2.393434
1913.000000;2.474930
1912.000000;2.697113
1911.000000;2.622634
1910.000000;2.475664
1909.000000;2.640693
1908.000000;3.109485
1907.000000;2.646770
1906.000000;2.407407
1905.000000;2.371230
1904.000000;2.478019
1903.000000;2.506049
1902.000000;2.383365
1901.000000;2.290713
1900.000000;2.225391
1899.000000;2.190760
1898.000000;2.149229
1897.000000;2.107280
1896.000000;2.126802
1895.000000;2.188539
1894.000000;2.270982
1893.000000;2.422301
1892.000000;2.491751
1891.000000;2.398128
1890.000000;2.334057
1889.000000;2.303549
1888.000000;2.268361
1887.000000;2.283272
1886.000000;2.444294
1885.000000;2.694478
1884.000000;2.590312
1883.000000;2.354009
1882.000000;2.131017
1881.000000;1.987599
1880.000000;1.967507
1879.000000;2.076484
1878.000000;2.329205
1877.000000;2.513268
1876.000000;2.271932
1875.000000;2.090265
1874.000000;2.023391
1873.000000;2.047451
1872.000000;2.117173
1871.000000;2.160079
1870.000000;2.219871
1869.000000;2.356479
1868.000000;2.430162
1867.000000;2.425885
1866.000000;2.416193
1865.000000;2.320731
1864.000000;2.220968
1863.000000;2.187599
1862.000000;2.251866
1861.000000;2.402190
1860.000000;2.639002
1859.000000;2.827696
1858.000000;2.425770
1857.000000;2.208176
1856.000000;2.189623
1855.000000;2.280181
1854.000000;2.396323
1853.000000;2.474047
1852.000000;2.535077
1851.000000;2.518516
1850.000000;2.447325
1849.000000;2.403443
1848.000000;2.354871
1847.000000;2.338867
1846.000000;2.346924
1845.000000;2.242622
1844.000000;2.097906
1843.000000;2.074517
1842.000000;2.230309
1841.000000;2.528810
1840.000000;2.560040
1839.000000;2.445700
1838.000000;2.441181
1837.000000;2.460380
1836.000000;2.607012
1835.000000;2.771228
1834.000000;2.540094
1833.000000;2.367655
1832.000000;2.248536
1831.000000;2.101549
1830.000000;2.008865
1829.000000;2.044363
1828.000000;2.197712
1827.000000;2.371594
1826.000000;2.452752
1825.000000;2.367955
1824.000000;2.338834
1823.000000;2.372866
1822.000000;2.268229
1821.000000;2.153387
1820.000000;2.137642
1819.000000;2.227944
1818.000000;2.285293
1817.000000;2.259049
1816.000000;2.318975
1815.000000;2.543473
1814.000000;2.900416
1813.000000;2.733513
1812.000000;2.679561
1811.000000;2.697965
1810.000000;2.419858
1809.000000;2.291999
1808.000000;2.235100
1807.000000;2.187163
1806.000000;2.203414
1805.000000;2.297093
1804.000000;2.415246
1803.000000;2.453735
1802.000000;2.389181
1801.000000;2.422438
1800.000000;2.617763
1799.000000;2.467345
1798.000000;2.206654
1797.000000;2.066149
1796.000000;2.027970
1795.000000;2.066036
1794.000000;2.074387
1793.000000;1.994653
1792.000000;1.878168
1791.000000;1.828916
1790.000000;1.864022
1789.000000;1.932059
1788.000000;2.143710
1787.000000;2.406238
1786.000000;2.140487
1785.000000;2.022008
1784.000000;2.123150
1783.000000;2.332911
1782.000000;2.795868
1781.000000;2.593981
1780.000000;2.306457
1779.000000;2.294971
1778.000000;2.317592
1777.000000;2.226440
1776.000000;2.061915
1775.000000;1.954692
1774.000000;1.917110
1773.000000;1.892768
1772.000000;1.889481
1771.000000;1.954832
1770.000000;1.963160
1769.000000;1.794253
1768.000000;1.642368
1767.000000;1.629175
1766.000000;1.726393
1765.000000;1.844080
1764.000000;1.983134
1763.000000;2.266775
1762.000000;2.236031
1761.000000;1.951866
1760.000000;1.822070
1759.000000;1.737570
1758.000000;1.700697
1757.000000;1.735329
1756.000000;1.856295
1755.000000;2.058345
1754.000000;2.455274
1753.000000;2.449316
1752.000000;2.030482
1751.000000;1.924656
1750.000000;1.973873
1749.000000;1.979898
1748.000000;1.943557
1747.000000;1.972481
1746.000000;2.027293
1745.000000;1.980410
1744.000000;1.894722
1743.000000;1.842055
1742.000000;1.829962
1741.000000;1.837537
1740.000000;1.911613
1739.000000;2.256510
1738.000000;2.212431
1737.000000;1.756798
1736.000000;1.487955
1735.000000;1.300489
1734.000000;1.308101
1733.000000;1.553099
1732.000000;1.916927
1731.000000;2.159058
1730.000000;2.327857
1729.000000;2.479783
1728.000000;2.231053
1727.000000;2.067137
1726.000000;1.985344
1725.000000;1.919506
1724.000000;1.934048
1723.000000;2.020843
1722.000000;2.112860
1721.000000;2.132141
1720.000000;2.047418
1719.000000;1.855776
1718.000000;1.651946
1717.000000;1.601048
1716.000000;1.687880
1715.000000;2.056039
1714.000000;2.500215
1713.000000;1.811210
1712.000000;1.607942
1711.000000;1.582711
1710.000000;1.658994
1709.000000;1.818016
1708.000000;1.926272
1707.000000;1.937138
1706.000000;1.899964
1705.000000;2.024165
1704.000000;2.230156
1703.000000;2.070726
1702.000000;1.786216
1701.000000;1.625707
1700.000000;1.673077
1699.000000;1.845644
1698.000000;1.927871
1697.000000;1.929951
1696.000000;1.883689
1695.000000;1.881668
1694.000000;1.876398
1693.000000;1.842545
1692.000000;1.839024
1691.000000;2.114596
1690.000000;2.361516
1689.000000;1.923746
1688.000000;1.791537
1687.000000;1.735272
1686.000000;1.715876
1685.000000;1.725785
1684.000000;1.675226
1683.000000;1.672988
1682.000000;1.688929
1681.000000;1.687261
1680.000000;1.865922
1679.000000;2.114297
1678.000000;2.027578
1677.000000;1.933019
1676.000000;1.949224
1675.000000;2.168899
1674.000000;2.316883
1673.000000;2.102937
1672.000000;1.940460
1671.000000;1.910216
1670.000000;1.849167
1669.000000;1.754270
1668.000000;1.765966
1667.000000;1.953661
1666.000000;2.375503
1665.000000;2.169901
1664.000000;1.922390
1663.000000;1.879219
1662.000000;1.889329
1661.000000;2.110110
1660.000000;2.316778
1659.000000;1.936260
1658.000000;1.705750
1657.000000;1.629870
1656.000000;1.627500
1655.000000;1.672171
1654.000000;2.017488
1653.000000;2.092217
1652.000000;1.866024
1651.000000;2.064201
1650.000000;2.150558
1649.000000;1.958287
1648.000000;1.818183
1647.000000;1.800644
1646.000000;1.705924
1645.000000;1.686713
1644.000000;1.765151
1643.000000;2.023037
1642.000000;2.468751
1641.000000;2.207155
1640.000000;2.265008
1639.000000;2.673415
1638.000000;2.529675
1637.000000;2.257257
1636.000000;2.329930
1635.000000;2.399546
1634.000000;1.927222
1633.000000;1.690330
1632.000000;1.657898
1631.000000;1.813344
1630.000000;2.257782
1629.000000;2.389357
1628.000000;2.020897
1627.000000;1.911890
1626.000000;1.837030
1625.000000;1.710890
1624.000000;1.582822
1623.000000;1.488268
1622.000000;1.477508
1621.000000;1.536098
1620.000000;1.632074
1619.000000;1.757938
1618.000000;1.989429
1617.000000;2.447118
1616.000000;2.418170
1615.000000;2.207628
1614.000000;2.157718
1613.000000;2.089852
1612.000000;2.031335
1611.000000;2.012680
1610.000000;2.099569
1609.000000;2.117374
1608.000000;2.005760
1607.000000;2.033332
1606.000000;2.219875
1605.000000;2.184280
1604.000000;1.920393
1603.000000;1.773885
1602.000000;1.756034
1601.000000;1.797174
1600.000000;1.771429
1599.000000;1.648721
1598.000000;1.542698
1597.000000;1.497272
1596.000000;1.541095
1595.000000;1.676611
1594.000000;2.008749
1593.000000;2.566518
1592.000000;2.130756
1591.000000;1.958426
1590.000000;1.980318
1589.000000;1.947762
1588.000000;1.828900
1587.000000;1.717422
1586.000000;1.721598
1585.000000;1.862986
1584.000000;2.044019
1583.000000;1.980623
1582.000000;1.883654
1581.000000;1.874063
1580.000000;1.951312
1579.000000;2.146896
1578.000000;2.022766
1577.000000;1.739583
1576.000000;1.629042
1575.000000;1.594183
1574.000000;1.549817
1573.000000;1.475133
1572.000000;1.445539
1571.000000;1.536345
1570.000000;1.572233
1569.000000;1.493257
1568.000000;1.514046
1567.000000;1.494613
1566.000000;1.563603
1565.000000;1.673994
1564.000000;1.686644
1563.000000;1.809703
1562.000000;1.914905
1561.000000;2.204259
1560.000000;2.318350
1559.000000;1.943452
1558.000000;1.861051
1557.000000;2.045877
1556.000000;2.399235
1555.000000;2.206516
1554.000000;2.053894
1553.000000;1.961456
1552.000000;1.831102
1551.000000;1.658051
1550.000000;1.564834
1549.000000;1.621513
1548.000000;1.743111
1547.000000;1.954144
1546.000000;1.947834
1545.000000;1.716753
1544.000000;1.602768
1543.000000;1.545817
1542.000000;1.514293
1541.000000;1.572405
1540.000000;1.781132
1539.000000;1.844166
1538.000000;1.706872
1537.000000;1.656300
1536.000000;1.709677
1535.000000;1.865715
1534.000000;1.864700
1533.000000;1.744171
1532.000000;1.908779
1531.000000;2.366975
1530.000000;1.995054
1529.000000;1.820067
1528.000000;1.980138
1527.000000;2.310436
1526.000000;2.096189
1525.000000;1.878800
1524.000000;1.847597
1523.000000;1.873611
1522.000000;1.888799
1521.000000;1.832960
1520.000000;1.834933
1519.000000;1.842979
1518.000000;1.779532
1517.000000;1.766393
1516.000000;1.810438
1515.000000;1.732526
1514.000000;1.575207
1513.000000;1.473532
1512.000000;1.461893
1511.000000;1.522486
1510.000000;1.608288
1509.000000;1.679358
1508.000000;1.852140
1507.000000;2.161753
1506.000000;2.183473
1505.000000;2.404103
1504.000000;2.482656
1503.000000;1.975656
1502.000000;2.071618
1501.000000;2.628407
1500.000000;2.404395
1499.000000;2.454683
1498.000000;2.416129
1497.000000;2.051989
1496.000000;2.051138
1495.000000;1.973514
1494.000000;1.775490
1493.000000;1.633689
1492.000000;1.583831
1491.000000;1.947511
1490.000000;2.048061
1489.000000;1.629372
1488.000000;1.546078
1487.000000;1.546718
1486.000000;1.637177
1485.000000;1.818216
1484.000000;2.094473
1483.000000;2.417661
1482.000000;2.225356
1481.000000;2.139759
1480.000000;2.315168
1479.000000;2.265510
1478.000000;1.943714
1477.000000;1.695475
1476.000000;1.520422
1475.000000;1.449696
1474.000000;1.474655
1473.000000;1.613004
1472.000000;1.813198
1471.000000;1.828396
1470.000000;1.615192
1469.000000;1.493893
1468.000000;1.493322
1467.000000;1.582984
1466.000000;2.044878
1465.000000;2.153194
1464.000000;1.557132
1463.000000;1.421636
1462.000000;1.392085
1461.000000;1.511894
1460.000000;2.163248
1459.000000;1.556668
1458.000000;1.183892
1457.000000;1.160409
1456.000000;1.201927
1455.000000;1.156193
1454.000000;1.051225
1453.000000;0.993385
1452.000000;0.999705
1451.000000;1.027935
1450.000000;1.043505
1449.000000;1.101430
1448.000000;1.289135
1447.000000;1.810097
1446.000000;2.062040
1445.000000;1.465068
1444.000000;1.288292
1443.000000;1.175300
1442.000000;1.096701
1441.000000;1.069083
1440.000000;1.094207
1439.000000;1.173845
1438.000000;1.329689
1437.000000;1.858197
1436.000000;1.754918
1435.000000;1.513117
1434.000000;1.555399
1433.000000;1.378926
1432.000000;1.308973
1431.000000;1.363674
1430.000000;1.613069
1429.000000;2.298434
1428.000000;1.765143
1427.000000;1.550308
1426.000000;1.521093
1425.000000;1.509458
1424.000000;1.589145
1423.000000;1.741368
1422.000000;1.936527
1421.000000;1.922669
1420.000000;1.799385
1419.000000;1.656495
1418.000000;1.562656
1417.000000;1.555807
1416.000000;1.652704
1415.000000;1.883001
1414.000000;2.239480
1413.000000;2.913053
1412.000000;2.727589
1411.000000;2.863899
1410.000000;2.565364
1409.000000;2.013089
1408.000000;1.887388
1407.000000;1.897766
1406.000000;1.906548
1405.000000;1.843738
1404.000000;1.802308
1403.000000;1.831782
1402.000000;1.892347
1401.000000;1.948010
1400.000000;1.987738
1399.000000;2.030304
1398.000000;2.069446
1397.000000;2.085639
1396.000000;2.074337
1395.000000;2.098471
1394.000000;2.141509
1393.000000;2.153556
1392.000000;2.203112
1391.000000;2.203508
1390.000000;2.106555
1389.000000;2.058434
1388.000000;2.085024
1387.000000;2.209209
1386.000000;2.318509
1385.000000;2.172210
1384.000000;2.034089
1383.000000;2.058673
1382.000000;2.210853
1381.000000;2.265566
1380.000000;2.157735
1379.000000;2.119736
1378.000000;2.340018
1377.000000;2.749213
1376.000000;2.647761
1375.000000;3.036091
1374.000000;2.504169
1373.000000;2.163403
1372.000000;2.067662
1371.000000;2.152251
1370.000000;2.576415
1369.000000;2.420324
1368.000000;2.142177
1367.000000;2.093362
1366.000000;2.115395
1365.000000;2.249714
1364.000000;2.393126
1363.000000;2.474765
1362.000000;2.522374
1361.000000;2.263161
1360.000000;2.079399
1359.000000;2.048411
1358.000000;2.120913
1357.000000;2.314297
1356.000000;2.707208
1355.000000;3.065001
1354.000000;3.038541
1353.000000;2.802116
1352.000000;2.736260
1351.000000;2.974359
1350.000000;2.695801
1349.000000;2.458207
1348.000000;2.445356
1347.000000;2.721253
1346.000000;2.996603
1345.000000;2.546837
1344.000000;2.467610
1343.000000;2.518145
1342.000000;2.487945
1341.000000;2.363408
1340.000000;2.266208
1339.000000;2.345940
1338.000000;2.758995
1337.000000;2.589108
1336.000000;2.107001
1335.000000;1.961463
1334.000000;1.966279
1333.000000;2.202681
1332.000000;2.702324
1331.000000;2.499995
1330.000000;2.371455
1329.000000;2.524935
1328.000000;2.579245
1327.000000;2.471610
1326.000000;2.363889
1325.000000;2.296124
1324.000000;2.284680
1323.000000;2.420960
1322.000000;2.673906
1321.000000;2.516025
1320.000000;2.405180
1319.000000;2.435422
1318.000000;2.520784
1317.000000;2.824134
1316.000000;3.155032
1315.000000;2.645723
1314.000000;2.494714
1313.000000;2.399834
1312.000000;2.292740
1311.000000;2.245754
1310.000000;2.310140
1309.000000;2.515328
1308.000000;2.945622
1307.000000;2.809993
1306.000000;2.459236
1305.000000;2.375204
1304.000000;2.360075
1303.000000;2.441472
1302.000000;2.518435
1301.000000;2.444885
1300.000000;2.423190
1299.000000;2.584122
1298.000000;2.877363
1297.000000;2.530199
1296.000000;2.300599
1295.000000;2.284249
1294.000000;2.460270
1293.000000;2.769145
1292.000000;2.820815
1291.000000;2.979140
1290.000000;2.820517
1289.000000;2.615513
1288.000000;2.527576
1287.000000;2.496896
1286.000000;2.545184
1285.000000;2.563329
1284.000000;2.483009
1283.000000;2.424972
1282.000000;2.421611
1281.000000;2.415039
1280.000000;2.431808
1279.000000;2.487607
1278.000000;2.482456
1277.000000;2.429467
1276.000000;2.407076
1275.000000;2.412022
1274.000000;2.454683
1273.000000;2.432138
1272.000000;2.320221
1271.000000;2.294703
1270.000000;2.456496
1269.000000;2.976385
1268.000000;2.923873
1267.000000;2.507799
1266.000000;2.356086
1265.000000;2.363480
1264.000000;2.516275
1263.000000;2.752797
1262.000000;2.725519
1261.000000;2.585476
1260.000000;2.513293
1259.000000;2.495019
1258.000000;2.531793
1257.000000;2.514522
1256.000000;2.513278
1255.000000;2.545052
1254.000000;2.514238
1253.000000;2.485825
1252.000000;2.498618
1251.000000;2.494151
1250.000000;2.455331
1249.000000;2.417732
1248.000000;2.431129
1247.000000;2.522112
1246.000000;2.771819
1245.000000;2.983043
1244.000000;2.731394
1243.000000;2.620860
1242.000000;2.797350
1241.000000;3.291067
1240.000000;2.863755
1239.000000;2.677477
1238.000000;2.521456
1237.000000;2.455556
1236.000000;2.607943
1235.000000;2.901330
1234.000000;2.899558
1233.000000;2.849902
1232.000000;2.750814
1231.000000;2.632171
1230.000000;2.683937
1229.000000;2.764648
1228.000000;2.761953
1227.000000;2.711245
1226.000000;2.589551
1225.000000;2.526142
1224.000000;2.500083
1223.000000;2.410087
1222.000000;2.350078
1221.000000;2.359099
1220.000000;2.400500
1219.000000;2.467243
1218.000000;2.528925
1217.000000;2.524505
1216.000000;2.413253
1215.000000;2.360411
1214.000000;2.476813
1213.000000;2.703180
1212.000000;2.774314
1211.000000;2.695452
1210.000000;2.663263
1209.000000;2.752058
1208.000000;2.655985
1207.000000;2.661116
1206.000000;3.094457
1205.000000;2.779019
1204.000000;2.583133
1203.000000;2.582718
1202.000000;2.586259
1201.000000;2.656381
1200.000000;2.647998
