Criado como novo conjunto de dados;"0307_DANIEL.spp","29163.6 Secs"
cm-1;Abs
10000.000000;1.201893
9999.000000;1.201121
9998.000000;1.200954
9997.000000;1.200921
9996.000000;1.200289
9995.000000;1.198976
9994.000000;1.197324
9993.000000;1.195687
9992.000000;1.193965
9991.000000;1.191978
9990.000000;1.189851
9989.000000;1.188076
9988.000000;1.187079
9987.000000;1.186825
9986.000000;1.186817
9985.000000;1.186477
9984.000000;1.185515
9983.000000;1.183995
9982.000000;1.182151
9981.000000;1.180238
9980.000000;1.178516
9979.000000;1.177250
9978.000000;1.176600
9977.000000;1.176429
9976.000000;1.176228
9975.000000;1.175320
9974.000000;1.173321
9973.000000;1.170543
9972.000000;1.167857
9971.000000;1.166035
9970.000000;1.165164
9969.000000;1.164716
9968.000000;1.164133
9967.000000;1.163256
9966.000000;1.162225
9965.000000;1.161160
9964.000000;1.160022
9963.000000;1.158709
9962.000000;1.157150
9961.000000;1.155371
9960.000000;1.153576
9959.000000;1.152135
9958.000000;1.151303
9957.000000;1.150866
9956.000000;1.150211
9955.000000;1.148907
9954.000000;1.147205
9953.000000;1.145810
9952.000000;1.145104
9951.000000;1.144677
9950.000000;1.143731
9949.000000;1.141932
9948.000000;1.139744
9947.000000;1.137928
9946.000000;1.136793
9945.000000;1.136000
9944.000000;1.134985
9943.000000;1.133495
9942.000000;1.131731
9941.000000;1.130091
9940.000000;1.128800
9939.000000;1.127717
9938.000000;1.126469
9937.000000;1.124810
9936.000000;1.122910
9935.000000;1.121237
9934.000000;1.120097
9933.000000;1.119316
9932.000000;1.118464
9931.000000;1.117352
9930.000000;1.116221
9929.000000;1.115373
9928.000000;1.114739
9927.000000;1.113911
9926.000000;1.112532
9925.000000;1.110582
9924.000000;1.108329
9923.000000;1.106147
9922.000000;1.104369
9921.000000;1.103140
9920.000000;1.102271
9919.000000;1.101317
9918.000000;1.099956
9917.000000;1.098297
9916.000000;1.096747
9915.000000;1.095537
9914.000000;1.094453
9913.000000;1.093076
9912.000000;1.091272
9911.000000;1.089387
9910.000000;1.087923
9909.000000;1.087045
9908.000000;1.086452
9907.000000;1.085739
9906.000000;1.084789
9905.000000;1.083751
9904.000000;1.082708
9903.000000;1.081541
9902.000000;1.080098
9901.000000;1.078372
9900.000000;1.076477
9899.000000;1.074598
9898.000000;1.072983
9897.000000;1.071768
9896.000000;1.070706
9895.000000;1.069287
9894.000000;1.067311
9893.000000;1.065200
9892.000000;1.063526
9891.000000;1.062335
9890.000000;1.061171
9889.000000;1.059716
9888.000000;1.058097
9887.000000;1.056527
9886.000000;1.054997
9885.000000;1.053452
9884.000000;1.052015
9883.000000;1.050796
9882.000000;1.049607
9881.000000;1.048173
9880.000000;1.046628
9879.000000;1.045551
9878.000000;1.045358
9877.000000;1.045739
9876.000000;1.045818
9875.000000;1.044891
9874.000000;1.042970
9873.000000;1.040616
9872.000000;1.038367
9871.000000;1.036403
9870.000000;1.034616
9869.000000;1.032798
9868.000000;1.030785
9867.000000;1.028608
9866.000000;1.026608
9865.000000;1.025220
9864.000000;1.024491
9863.000000;1.023942
9862.000000;1.023079
9861.000000;1.021921
9860.000000;1.020821
9859.000000;1.019905
9858.000000;1.018934
9857.000000;1.017672
9856.000000;1.016066
9855.000000;1.014071
9854.000000;1.011631
9853.000000;1.009005
9852.000000;1.006812
9851.000000;1.005506
9850.000000;1.004879
9849.000000;1.004250
9848.000000;1.003118
9847.000000;1.001533
9846.000000;0.999935
9845.000000;0.998693
9844.000000;0.997762
9843.000000;0.996728
9842.000000;0.995293
9841.000000;0.993714
9840.000000;0.992541
9839.000000;0.991844
9838.000000;0.990956
9837.000000;0.989196
9836.000000;0.986672
9835.000000;0.984119
9834.000000;0.982080
9833.000000;0.980528
9832.000000;0.979177
9831.000000;0.977830
9830.000000;0.976363
9829.000000;0.974689
9828.000000;0.972887
9827.000000;0.971237
9826.000000;0.969950
9825.000000;0.968920
9824.000000;0.967808
9823.000000;0.966336
9822.000000;0.964499
9821.000000;0.962539
9820.000000;0.960718
9819.000000;0.959070
9818.000000;0.957392
9817.000000;0.955557
9816.000000;0.953791
9815.000000;0.952507
9814.000000;0.951848
9813.000000;0.951469
9812.000000;0.950811
9811.000000;0.949540
9810.000000;0.947710
9809.000000;0.945620
9808.000000;0.943570
9807.000000;0.941658
9806.000000;0.939740
9805.000000;0.937639
9804.000000;0.935366
9803.000000;0.933096
9802.000000;0.930966
9801.000000;0.929036
9800.000000;0.927428
9799.000000;0.926286
9798.000000;0.925483
9797.000000;0.924566
9796.000000;0.923177
9795.000000;0.921469
9794.000000;0.919878
9793.000000;0.918487
9792.000000;0.916838
9791.000000;0.914512
9790.000000;0.911766
9789.000000;0.909398
9788.000000;0.907945
9787.000000;0.907161
9786.000000;0.906307
9785.000000;0.904877
9784.000000;0.902982
9783.000000;0.901094
9782.000000;0.899564
9781.000000;0.898396
9780.000000;0.897351
9779.000000;0.896149
9778.000000;0.894627
9777.000000;0.892800
9776.000000;0.890811
9775.000000;0.888812
9774.000000;0.886867
9773.000000;0.884944
9772.000000;0.882970
9771.000000;0.880897
9770.000000;0.878780
9769.000000;0.876800
9768.000000;0.875165
9767.000000;0.873906
9766.000000;0.872798
9765.000000;0.871544
9764.000000;0.870025
9763.000000;0.868340
9762.000000;0.866634
9761.000000;0.864935
9760.000000;0.863161
9759.000000;0.861228
9758.000000;0.859137
9757.000000;0.856995
9756.000000;0.854983
9755.000000;0.853263
9754.000000;0.851844
9753.000000;0.850489
9752.000000;0.848819
9751.000000;0.846627
9750.000000;0.844121
9749.000000;0.841778
9748.000000;0.839905
9747.000000;0.838398
9746.000000;0.836974
9745.000000;0.835507
9744.000000;0.834004
9743.000000;0.832387
9742.000000;0.830562
9741.000000;0.828717
9740.000000;0.827240
9739.000000;0.826218
9738.000000;0.825183
9737.000000;0.823569
9736.000000;0.821286
9735.000000;0.818735
9734.000000;0.816359
9733.000000;0.814358
9732.000000;0.812704
9731.000000;0.811187
9730.000000;0.809479
9729.000000;0.807403
9728.000000;0.805180
9727.000000;0.803231
9726.000000;0.801692
9725.000000;0.800239
9724.000000;0.798437
9723.000000;0.796161
9722.000000;0.793651
9721.000000;0.791274
9720.000000;0.789271
9719.000000;0.787612
9718.000000;0.786014
9717.000000;0.784184
9716.000000;0.782111
9715.000000;0.780106
9714.000000;0.778507
9713.000000;0.777342
9712.000000;0.776312
9711.000000;0.775043
9710.000000;0.773379
9709.000000;0.771444
9708.000000;0.769472
9707.000000;0.767548
9706.000000;0.765554
9705.000000;0.763383
9704.000000;0.761100
9703.000000;0.758847
9702.000000;0.756655
9701.000000;0.754509
9700.000000;0.752525
9699.000000;0.750863
9698.000000;0.749409
9697.000000;0.747736
9696.000000;0.745501
9695.000000;0.742831
9694.000000;0.740181
9693.000000;0.737855
9692.000000;0.735777
9691.000000;0.733699
9690.000000;0.731520
9689.000000;0.729378
9688.000000;0.727445
9687.000000;0.725713
9686.000000;0.724004
9685.000000;0.722154
9684.000000;0.720136
9683.000000;0.717974
9682.000000;0.715640
9681.000000;0.713125
9680.000000;0.710610
9679.000000;0.708417
9678.000000;0.706750
9677.000000;0.705509
9676.000000;0.704363
9675.000000;0.702944
9674.000000;0.701034
9673.000000;0.698687
9672.000000;0.696232
9671.000000;0.694012
9670.000000;0.692021
9669.000000;0.689903
9668.000000;0.687406
9667.000000;0.684785
9666.000000;0.682559
9665.000000;0.680886
9664.000000;0.679362
9663.000000;0.677496
9662.000000;0.675245
9661.000000;0.672895
9660.000000;0.670575
9659.000000;0.668184
9658.000000;0.665796
9657.000000;0.663788
9656.000000;0.662344
9655.000000;0.661010
9654.000000;0.659046
9653.000000;0.656249
9652.000000;0.653173
9651.000000;0.650513
9650.000000;0.648487
9649.000000;0.646843
9648.000000;0.645220
9647.000000;0.643362
9646.000000;0.641166
9645.000000;0.638755
9644.000000;0.636417
9643.000000;0.634356
9642.000000;0.632521
9641.000000;0.630734
9640.000000;0.628850
9639.000000;0.626707
9638.000000;0.624127
9637.000000;0.621192
9636.000000;0.618372
9635.000000;0.616131
9634.000000;0.614457
9633.000000;0.612971
9632.000000;0.611398
9631.000000;0.609684
9630.000000;0.607718
9629.000000;0.605319
9628.000000;0.602551
9627.000000;0.599752
9626.000000;0.597155
9625.000000;0.594731
9624.000000;0.592451
9623.000000;0.590408
9622.000000;0.588544
9621.000000;0.586542
9620.000000;0.584206
9619.000000;0.581699
9618.000000;0.579211
9617.000000;0.576617
9616.000000;0.573743
9615.000000;0.570756
9614.000000;0.567989
9613.000000;0.565500
9612.000000;0.563127
9611.000000;0.560893
9610.000000;0.558987
9609.000000;0.557331
9608.000000;0.555506
9607.000000;0.553254
9606.000000;0.550811
9605.000000;0.548590
9604.000000;0.546739
9603.000000;0.545083
9602.000000;0.543345
9601.000000;0.541260
9600.000000;0.538669
9599.000000;0.535685
9598.000000;0.532689
9597.000000;0.529993
9596.000000;0.527559
9595.000000;0.525172
9594.000000;0.522809
9593.000000;0.520673
9592.000000;0.518860
9591.000000;0.517154
9590.000000;0.515209
9589.000000;0.512853
9588.000000;0.510188
9587.000000;0.507501
9586.000000;0.505083
9585.000000;0.503028
9584.000000;0.501103
9583.000000;0.498863
9582.000000;0.496013
9581.000000;0.492689
9580.000000;0.489371
9579.000000;0.486522
9578.000000;0.484302
9577.000000;0.482541
9576.000000;0.480900
9575.000000;0.479035
9574.000000;0.476724
9573.000000;0.473965
9572.000000;0.471004
9571.000000;0.468236
9570.000000;0.465952
9569.000000;0.464107
9568.000000;0.462323
9567.000000;0.460201
9566.000000;0.457704
9565.000000;0.455195
9564.000000;0.453051
9563.000000;0.451277
9562.000000;0.449525
9561.000000;0.447455
9560.000000;0.445002
9559.000000;0.442353
9558.000000;0.439754
9557.000000;0.437339
9556.000000;0.435031
9555.000000;0.432601
9554.000000;0.429951
9553.000000;0.427352
9552.000000;0.425231
9551.000000;0.423639
9550.000000;0.422084
9549.000000;0.420038
9548.000000;0.417489
9547.000000;0.414814
9546.000000;0.412249
9545.000000;0.409752
9544.000000;0.407339
9543.000000;0.405181
9542.000000;0.403279
9541.000000;0.401301
9540.000000;0.398963
9539.000000;0.396412
9538.000000;0.394002
9537.000000;0.391794
9536.000000;0.389504
9535.000000;0.386952
9534.000000;0.384362
9533.000000;0.382128
9532.000000;0.380362
9531.000000;0.378765
9530.000000;0.376940
9529.000000;0.374805
9528.000000;0.372647
9527.000000;0.370757
9526.000000;0.369046
9525.000000;0.367126
9524.000000;0.364745
9523.000000;0.362054
9522.000000;0.359409
9521.000000;0.357040
9520.000000;0.354969
9519.000000;0.353080
9518.000000;0.351172
9517.000000;0.349070
9516.000000;0.346833
9515.000000;0.344787
9514.000000;0.343186
9513.000000;0.341895
9512.000000;0.340551
9511.000000;0.338973
9510.000000;0.337244
9509.000000;0.335449
9508.000000;0.333561
9507.000000;0.331610
9506.000000;0.329737
9505.000000;0.327993
9504.000000;0.326256
9503.000000;0.324443
9502.000000;0.322654
9501.000000;0.321004
9500.000000;0.319422
9499.000000;0.317766
9498.000000;0.316073
9497.000000;0.314540
9496.000000;0.313270
9495.000000;0.312127
9494.000000;0.310874
9493.000000;0.309412
9492.000000;0.307868
9491.000000;0.306420
9490.000000;0.305039
9489.000000;0.303496
9488.000000;0.301695
9487.000000;0.299916
9486.000000;0.298557
9485.000000;0.297605
9484.000000;0.296577
9483.000000;0.295054
9482.000000;0.293156
9481.000000;0.291395
9480.000000;0.290189
9479.000000;0.289594
9478.000000;0.289322
9477.000000;0.288881
9476.000000;0.287839
9475.000000;0.286166
9474.000000;0.284302
9473.000000;0.282743
9472.000000;0.281585
9471.000000;0.280582
9470.000000;0.279559
9469.000000;0.278582
9468.000000;0.277763
9467.000000;0.277106
9466.000000;0.276571
9465.000000;0.276149
9464.000000;0.275804
9463.000000;0.275446
9462.000000;0.274996
9461.000000;0.274398
9460.000000;0.273563
9459.000000;0.272442
9458.000000;0.271194
9457.000000;0.270162
9456.000000;0.269617
9455.000000;0.269541
9454.000000;0.269693
9453.000000;0.269836
9452.000000;0.269884
9451.000000;0.269871
9450.000000;0.269793
9449.000000;0.269507
9448.000000;0.268869
9447.000000;0.267998
9446.000000;0.267295
9445.000000;0.267079
9444.000000;0.267248
9443.000000;0.267431
9442.000000;0.267421
9441.000000;0.267325
9440.000000;0.267320
9439.000000;0.267454
9438.000000;0.267691
9437.000000;0.267991
9436.000000;0.268283
9435.000000;0.268496
9434.000000;0.268651
9433.000000;0.268832
9432.000000;0.269040
9431.000000;0.269190
9430.000000;0.269256
9429.000000;0.269279
9428.000000;0.269256
9427.000000;0.269186
9426.000000;0.269228
9425.000000;0.269605
9424.000000;0.270264
9423.000000;0.270830
9422.000000;0.271002
9421.000000;0.270876
9420.000000;0.270817
9419.000000;0.271130
9418.000000;0.271917
9417.000000;0.273060
9416.000000;0.274236
9415.000000;0.275108
9414.000000;0.275646
9413.000000;0.276119
9412.000000;0.276703
9411.000000;0.277267
9410.000000;0.277668
9409.000000;0.278040
9408.000000;0.278609
9407.000000;0.279392
9406.000000;0.280286
9405.000000;0.281283
9404.000000;0.282339
9403.000000;0.283194
9402.000000;0.283662
9401.000000;0.284022
9400.000000;0.284791
9399.000000;0.286065
9398.000000;0.287377
9397.000000;0.288289
9396.000000;0.288875
9395.000000;0.289506
9394.000000;0.290382
9393.000000;0.291423
9392.000000;0.292459
9391.000000;0.293377
9390.000000;0.294157
9389.000000;0.294862
9388.000000;0.295576
9387.000000;0.296309
9386.000000;0.297023
9385.000000;0.297742
9384.000000;0.298517
9383.000000;0.299308
9382.000000;0.300060
9381.000000;0.300893
9380.000000;0.302035
9379.000000;0.303502
9378.000000;0.305014
9377.000000;0.306307
9376.000000;0.307396
9375.000000;0.308427
9374.000000;0.309445
9373.000000;0.310445
9372.000000;0.311499
9371.000000;0.312665
9370.000000;0.313831
9369.000000;0.314840
9368.000000;0.315739
9367.000000;0.316761
9366.000000;0.318033
9365.000000;0.319412
9364.000000;0.320659
9363.000000;0.321706
9362.000000;0.322694
9361.000000;0.323774
9360.000000;0.324957
9359.000000;0.326180
9358.000000;0.327487
9357.000000;0.328990
9356.000000;0.330626
9355.000000;0.332074
9354.000000;0.333080
9353.000000;0.333813
9352.000000;0.334711
9351.000000;0.335981
9350.000000;0.337413
9349.000000;0.338693
9348.000000;0.339713
9347.000000;0.340564
9346.000000;0.341421
9345.000000;0.342522
9344.000000;0.344035
9343.000000;0.345799
9342.000000;0.347332
9341.000000;0.348281
9340.000000;0.348764
9339.000000;0.349172
9338.000000;0.349766
9337.000000;0.350612
9336.000000;0.351755
9335.000000;0.353227
9334.000000;0.354935
9333.000000;0.356681
9332.000000;0.358296
9331.000000;0.359649
9330.000000;0.360645
9329.000000;0.361363
9328.000000;0.362104
9327.000000;0.363135
9326.000000;0.364426
9325.000000;0.365783
9324.000000;0.367156
9323.000000;0.368600
9322.000000;0.370011
9321.000000;0.371142
9320.000000;0.371947
9319.000000;0.372707
9318.000000;0.373773
9317.000000;0.375279
9316.000000;0.377106
9315.000000;0.378954
9314.000000;0.380459
9313.000000;0.381398
9312.000000;0.381857
9311.000000;0.382154
9310.000000;0.382586
9309.000000;0.383328
9308.000000;0.384465
9307.000000;0.385909
9306.000000;0.387329
9305.000000;0.388400
9304.000000;0.389166
9303.000000;0.389977
9302.000000;0.391043
9301.000000;0.392237
9300.000000;0.393397
9299.000000;0.394580
9298.000000;0.395910
9297.000000;0.397339
9296.000000;0.398710
9295.000000;0.399939
9294.000000;0.401045
9293.000000;0.402109
9292.000000;0.403285
9291.000000;0.404709
9290.000000;0.406286
9289.000000;0.407665
9288.000000;0.408556
9287.000000;0.409007
9286.000000;0.409312
9285.000000;0.409758
9284.000000;0.410525
9283.000000;0.411681
9282.000000;0.413099
9281.000000;0.414486
9280.000000;0.415596
9279.000000;0.416395
9278.000000;0.416963
9277.000000;0.417385
9276.000000;0.417805
9275.000000;0.418438
9274.000000;0.419381
9273.000000;0.420511
9272.000000;0.421705
9271.000000;0.423011
9270.000000;0.424456
9269.000000;0.425810
9268.000000;0.426811
9267.000000;0.427530
9266.000000;0.428265
9265.000000;0.429119
9264.000000;0.429955
9263.000000;0.430769
9262.000000;0.431815
9261.000000;0.433244
9260.000000;0.434837
9259.000000;0.436246
9258.000000;0.437353
9257.000000;0.438235
9256.000000;0.438930
9255.000000;0.439410
9254.000000;0.439761
9253.000000;0.440204
9252.000000;0.440909
9251.000000;0.441876
9250.000000;0.442997
9249.000000;0.444165
9248.000000;0.445273
9247.000000;0.446196
9246.000000;0.446857
9245.000000;0.447334
9244.000000;0.447846
9243.000000;0.448563
9242.000000;0.449468
9241.000000;0.450460
9240.000000;0.451572
9239.000000;0.452960
9238.000000;0.454596
9237.000000;0.456108
9236.000000;0.457092
9235.000000;0.457558
9234.000000;0.457902
9233.000000;0.458461
9232.000000;0.459265
9231.000000;0.460220
9230.000000;0.461328
9229.000000;0.462568
9228.000000;0.463728
9227.000000;0.464560
9226.000000;0.465072
9225.000000;0.465518
9224.000000;0.466093
9223.000000;0.466767
9222.000000;0.467434
9221.000000;0.468091
9220.000000;0.468802
9219.000000;0.469572
9218.000000;0.470353
9217.000000;0.471109
9216.000000;0.471829
9215.000000;0.472486
9214.000000;0.473067
9213.000000;0.473625
9212.000000;0.474255
9211.000000;0.475027
9210.000000;0.475996
9209.000000;0.477207
9208.000000;0.478610
9207.000000;0.479948
9206.000000;0.480862
9205.000000;0.481176
9204.000000;0.481050
9203.000000;0.480847
9202.000000;0.480916
9201.000000;0.481484
9200.000000;0.482581
9199.000000;0.483951
9198.000000;0.485143
9197.000000;0.485870
9196.000000;0.486277
9195.000000;0.486749
9194.000000;0.487464
9193.000000;0.488297
9192.000000;0.489088
9191.000000;0.489834
9190.000000;0.490556
9189.000000;0.491175
9188.000000;0.491650
9187.000000;0.492125
9186.000000;0.492790
9185.000000;0.493623
9184.000000;0.494389
9183.000000;0.494878
9182.000000;0.495101
9181.000000;0.495278
9180.000000;0.495675
9179.000000;0.496413
9178.000000;0.497385
9177.000000;0.498392
9176.000000;0.499344
9175.000000;0.500266
9174.000000;0.501108
9173.000000;0.501753
9172.000000;0.502260
9171.000000;0.502910
9170.000000;0.503831
9169.000000;0.504734
9168.000000;0.505248
9167.000000;0.505424
9166.000000;0.505668
9165.000000;0.506200
9164.000000;0.506823
9163.000000;0.507303
9162.000000;0.507718
9161.000000;0.508306
9160.000000;0.509112
9159.000000;0.509933
9158.000000;0.510544
9157.000000;0.510878
9156.000000;0.511031
9155.000000;0.511157
9154.000000;0.511350
9153.000000;0.511620
9152.000000;0.511986
9151.000000;0.512557
9150.000000;0.513389
9149.000000;0.514296
9148.000000;0.514941
9147.000000;0.515214
9146.000000;0.515380
9145.000000;0.515779
9144.000000;0.516466
9143.000000;0.517238
9142.000000;0.517888
9141.000000;0.518355
9140.000000;0.518695
9139.000000;0.519029
9138.000000;0.519472
9137.000000;0.520012
9136.000000;0.520515
9135.000000;0.520946
9134.000000;0.521491
9133.000000;0.522322
9132.000000;0.523288
9131.000000;0.523997
9130.000000;0.524234
9129.000000;0.524172
9128.000000;0.524176
9127.000000;0.524482
9126.000000;0.525100
9125.000000;0.525888
9124.000000;0.526661
9123.000000;0.527285
9122.000000;0.527733
9121.000000;0.528050
9120.000000;0.528288
9119.000000;0.528518
9118.000000;0.528868
9117.000000;0.529416
9116.000000;0.530063
9115.000000;0.530605
9114.000000;0.530962
9113.000000;0.531239
9112.000000;0.531549
9111.000000;0.531875
9110.000000;0.532178
9109.000000;0.532505
9108.000000;0.532924
9107.000000;0.533426
9106.000000;0.533975
9105.000000;0.534594
9104.000000;0.535300
9103.000000;0.535997
9102.000000;0.536516
9101.000000;0.536767
9100.000000;0.536807
9099.000000;0.536791
9098.000000;0.536897
9097.000000;0.537249
9096.000000;0.537830
9095.000000;0.538477
9094.000000;0.539037
9093.000000;0.539491
9092.000000;0.539882
9091.000000;0.540172
9090.000000;0.540286
9089.000000;0.540262
9088.000000;0.540246
9087.000000;0.540341
9086.000000;0.540550
9085.000000;0.540860
9084.000000;0.541261
9083.000000;0.541670
9082.000000;0.541987
9081.000000;0.542284
9080.000000;0.542796
9079.000000;0.543616
9078.000000;0.544484
9077.000000;0.545010
9076.000000;0.545094
9075.000000;0.545014
9074.000000;0.545097
9073.000000;0.545436
9072.000000;0.545909
9071.000000;0.546362
9070.000000;0.546692
9069.000000;0.546845
9068.000000;0.546824
9067.000000;0.546731
9066.000000;0.546730
9065.000000;0.546951
9064.000000;0.547400
9063.000000;0.547960
9062.000000;0.548470
9061.000000;0.548823
9060.000000;0.549031
9059.000000;0.549202
9058.000000;0.549434
9057.000000;0.549690
9056.000000;0.549801
9055.000000;0.549658
9054.000000;0.549401
9053.000000;0.549334
9052.000000;0.549612
9051.000000;0.550080
9050.000000;0.550509
9049.000000;0.550910
9048.000000;0.551468
9047.000000;0.552183
9046.000000;0.552762
9045.000000;0.552953
9044.000000;0.552861
9043.000000;0.552814
9042.000000;0.552994
9041.000000;0.553310
9040.000000;0.553574
9039.000000;0.553704
9038.000000;0.553745
9037.000000;0.553809
9036.000000;0.554005
9035.000000;0.554380
9034.000000;0.554893
9033.000000;0.555458
9032.000000;0.555991
9031.000000;0.556410
9030.000000;0.556665
9029.000000;0.556817
9028.000000;0.557008
9027.000000;0.557294
9026.000000;0.557554
9025.000000;0.557645
9024.000000;0.557581
9023.000000;0.557484
9022.000000;0.557421
9021.000000;0.557385
9020.000000;0.557402
9019.000000;0.557522
9018.000000;0.557723
9017.000000;0.557957
9016.000000;0.558278
9015.000000;0.558771
9014.000000;0.559324
9013.000000;0.559653
9012.000000;0.559622
9011.000000;0.559437
9010.000000;0.559413
9009.000000;0.559635
9008.000000;0.559930
9007.000000;0.560095
9006.000000;0.560078
9005.000000;0.559976
9004.000000;0.559926
9003.000000;0.559981
9002.000000;0.560042
9001.000000;0.559968
9000.000000;0.559809
8999.000000;0.559845
8998.000000;0.560271
8997.000000;0.560909
8996.000000;0.561337
8995.000000;0.561347
8994.000000;0.561137
8993.000000;0.561039
8992.000000;0.561174
8991.000000;0.561448
8990.000000;0.561783
8989.000000;0.562186
8988.000000;0.562582
8987.000000;0.562771
8986.000000;0.562662
8985.000000;0.562461
8984.000000;0.562492
8983.000000;0.562810
8982.000000;0.563153
8981.000000;0.563280
8980.000000;0.563230
8979.000000;0.563185
8978.000000;0.563219
8977.000000;0.563288
8976.000000;0.563370
8975.000000;0.563456
8974.000000;0.563488
8973.000000;0.563460
8972.000000;0.563536
8971.000000;0.563868
8970.000000;0.564324
8969.000000;0.564580
8968.000000;0.564511
8967.000000;0.564295
8966.000000;0.564120
8965.000000;0.563998
8964.000000;0.563952
8963.000000;0.564137
8962.000000;0.564622
8961.000000;0.565213
8960.000000;0.565673
8959.000000;0.565968
8958.000000;0.566150
8957.000000;0.566141
8956.000000;0.565885
8955.000000;0.565580
8954.000000;0.565494
8953.000000;0.565591
8952.000000;0.565581
8951.000000;0.565365
8950.000000;0.565189
8949.000000;0.565300
8948.000000;0.565631
8947.000000;0.565944
8946.000000;0.566102
8945.000000;0.566096
8944.000000;0.565922
8943.000000;0.565578
8942.000000;0.565137
8941.000000;0.564741
8940.000000;0.564552
8939.000000;0.564693
8938.000000;0.565138
8937.000000;0.565636
8936.000000;0.565878
8935.000000;0.565835
8934.000000;0.565803
8933.000000;0.566026
8932.000000;0.566363
8931.000000;0.566473
8930.000000;0.566262
8929.000000;0.565985
8928.000000;0.565922
8927.000000;0.566086
8926.000000;0.566278
8925.000000;0.566321
8924.000000;0.566165
8923.000000;0.565848
8922.000000;0.565443
8921.000000;0.565033
8920.000000;0.564717
8919.000000;0.564582
8918.000000;0.564660
8917.000000;0.564913
8916.000000;0.565244
8915.000000;0.565566
8914.000000;0.565820
8913.000000;0.565966
8912.000000;0.566003
8911.000000;0.566005
8910.000000;0.566074
8909.000000;0.566210
8908.000000;0.566276
8907.000000;0.566163
8906.000000;0.565964
8905.000000;0.565890
8904.000000;0.566049
8903.000000;0.566364
8902.000000;0.566685
8901.000000;0.566895
8900.000000;0.566892
8899.000000;0.566605
8898.000000;0.566090
8897.000000;0.565542
8896.000000;0.565154
8895.000000;0.564977
8894.000000;0.564957
8893.000000;0.565052
8892.000000;0.565229
8891.000000;0.565409
8890.000000;0.565507
8889.000000;0.565542
8888.000000;0.565605
8887.000000;0.565708
8886.000000;0.565721
8885.000000;0.565526
8884.000000;0.565162
8883.000000;0.564790
8882.000000;0.564547
8881.000000;0.564501
8880.000000;0.564699
8879.000000;0.565141
8878.000000;0.565662
8877.000000;0.565927
8876.000000;0.565664
8875.000000;0.564953
8874.000000;0.564223
8873.000000;0.563930
8872.000000;0.564207
8871.000000;0.564830
8870.000000;0.565475
8869.000000;0.565946
8868.000000;0.566185
8867.000000;0.566184
8866.000000;0.565960
8865.000000;0.565591
8864.000000;0.565169
8863.000000;0.564727
8862.000000;0.564281
8861.000000;0.563961
8860.000000;0.563975
8859.000000;0.564360
8858.000000;0.564840
8857.000000;0.565027
8856.000000;0.564782
8855.000000;0.564330
8854.000000;0.564007
8853.000000;0.563972
8852.000000;0.564128
8851.000000;0.564259
8850.000000;0.564206
8849.000000;0.563982
8848.000000;0.563739
8847.000000;0.563615
8846.000000;0.563595
8845.000000;0.563547
8844.000000;0.563398
8843.000000;0.563238
8842.000000;0.563213
8841.000000;0.563367
8840.000000;0.563609
8839.000000;0.563818
8838.000000;0.563933
8837.000000;0.563947
8836.000000;0.563867
8835.000000;0.563698
8834.000000;0.563473
8833.000000;0.563276
8832.000000;0.563214
8831.000000;0.563303
8830.000000;0.563414
8829.000000;0.563365
8828.000000;0.563119
8827.000000;0.562843
8826.000000;0.562727
8825.000000;0.562780
8824.000000;0.562845
8823.000000;0.562803
8822.000000;0.562703
8821.000000;0.562687
8820.000000;0.562829
8819.000000;0.563066
8818.000000;0.563273
8817.000000;0.563373
8816.000000;0.563375
8815.000000;0.563330
8814.000000;0.563274
8813.000000;0.563210
8812.000000;0.563130
8811.000000;0.563044
8810.000000;0.562983
8809.000000;0.562972
8808.000000;0.562999
8807.000000;0.562999
8806.000000;0.562891
8805.000000;0.562677
8804.000000;0.562472
8803.000000;0.562415
8802.000000;0.562536
8801.000000;0.562734
8800.000000;0.562879
8799.000000;0.562894
8798.000000;0.562741
8797.000000;0.562397
8796.000000;0.561902
8795.000000;0.561414
8794.000000;0.561148
8793.000000;0.561231
8792.000000;0.561618
8791.000000;0.562122
8790.000000;0.562522
8789.000000;0.562672
8788.000000;0.562565
8787.000000;0.562324
8786.000000;0.562125
8785.000000;0.562112
8784.000000;0.562315
8783.000000;0.562636
8782.000000;0.562896
8781.000000;0.562963
8780.000000;0.562840
8779.000000;0.562626
8778.000000;0.562400
8777.000000;0.562193
8776.000000;0.562052
8775.000000;0.562063
8774.000000;0.562271
8773.000000;0.562625
8772.000000;0.563025
8771.000000;0.563355
8770.000000;0.563473
8769.000000;0.563269
8768.000000;0.562833
8767.000000;0.562466
8766.000000;0.562411
8765.000000;0.562611
8764.000000;0.562808
8763.000000;0.562881
8762.000000;0.562945
8761.000000;0.563128
8760.000000;0.563371
8759.000000;0.563510
8758.000000;0.563456
8757.000000;0.563230
8756.000000;0.562900
8755.000000;0.562574
8754.000000;0.562391
8753.000000;0.562439
8752.000000;0.562682
8751.000000;0.563005
8750.000000;0.563299
8749.000000;0.563442
8748.000000;0.563304
8747.000000;0.562890
8746.000000;0.562448
8745.000000;0.562258
8744.000000;0.562318
8743.000000;0.562353
8742.000000;0.562206
8741.000000;0.562068
8740.000000;0.562189
8739.000000;0.562508
8738.000000;0.562716
8737.000000;0.562668
8736.000000;0.562516
8735.000000;0.562440
8734.000000;0.562444
8733.000000;0.562489
8732.000000;0.562645
8731.000000;0.562947
8730.000000;0.563231
8729.000000;0.563293
8728.000000;0.563177
8727.000000;0.563118
8726.000000;0.563205
8725.000000;0.563285
8724.000000;0.563249
8723.000000;0.563211
8722.000000;0.563309
8721.000000;0.563443
8720.000000;0.563385
8719.000000;0.563090
8718.000000;0.562748
8717.000000;0.562528
8716.000000;0.562387
8715.000000;0.562179
8714.000000;0.561869
8713.000000;0.561601
8712.000000;0.561554
8711.000000;0.561757
8710.000000;0.562048
8709.000000;0.562220
8708.000000;0.562224
8707.000000;0.562207
8706.000000;0.562292
8705.000000;0.562409
8704.000000;0.562370
8703.000000;0.562109
8702.000000;0.561757
8701.000000;0.561512
8700.000000;0.561490
8699.000000;0.561680
8698.000000;0.561941
8697.000000;0.562040
8696.000000;0.561801
8695.000000;0.561283
8694.000000;0.560727
8693.000000;0.560311
8692.000000;0.560019
8691.000000;0.559778
8690.000000;0.559610
8689.000000;0.559563
8688.000000;0.559598
8687.000000;0.559648
8686.000000;0.559729
8685.000000;0.559867
8684.000000;0.559951
8683.000000;0.559827
8682.000000;0.559526
8681.000000;0.559256
8680.000000;0.559119
8679.000000;0.558995
8678.000000;0.558759
8677.000000;0.558498
8676.000000;0.558372
8675.000000;0.558365
8674.000000;0.558308
8673.000000;0.558109
8672.000000;0.557829
8671.000000;0.557544
8670.000000;0.557275
8669.000000;0.557052
8668.000000;0.556928
8667.000000;0.556866
8666.000000;0.556731
8665.000000;0.556453
8664.000000;0.556119
8663.000000;0.555835
8662.000000;0.555571
8661.000000;0.555220
8660.000000;0.554757
8659.000000;0.554262
8658.000000;0.553829
8657.000000;0.553541
8656.000000;0.553473
8655.000000;0.553627
8654.000000;0.553842
8653.000000;0.553877
8652.000000;0.553625
8651.000000;0.553198
8650.000000;0.552783
8649.000000;0.552464
8648.000000;0.552205
8647.000000;0.551962
8646.000000;0.551768
8645.000000;0.551692
8644.000000;0.551719
8643.000000;0.551667
8642.000000;0.551298
8641.000000;0.550565
8640.000000;0.549720
8639.000000;0.549102
8638.000000;0.548828
8637.000000;0.548756
8636.000000;0.548688
8635.000000;0.548535
8634.000000;0.548282
8633.000000;0.547956
8632.000000;0.547651
8631.000000;0.547480
8630.000000;0.547418
8629.000000;0.547275
8628.000000;0.546910
8627.000000;0.546374
8626.000000;0.545796
8625.000000;0.545210
8624.000000;0.544609
8623.000000;0.544097
8622.000000;0.543808
8621.000000;0.543695
8620.000000;0.543553
8619.000000;0.543267
8618.000000;0.542934
8617.000000;0.542694
8616.000000;0.542561
8615.000000;0.542479
8614.000000;0.542411
8613.000000;0.542288
8612.000000;0.541972
8611.000000;0.541408
8610.000000;0.540772
8609.000000;0.540331
8608.000000;0.540153
8607.000000;0.540057
8606.000000;0.539847
8605.000000;0.539499
8604.000000;0.539090
8603.000000;0.538661
8602.000000;0.538215
8601.000000;0.537796
8600.000000;0.537444
8599.000000;0.537107
8598.000000;0.536693
8597.000000;0.536221
8596.000000;0.535848
8595.000000;0.535683
8594.000000;0.535615
8593.000000;0.535385
8592.000000;0.534850
8591.000000;0.534150
8590.000000;0.533603
8589.000000;0.533420
8588.000000;0.533527
8587.000000;0.533646
8586.000000;0.533543
8585.000000;0.533196
8584.000000;0.532725
8583.000000;0.532226
8582.000000;0.531707
8581.000000;0.531175
8580.000000;0.530698
8579.000000;0.530361
8578.000000;0.530161
8577.000000;0.529982
8576.000000;0.529688
8575.000000;0.529216
8574.000000;0.528616
8573.000000;0.527988
8572.000000;0.527410
8571.000000;0.526920
8570.000000;0.526545
8569.000000;0.526316
8568.000000;0.526215
8567.000000;0.526137
8566.000000;0.525967
8565.000000;0.525669
8564.000000;0.525265
8563.000000;0.524742
8562.000000;0.524073
8561.000000;0.523354
8560.000000;0.522812
8559.000000;0.522595
8558.000000;0.522593
8557.000000;0.522545
8556.000000;0.522304
8555.000000;0.521946
8554.000000;0.521624
8553.000000;0.521403
8552.000000;0.521219
8551.000000;0.520965
8550.000000;0.520583
8549.000000;0.520128
8548.000000;0.519718
8547.000000;0.519405
8546.000000;0.519106
8545.000000;0.518698
8544.000000;0.518171
8543.000000;0.517619
8542.000000;0.517119
8541.000000;0.516683
8540.000000;0.516327
8539.000000;0.516079
8538.000000;0.515907
8537.000000;0.515694
8536.000000;0.515340
8535.000000;0.514847
8534.000000;0.514287
8533.000000;0.513728
8532.000000;0.513223
8531.000000;0.512820
8530.000000;0.512534
8529.000000;0.512320
8528.000000;0.512106
8527.000000;0.511829
8526.000000;0.511463
8525.000000;0.511027
8524.000000;0.510593
8523.000000;0.510236
8522.000000;0.509953
8521.000000;0.509639
8520.000000;0.509185
8519.000000;0.508582
8518.000000;0.507949
8517.000000;0.507473
8516.000000;0.507284
8515.000000;0.507331
8514.000000;0.507361
8513.000000;0.507088
8512.000000;0.506450
8511.000000;0.505664
8510.000000;0.505010
8509.000000;0.504586
8508.000000;0.504307
8507.000000;0.504093
8506.000000;0.503980
8505.000000;0.504022
8504.000000;0.504132
8503.000000;0.504088
8502.000000;0.503730
8501.000000;0.503136
8500.000000;0.502545
8499.000000;0.502108
8498.000000;0.501754
8497.000000;0.501346
8496.000000;0.500891
8495.000000;0.500524
8494.000000;0.500321
8493.000000;0.500205
8492.000000;0.500045
8491.000000;0.499745
8490.000000;0.499266
8489.000000;0.498670
8488.000000;0.498130
8487.000000;0.497789
8486.000000;0.497562
8485.000000;0.497214
8484.000000;0.496670
8483.000000;0.496123
8482.000000;0.495757
8481.000000;0.495488
8480.000000;0.495105
8479.000000;0.494580
8478.000000;0.494084
8477.000000;0.493727
8476.000000;0.493438
8475.000000;0.493100
8474.000000;0.492702
8473.000000;0.492325
8472.000000;0.492061
8471.000000;0.491945
8470.000000;0.491890
8469.000000;0.491695
8468.000000;0.491217
8467.000000;0.490548
8466.000000;0.489943
8465.000000;0.489531
8464.000000;0.489202
8463.000000;0.488808
8462.000000;0.488383
8461.000000;0.488062
8460.000000;0.487870
8459.000000;0.487678
8458.000000;0.487381
8457.000000;0.487031
8456.000000;0.486751
8455.000000;0.486568
8454.000000;0.486393
8453.000000;0.486151
8452.000000;0.485867
8451.000000;0.485605
8450.000000;0.485345
8449.000000;0.485007
8448.000000;0.484594
8447.000000;0.484235
8446.000000;0.484026
8445.000000;0.483884
8444.000000;0.483625
8443.000000;0.483179
8442.000000;0.482668
8441.000000;0.482248
8440.000000;0.481935
8439.000000;0.481637
8438.000000;0.481298
8437.000000;0.480961
8436.000000;0.480679
8435.000000;0.480420
8434.000000;0.480128
8433.000000;0.479845
8432.000000;0.479692
8431.000000;0.479702
8430.000000;0.479709
8429.000000;0.479511
8428.000000;0.479104
8427.000000;0.478682
8426.000000;0.478401
8425.000000;0.478226
8424.000000;0.478036
8423.000000;0.477781
8422.000000;0.477474
8421.000000;0.477095
8420.000000;0.476608
8419.000000;0.476030
8418.000000;0.475425
8417.000000;0.474843
8416.000000;0.474308
8415.000000;0.473838
8414.000000;0.473417
8413.000000;0.472992
8412.000000;0.472576
8411.000000;0.472319
8410.000000;0.472374
8409.000000;0.472685
8408.000000;0.472963
8407.000000;0.472909
8406.000000;0.472424
8405.000000;0.471643
8404.000000;0.470830
8403.000000;0.470217
8402.000000;0.469875
8401.000000;0.469681
8400.000000;0.469477
8399.000000;0.469236
8398.000000;0.469050
8397.000000;0.468960
8396.000000;0.468898
8395.000000;0.468772
8394.000000;0.468547
8393.000000;0.468207
8392.000000;0.467749
8391.000000;0.467235
8390.000000;0.466772
8389.000000;0.466413
8388.000000;0.466128
8387.000000;0.465900
8386.000000;0.465769
8385.000000;0.465735
8384.000000;0.465706
8383.000000;0.465579
8382.000000;0.465345
8381.000000;0.465045
8380.000000;0.464694
8379.000000;0.464298
8378.000000;0.463880
8377.000000;0.463454
8376.000000;0.462992
8375.000000;0.462512
8374.000000;0.462130
8373.000000;0.461956
8372.000000;0.461939
8371.000000;0.461896
8370.000000;0.461674
8369.000000;0.461255
8368.000000;0.460727
8367.000000;0.460234
8366.000000;0.459919
8365.000000;0.459826
8364.000000;0.459825
8363.000000;0.459702
8362.000000;0.459387
8361.000000;0.459024
8360.000000;0.458802
8359.000000;0.458727
8358.000000;0.458619
8357.000000;0.458312
8356.000000;0.457823
8355.000000;0.457307
8354.000000;0.456896
8353.000000;0.456600
8352.000000;0.456343
8351.000000;0.456049
8350.000000;0.455695
8349.000000;0.455294
8348.000000;0.454885
8347.000000;0.454533
8346.000000;0.454285
8345.000000;0.454121
8344.000000;0.453965
8343.000000;0.453755
8342.000000;0.453495
8341.000000;0.453215
8340.000000;0.452931
8339.000000;0.452645
8338.000000;0.452371
8337.000000;0.452112
8336.000000;0.451833
8335.000000;0.451486
8334.000000;0.451061
8333.000000;0.450607
8332.000000;0.450228
8331.000000;0.450042
8330.000000;0.450080
8329.000000;0.450191
8328.000000;0.450111
8327.000000;0.449710
8326.000000;0.449138
8325.000000;0.448656
8324.000000;0.448343
8323.000000;0.448061
8322.000000;0.447695
8321.000000;0.447317
8320.000000;0.447065
8319.000000;0.446942
8318.000000;0.446815
8317.000000;0.446582
8316.000000;0.446278
8315.000000;0.446012
8314.000000;0.445864
8313.000000;0.445812
8312.000000;0.445749
8311.000000;0.445562
8310.000000;0.445246
8309.000000;0.444899
8308.000000;0.444618
8307.000000;0.444393
8306.000000;0.444166
8305.000000;0.443936
8304.000000;0.443742
8303.000000;0.443558
8302.000000;0.443307
8301.000000;0.442989
8300.000000;0.442741
8299.000000;0.442680
8298.000000;0.442734
8297.000000;0.442673
8296.000000;0.442318
8295.000000;0.441699
8294.000000;0.441031
8293.000000;0.440552
8292.000000;0.440345
8291.000000;0.440299
8290.000000;0.440222
8289.000000;0.440003
8288.000000;0.439660
8287.000000;0.439264
8286.000000;0.438877
8285.000000;0.438563
8284.000000;0.438387
8283.000000;0.438330
8282.000000;0.438270
8281.000000;0.438108
8280.000000;0.437883
8279.000000;0.437687
8278.000000;0.437504
8277.000000;0.437239
8276.000000;0.436911
8275.000000;0.436680
8274.000000;0.436634
8273.000000;0.436627
8272.000000;0.436421
8271.000000;0.435953
8270.000000;0.435391
8269.000000;0.434961
8268.000000;0.434755
8267.000000;0.434689
8266.000000;0.434589
8265.000000;0.434338
8264.000000;0.433983
8263.000000;0.433679
8262.000000;0.433515
8261.000000;0.433420
8260.000000;0.433276
8259.000000;0.433080
8258.000000;0.432926
8257.000000;0.432855
8256.000000;0.432799
8255.000000;0.432658
8254.000000;0.432390
8253.000000;0.432034
8252.000000;0.431704
8251.000000;0.431552
8250.000000;0.431633
8249.000000;0.431802
8248.000000;0.431805
8247.000000;0.431533
8246.000000;0.431106
8245.000000;0.430679
8244.000000;0.430260
8243.000000;0.429777
8242.000000;0.429267
8241.000000;0.428885
8240.000000;0.428739
8239.000000;0.428790
8238.000000;0.428912
8237.000000;0.428975
8236.000000;0.428880
8235.000000;0.428603
8234.000000;0.428258
8233.000000;0.428043
8232.000000;0.428043
8231.000000;0.428111
8230.000000;0.428002
8229.000000;0.427615
8228.000000;0.427082
8227.000000;0.426635
8226.000000;0.426429
8225.000000;0.426481
8224.000000;0.426694
8223.000000;0.426901
8222.000000;0.426931
8221.000000;0.426716
8220.000000;0.426339
8219.000000;0.425973
8218.000000;0.425750
8217.000000;0.425699
8216.000000;0.425757
8215.000000;0.425807
8214.000000;0.425708
8213.000000;0.425377
8212.000000;0.424880
8211.000000;0.424423
8210.000000;0.424183
8209.000000;0.424147
8208.000000;0.424116
8207.000000;0.423906
8206.000000;0.423531
8205.000000;0.423191
8204.000000;0.423076
8203.000000;0.423187
8202.000000;0.423347
8201.000000;0.423388
8200.000000;0.423278
8199.000000;0.423072
8198.000000;0.422796
8197.000000;0.422461
8196.000000;0.422135
8195.000000;0.421924
8194.000000;0.421838
8193.000000;0.421760
8192.000000;0.421574
8191.000000;0.421280
8190.000000;0.420940
8189.000000;0.420600
8188.000000;0.420310
8187.000000;0.420165
8186.000000;0.420213
8185.000000;0.420352
8184.000000;0.420419
8183.000000;0.420379
8182.000000;0.420336
8181.000000;0.420348
8180.000000;0.420332
8179.000000;0.420187
8178.000000;0.419920
8177.000000;0.419625
8176.000000;0.419362
8175.000000;0.419136
8174.000000;0.418945
8173.000000;0.418804
8172.000000;0.418730
8171.000000;0.418731
8170.000000;0.418784
8169.000000;0.418793
8168.000000;0.418629
8167.000000;0.418270
8166.000000;0.417863
8165.000000;0.417593
8164.000000;0.417488
8163.000000;0.417416
8162.000000;0.417261
8161.000000;0.417053
8160.000000;0.416903
8159.000000;0.416866
8158.000000;0.416894
8157.000000;0.416902
8156.000000;0.416822
8155.000000;0.416627
8154.000000;0.416332
8153.000000;0.415996
8152.000000;0.415703
8151.000000;0.415515
8150.000000;0.415427
8149.000000;0.415376
8148.000000;0.415289
8147.000000;0.415148
8146.000000;0.415014
8145.000000;0.414980
8144.000000;0.415090
8143.000000;0.415292
8142.000000;0.415460
8141.000000;0.415469
8140.000000;0.415287
8139.000000;0.414994
8138.000000;0.414708
8137.000000;0.414491
8136.000000;0.414335
8135.000000;0.414223
8134.000000;0.414179
8133.000000;0.414237
8132.000000;0.414359
8131.000000;0.414430
8130.000000;0.414346
8129.000000;0.414114
8128.000000;0.413851
8127.000000;0.413660
8126.000000;0.413527
8125.000000;0.413355
8124.000000;0.413104
8123.000000;0.412850
8122.000000;0.412692
8121.000000;0.412628
8120.000000;0.412567
8119.000000;0.412444
8118.000000;0.412296
8117.000000;0.412202
8116.000000;0.412199
8115.000000;0.412258
8114.000000;0.412311
8113.000000;0.412294
8112.000000;0.412183
8111.000000;0.412011
8110.000000;0.411845
8109.000000;0.411743
8108.000000;0.411726
8107.000000;0.411791
8106.000000;0.411886
8105.000000;0.411918
8104.000000;0.411813
8103.000000;0.411599
8102.000000;0.411369
8101.000000;0.411176
8100.000000;0.411007
8099.000000;0.410874
8098.000000;0.410823
8097.000000;0.410845
8096.000000;0.410834
8095.000000;0.410713
8094.000000;0.410542
8093.000000;0.410421
8092.000000;0.410341
8091.000000;0.410230
8090.000000;0.410100
8089.000000;0.410062
8088.000000;0.410159
8087.000000;0.410293
8086.000000;0.410345
8085.000000;0.410298
8084.000000;0.410204
8083.000000;0.410092
8082.000000;0.409971
8081.000000;0.409878
8080.000000;0.409863
8079.000000;0.409934
8078.000000;0.410035
8077.000000;0.410069
8076.000000;0.409937
8075.000000;0.409609
8074.000000;0.409187
8073.000000;0.408865
8072.000000;0.408774
8071.000000;0.408865
8070.000000;0.408979
8069.000000;0.409006
8068.000000;0.408940
8067.000000;0.408809
8066.000000;0.408622
8065.000000;0.408392
8064.000000;0.408182
8063.000000;0.408057
8062.000000;0.408027
8061.000000;0.408037
8060.000000;0.408017
8059.000000;0.407941
8058.000000;0.407832
8057.000000;0.407729
8056.000000;0.407658
8055.000000;0.407621
8054.000000;0.407622
8053.000000;0.407673
8052.000000;0.407781
8051.000000;0.407917
8050.000000;0.408035
8049.000000;0.408105
8048.000000;0.408124
8047.000000;0.408085
8046.000000;0.407956
8045.000000;0.407708
8044.000000;0.407379
8043.000000;0.407082
8042.000000;0.406941
8041.000000;0.406989
8040.000000;0.407138
8039.000000;0.407236
8038.000000;0.407177
8037.000000;0.406957
8036.000000;0.406671
8035.000000;0.406451
8034.000000;0.406396
8033.000000;0.406511
8032.000000;0.406703
8031.000000;0.406858
8030.000000;0.406928
8029.000000;0.406935
8028.000000;0.406886
8027.000000;0.406753
8026.000000;0.406548
8025.000000;0.406376
8024.000000;0.406344
8023.000000;0.406425
8022.000000;0.406464
8021.000000;0.406339
8020.000000;0.406091
8019.000000;0.405883
8018.000000;0.405848
8017.000000;0.405984
8016.000000;0.406169
8015.000000;0.406263
8014.000000;0.406221
8013.000000;0.406111
8012.000000;0.406040
8011.000000;0.406045
8010.000000;0.406088
8009.000000;0.406128
8008.000000;0.406161
8007.000000;0.406179
8006.000000;0.406145
8005.000000;0.406033
8004.000000;0.405862
8003.000000;0.405675
8002.000000;0.405486
8001.000000;0.405298
8000.000000;0.405126
7999.000000;0.405000
7998.000000;0.404931
7997.000000;0.404928
7996.000000;0.405003
7995.000000;0.405137
7994.000000;0.405249
7993.000000;0.405256
7992.000000;0.405171
7991.000000;0.405105
7990.000000;0.405138
7989.000000;0.405224
7988.000000;0.405248
7987.000000;0.405148
7986.000000;0.404971
7985.000000;0.404809
7984.000000;0.404728
7983.000000;0.404737
7982.000000;0.404795
7981.000000;0.404832
7980.000000;0.404790
7979.000000;0.404677
7978.000000;0.404575
7977.000000;0.404564
7976.000000;0.404647
7975.000000;0.404757
7974.000000;0.404834
7973.000000;0.404866
7972.000000;0.404858
7971.000000;0.404782
7970.000000;0.404606
7969.000000;0.404370
7968.000000;0.404180
7967.000000;0.404113
7966.000000;0.404154
7965.000000;0.404229
7964.000000;0.404287
7963.000000;0.404323
7962.000000;0.404347
7961.000000;0.404371
7960.000000;0.404408
7959.000000;0.404458
7958.000000;0.404486
7957.000000;0.404439
7956.000000;0.404293
7955.000000;0.404096
7954.000000;0.403954
7953.000000;0.403953
7952.000000;0.404086
7951.000000;0.404249
7950.000000;0.404349
7949.000000;0.404390
7948.000000;0.404437
7947.000000;0.404488
7946.000000;0.404464
7945.000000;0.404341
7944.000000;0.404216
7943.000000;0.404180
7942.000000;0.404178
7941.000000;0.404080
7940.000000;0.403884
7939.000000;0.403732
7938.000000;0.403720
7937.000000;0.403765
7936.000000;0.403711
7935.000000;0.403527
7934.000000;0.403337
7933.000000;0.403280
7932.000000;0.403369
7931.000000;0.403493
7930.000000;0.403539
7929.000000;0.403504
7928.000000;0.403477
7927.000000;0.403513
7926.000000;0.403556
7925.000000;0.403521
7924.000000;0.403434
7923.000000;0.403401
7922.000000;0.403447
7921.000000;0.403471
7920.000000;0.403386
7919.000000;0.403242
7918.000000;0.403165
7917.000000;0.403207
7916.000000;0.403315
7915.000000;0.403408
7914.000000;0.403455
7913.000000;0.403475
7912.000000;0.403509
7911.000000;0.403572
7910.000000;0.403613
7909.000000;0.403558
7908.000000;0.403392
7907.000000;0.403195
7906.000000;0.403064
7905.000000;0.403035
7904.000000;0.403078
7903.000000;0.403144
7902.000000;0.403180
7901.000000;0.403157
7900.000000;0.403116
7899.000000;0.403150
7898.000000;0.403292
7897.000000;0.403439
7896.000000;0.403443
7895.000000;0.403275
7894.000000;0.403045
7893.000000;0.402893
7892.000000;0.402901
7891.000000;0.403099
7890.000000;0.403453
7889.000000;0.403842
7888.000000;0.404105
7887.000000;0.404166
7886.000000;0.404078
7885.000000;0.403942
7884.000000;0.403805
7883.000000;0.403656
7882.000000;0.403491
7881.000000;0.403348
7880.000000;0.403276
7879.000000;0.403286
7878.000000;0.403344
7877.000000;0.403398
7876.000000;0.403430
7875.000000;0.403467
7874.000000;0.403537
7873.000000;0.403626
7872.000000;0.403700
7871.000000;0.403758
7870.000000;0.403825
7869.000000;0.403900
7868.000000;0.403934
7867.000000;0.403894
7866.000000;0.403816
7865.000000;0.403789
7864.000000;0.403865
7863.000000;0.404003
7862.000000;0.404104
7861.000000;0.404086
7860.000000;0.403959
7859.000000;0.403803
7858.000000;0.403703
7857.000000;0.403698
7856.000000;0.403776
7855.000000;0.403901
7854.000000;0.404023
7853.000000;0.404104
7852.000000;0.404139
7851.000000;0.404144
7850.000000;0.404127
7849.000000;0.404082
7848.000000;0.404023
7847.000000;0.403988
7846.000000;0.403989
7845.000000;0.403993
7844.000000;0.403973
7843.000000;0.403952
7842.000000;0.403964
7841.000000;0.404007
7840.000000;0.404059
7839.000000;0.404133
7838.000000;0.404243
7837.000000;0.404363
7836.000000;0.404454
7835.000000;0.404523
7834.000000;0.404617
7833.000000;0.404740
7832.000000;0.404845
7831.000000;0.404889
7830.000000;0.404868
7829.000000;0.404782
7828.000000;0.404624
7827.000000;0.404418
7826.000000;0.404236
7825.000000;0.404135
7824.000000;0.404104
7823.000000;0.404098
7822.000000;0.404114
7821.000000;0.404181
7820.000000;0.404303
7819.000000;0.404436
7818.000000;0.404546
7817.000000;0.404657
7816.000000;0.404830
7815.000000;0.405073
7814.000000;0.405312
7813.000000;0.405450
7812.000000;0.405464
7811.000000;0.405411
7810.000000;0.405347
7809.000000;0.405281
7808.000000;0.405207
7807.000000;0.405145
7806.000000;0.405107
7805.000000;0.405074
7804.000000;0.405030
7803.000000;0.405017
7802.000000;0.405093
7801.000000;0.405255
7800.000000;0.405438
7799.000000;0.405594
7798.000000;0.405726
7797.000000;0.405858
7796.000000;0.405991
7795.000000;0.406121
7794.000000;0.406239
7793.000000;0.406329
7792.000000;0.406377
7791.000000;0.406399
7790.000000;0.406428
7789.000000;0.406482
7788.000000;0.406553
7787.000000;0.406633
7786.000000;0.406710
7785.000000;0.406735
7784.000000;0.406651
7783.000000;0.406474
7782.000000;0.406305
7781.000000;0.406247
7780.000000;0.406312
7779.000000;0.406430
7778.000000;0.406524
7777.000000;0.406556
7776.000000;0.406531
7775.000000;0.406475
7774.000000;0.406427
7773.000000;0.406429
7772.000000;0.406524
7771.000000;0.406736
7770.000000;0.407030
7769.000000;0.407311
7768.000000;0.407490
7767.000000;0.407568
7766.000000;0.407616
7765.000000;0.407672
7764.000000;0.407695
7763.000000;0.407653
7762.000000;0.407599
7761.000000;0.407629
7760.000000;0.407783
7759.000000;0.408011
7758.000000;0.408245
7757.000000;0.408456
7756.000000;0.408646
7755.000000;0.408803
7754.000000;0.408901
7753.000000;0.408932
7752.000000;0.408933
7751.000000;0.408954
7750.000000;0.409008
7749.000000;0.409058
7748.000000;0.409056
7747.000000;0.409013
7746.000000;0.408995
7745.000000;0.409058
7744.000000;0.409185
7743.000000;0.409300
7742.000000;0.409344
7741.000000;0.409330
7740.000000;0.409324
7739.000000;0.409385
7738.000000;0.409523
7737.000000;0.409705
7736.000000;0.409886
7735.000000;0.410036
7734.000000;0.410147
7733.000000;0.410241
7732.000000;0.410361
7731.000000;0.410523
7730.000000;0.410685
7729.000000;0.410790
7728.000000;0.410838
7727.000000;0.410897
7726.000000;0.411028
7725.000000;0.411226
7724.000000;0.411434
7723.000000;0.411586
7722.000000;0.411637
7721.000000;0.411588
7720.000000;0.411503
7719.000000;0.411474
7718.000000;0.411543
7717.000000;0.411674
7716.000000;0.411815
7715.000000;0.411942
7714.000000;0.412043
7713.000000;0.412101
7712.000000;0.412139
7711.000000;0.412214
7710.000000;0.412343
7709.000000;0.412466
7708.000000;0.412544
7707.000000;0.412621
7706.000000;0.412748
7705.000000;0.412880
7704.000000;0.412936
7703.000000;0.412924
7702.000000;0.412946
7701.000000;0.413060
7700.000000;0.413244
7699.000000;0.413461
7698.000000;0.413701
7697.000000;0.413949
7696.000000;0.414172
7695.000000;0.414363
7694.000000;0.414525
7693.000000;0.414627
7692.000000;0.414630
7691.000000;0.414575
7690.000000;0.414576
7689.000000;0.414708
7688.000000;0.414952
7687.000000;0.415251
7686.000000;0.415544
7685.000000;0.415744
7684.000000;0.415774
7683.000000;0.415667
7682.000000;0.415590
7681.000000;0.415684
7680.000000;0.415926
7679.000000;0.416172
7678.000000;0.416312
7677.000000;0.416355
7676.000000;0.416402
7675.000000;0.416566
7674.000000;0.416869
7673.000000;0.417200
7672.000000;0.417393
7671.000000;0.417395
7670.000000;0.417319
7669.000000;0.417325
7668.000000;0.417476
7667.000000;0.417736
7666.000000;0.418035
7665.000000;0.418305
7664.000000;0.418504
7663.000000;0.418651
7662.000000;0.418800
7661.000000;0.418951
7660.000000;0.419029
7659.000000;0.418996
7658.000000;0.418938
7657.000000;0.418991
7656.000000;0.419190
7655.000000;0.419446
7654.000000;0.419646
7653.000000;0.419754
7652.000000;0.419828
7651.000000;0.419960
7650.000000;0.420205
7649.000000;0.420513
7648.000000;0.420775
7647.000000;0.420942
7646.000000;0.421085
7645.000000;0.421292
7644.000000;0.421559
7643.000000;0.421813
7642.000000;0.422027
7641.000000;0.422247
7640.000000;0.422512
7639.000000;0.422796
7638.000000;0.423040
7637.000000;0.423200
7636.000000;0.423274
7635.000000;0.423309
7634.000000;0.423379
7633.000000;0.423534
7632.000000;0.423746
7631.000000;0.423948
7630.000000;0.424114
7629.000000;0.424271
7628.000000;0.424446
7627.000000;0.424618
7626.000000;0.424754
7625.000000;0.424859
7624.000000;0.424984
7623.000000;0.425165
7622.000000;0.425388
7621.000000;0.425600
7620.000000;0.425770
7619.000000;0.425923
7618.000000;0.426109
7617.000000;0.426347
7616.000000;0.426616
7615.000000;0.426900
7614.000000;0.427205
7613.000000;0.427535
7612.000000;0.427874
7611.000000;0.428192
7610.000000;0.428467
7609.000000;0.428673
7608.000000;0.428799
7607.000000;0.428873
7606.000000;0.428963
7605.000000;0.429125
7604.000000;0.429357
7603.000000;0.429614
7602.000000;0.429861
7601.000000;0.430095
7600.000000;0.430337
7599.000000;0.430607
7598.000000;0.430894
7597.000000;0.431156
7596.000000;0.431363
7595.000000;0.431540
7594.000000;0.431744
7593.000000;0.431995
7592.000000;0.432259
7591.000000;0.432522
7590.000000;0.432829
7589.000000;0.433212
7588.000000;0.433615
7587.000000;0.433947
7586.000000;0.434174
7585.000000;0.434347
7584.000000;0.434540
7583.000000;0.434789
7582.000000;0.435101
7581.000000;0.435462
7580.000000;0.435830
7579.000000;0.436143
7578.000000;0.436375
7577.000000;0.436573
7576.000000;0.436824
7575.000000;0.437173
7574.000000;0.437579
7573.000000;0.437963
7572.000000;0.438279
7571.000000;0.438542
7570.000000;0.438775
7569.000000;0.438989
7568.000000;0.439195
7567.000000;0.439422
7566.000000;0.439682
7565.000000;0.439938
7564.000000;0.440159
7563.000000;0.440389
7562.000000;0.440720
7561.000000;0.441179
7560.000000;0.441676
7559.000000;0.442084
7558.000000;0.442351
7557.000000;0.442533
7556.000000;0.442739
7555.000000;0.443034
7554.000000;0.443379
7553.000000;0.443681
7552.000000;0.443899
7551.000000;0.444089
7550.000000;0.444326
7549.000000;0.444621
7548.000000;0.444947
7547.000000;0.445312
7546.000000;0.445737
7545.000000;0.446178
7544.000000;0.446552
7543.000000;0.446850
7542.000000;0.447150
7541.000000;0.447494
7540.000000;0.447814
7539.000000;0.448031
7538.000000;0.448184
7537.000000;0.448408
7536.000000;0.448793
7535.000000;0.449293
7534.000000;0.449783
7533.000000;0.450178
7532.000000;0.450498
7531.000000;0.450830
7530.000000;0.451224
7529.000000;0.451657
7528.000000;0.452091
7527.000000;0.452520
7526.000000;0.452937
7525.000000;0.453288
7524.000000;0.453529
7523.000000;0.453715
7522.000000;0.453963
7521.000000;0.454324
7520.000000;0.454744
7519.000000;0.455141
7518.000000;0.455488
7517.000000;0.455799
7516.000000;0.456105
7515.000000;0.456461
7514.000000;0.456893
7513.000000;0.457349
7512.000000;0.457733
7511.000000;0.458023
7510.000000;0.458305
7509.000000;0.458679
7508.000000;0.459178
7507.000000;0.459768
7506.000000;0.460379
7505.000000;0.460918
7504.000000;0.461350
7503.000000;0.461655
7502.000000;0.461960
7501.000000;0.462305
7500.000000;0.462661
7499.000000;0.462998
7498.000000;0.463325
7497.000000;0.463635
7496.000000;0.463902
7495.000000;0.464164
7494.000000;0.464522
7493.000000;0.465016
7492.000000;0.465557
7491.000000;0.466033
7490.000000;0.466407
7489.000000;0.466705
7488.000000;0.466964
7487.000000;0.467249
7486.000000;0.467640
7485.000000;0.468146
7484.000000;0.468672
7483.000000;0.469113
7482.000000;0.469461
7481.000000;0.469787
7480.000000;0.470166
7479.000000;0.470637
7478.000000;0.471171
7477.000000;0.471656
7476.000000;0.471990
7475.000000;0.472205
7474.000000;0.472443
7473.000000;0.472791
7472.000000;0.473195
7471.000000;0.473593
7470.000000;0.474019
7469.000000;0.474526
7468.000000;0.475084
7467.000000;0.475619
7466.000000;0.476092
7465.000000;0.476494
7464.000000;0.476801
7463.000000;0.477033
7462.000000;0.477282
7461.000000;0.477645
7460.000000;0.478121
7459.000000;0.478637
7458.000000;0.479130
7457.000000;0.479568
7456.000000;0.479951
7455.000000;0.480320
7454.000000;0.480730
7453.000000;0.481169
7452.000000;0.481563
7451.000000;0.481895
7450.000000;0.482256
7449.000000;0.482706
7448.000000;0.483176
7447.000000;0.483561
7446.000000;0.483866
7445.000000;0.484180
7444.000000;0.484564
7443.000000;0.485034
7442.000000;0.485584
7441.000000;0.486167
7440.000000;0.486694
7439.000000;0.487127
7438.000000;0.487533
7437.000000;0.487982
7436.000000;0.488431
7435.000000;0.488779
7434.000000;0.489019
7433.000000;0.489256
7432.000000;0.489602
7431.000000;0.490085
7430.000000;0.490664
7429.000000;0.491254
7428.000000;0.491772
7427.000000;0.492214
7426.000000;0.492651
7425.000000;0.493106
7424.000000;0.493512
7423.000000;0.493848
7422.000000;0.494238
7421.000000;0.494814
7420.000000;0.495533
7419.000000;0.496220
7418.000000;0.496759
7417.000000;0.497171
7416.000000;0.497518
7415.000000;0.497798
7414.000000;0.497979
7413.000000;0.498116
7412.000000;0.498376
7411.000000;0.498909
7410.000000;0.499656
7409.000000;0.500356
7408.000000;0.500825
7407.000000;0.501211
7406.000000;0.501772
7405.000000;0.502501
7404.000000;0.503165
7403.000000;0.503652
7402.000000;0.504127
7401.000000;0.504843
7400.000000;0.505858
7399.000000;0.506957
7398.000000;0.507871
7397.000000;0.508551
7396.000000;0.509204
7395.000000;0.510013
7394.000000;0.510812
7393.000000;0.511234
7392.000000;0.511208
7391.000000;0.511103
7390.000000;0.511341
7389.000000;0.512081
7388.000000;0.513332
7387.000000;0.515125
7386.000000;0.517219
7385.000000;0.518845
7384.000000;0.519394
7383.000000;0.519368
7382.000000;0.519991
7381.000000;0.521608
7380.000000;0.523047
7379.000000;0.523063
7378.000000;0.521912
7377.000000;0.520925
7376.000000;0.520930
7375.000000;0.521641
7374.000000;0.522294
7373.000000;0.522430
7372.000000;0.522105
7371.000000;0.521708
7370.000000;0.521710
7369.000000;0.522408
7368.000000;0.523694
7367.000000;0.525166
7366.000000;0.526435
7365.000000;0.527107
7364.000000;0.526933
7363.000000;0.526428
7362.000000;0.526797
7361.000000;0.528621
7360.000000;0.530881
7359.000000;0.532063
7358.000000;0.531977
7357.000000;0.531942
7356.000000;0.533153
7355.000000;0.535561
7354.000000;0.538258
7353.000000;0.540445
7352.000000;0.542012
7351.000000;0.543631
7350.000000;0.546123
7349.000000;0.549238
7348.000000;0.551502
7347.000000;0.551828
7346.000000;0.550885
7345.000000;0.550033
7344.000000;0.549326
7343.000000;0.547796
7342.000000;0.545516
7341.000000;0.544007
7340.000000;0.544066
7339.000000;0.544608
7338.000000;0.544276
7337.000000;0.543204
7336.000000;0.542580
7335.000000;0.543385
7334.000000;0.545794
7333.000000;0.548954
7332.000000;0.551140
7331.000000;0.551261
7330.000000;0.550386
7329.000000;0.550538
7328.000000;0.551834
7327.000000;0.552066
7326.000000;0.549713
7325.000000;0.546177
7324.000000;0.544039
7323.000000;0.543990
7322.000000;0.544624
7321.000000;0.544841
7320.000000;0.545136
7319.000000;0.546575
7318.000000;0.549560
7317.000000;0.553438
7316.000000;0.556699
7315.000000;0.558089
7314.000000;0.558153
7313.000000;0.559024
7312.000000;0.561788
7311.000000;0.564813
7310.000000;0.565662
7309.000000;0.564149
7308.000000;0.562418
7307.000000;0.562350
7306.000000;0.563874
7305.000000;0.565787
7304.000000;0.567037
7303.000000;0.567070
7302.000000;0.566232
7301.000000;0.566024
7300.000000;0.567742
7299.000000;0.570446
7298.000000;0.571567
7297.000000;0.570087
7296.000000;0.567887
7295.000000;0.567302
7294.000000;0.568350
7293.000000;0.569209
7292.000000;0.568750
7291.000000;0.567644
7290.000000;0.567162
7289.000000;0.567766
7288.000000;0.568982
7287.000000;0.570131
7286.000000;0.570822
7285.000000;0.571194
7284.000000;0.571753
7283.000000;0.572786
7282.000000;0.574079
7281.000000;0.575304
7280.000000;0.576474
7279.000000;0.577836
7278.000000;0.579446
7277.000000;0.581090
7276.000000;0.582630
7275.000000;0.584193
7274.000000;0.585938
7273.000000;0.587767
7272.000000;0.589370
7271.000000;0.590557
7270.000000;0.591545
7269.000000;0.592856
7268.000000;0.594767
7267.000000;0.596961
7266.000000;0.598908
7265.000000;0.600567
7264.000000;0.602421
7263.000000;0.604714
7262.000000;0.606995
7261.000000;0.608662
7260.000000;0.609831
7259.000000;0.611191
7258.000000;0.613094
7257.000000;0.615347
7256.000000;0.617992
7255.000000;0.621577
7254.000000;0.626408
7253.000000;0.631773
7252.000000;0.636228
7251.000000;0.639078
7250.000000;0.641304
7249.000000;0.644487
7248.000000;0.648773
7247.000000;0.652563
7246.000000;0.654653
7245.000000;0.656110
7244.000000;0.659080
7243.000000;0.663934
7242.000000;0.668479
7241.000000;0.670415
7240.000000;0.670194
7239.000000;0.670568
7238.000000;0.673433
7237.000000;0.677991
7236.000000;0.682077
7235.000000;0.684601
7234.000000;0.686456
7233.000000;0.689079
7232.000000;0.692371
7231.000000;0.694741
7230.000000;0.695132
7229.000000;0.694385
7228.000000;0.694391
7227.000000;0.696326
7226.000000;0.699870
7225.000000;0.703796
7224.000000;0.707039
7223.000000;0.709428
7222.000000;0.711635
7221.000000;0.714424
7220.000000;0.717861
7219.000000;0.721307
7218.000000;0.724215
7217.000000;0.726828
7216.000000;0.729889
7215.000000;0.733648
7214.000000;0.737604
7213.000000;0.741305
7212.000000;0.744967
7211.000000;0.749063
7210.000000;0.753643
7209.000000;0.758309
7208.000000;0.762761
7207.000000;0.767128
7206.000000;0.771709
7205.000000;0.776457
7204.000000;0.780843
7203.000000;0.784324
7202.000000;0.786972
7201.000000;0.789539
7200.000000;0.792818
7199.000000;0.796891
7198.000000;0.801246
7197.000000;0.805540
7196.000000;0.810021
7195.000000;0.815115
7194.000000;0.820944
7193.000000;0.827380
7192.000000;0.834239
7191.000000;0.841153
7190.000000;0.847577
7189.000000;0.853504
7188.000000;0.859724
7187.000000;0.866743
7186.000000;0.873686
7185.000000;0.879127
7184.000000;0.882915
7183.000000;0.886434
7182.000000;0.890909
7181.000000;0.896103
7180.000000;0.900991
7179.000000;0.905198
7178.000000;0.909297
7177.000000;0.914026
7176.000000;0.919741
7175.000000;0.926440
7174.000000;0.933943
7173.000000;0.941935
7172.000000;0.950201
7171.000000;0.958626
7170.000000;0.966811
7169.000000;0.974229
7168.000000;0.980834
7167.000000;0.987011
7166.000000;0.992720
7165.000000;0.997316
7164.000000;1.000653
7163.000000;1.003783
7162.000000;1.007921
7161.000000;1.012939
7160.000000;1.017646
7159.000000;1.021539
7158.000000;1.025496
7157.000000;1.030560
7156.000000;1.036842
7155.000000;1.043695
7154.000000;1.050515
7153.000000;1.057259
7152.000000;1.064391
7151.000000;1.072323
7150.000000;1.080847
7149.000000;1.089142
7148.000000;1.096502
7147.000000;1.103154
7146.000000;1.110070
7145.000000;1.117738
7144.000000;1.125368
7143.000000;1.131715
7142.000000;1.136677
7141.000000;1.141466
7140.000000;1.146997
7139.000000;1.152687
7138.000000;1.157374
7137.000000;1.161013
7136.000000;1.164822
7135.000000;1.169727
7134.000000;1.175361
7133.000000;1.180854
7132.000000;1.186085
7131.000000;1.191721
7130.000000;1.198395
7129.000000;1.206179
7128.000000;1.214559
7127.000000;1.222570
7126.000000;1.229411
7125.000000;1.235414
7124.000000;1.241974
7123.000000;1.249893
7122.000000;1.258073
7121.000000;1.264645
7120.000000;1.269257
7119.000000;1.273386
7118.000000;1.278251
7117.000000;1.283403
7116.000000;1.287723
7115.000000;1.291089
7114.000000;1.294478
7113.000000;1.298836
7112.000000;1.304424
7111.000000;1.311001
7110.000000;1.317969
7109.000000;1.324555
7108.000000;1.330431
7107.000000;1.335957
7106.000000;1.341542
7105.000000;1.347049
7104.000000;1.352037
7103.000000;1.356511
7102.000000;1.361118
7101.000000;1.366453
7100.000000;1.372315
7099.000000;1.377794
7098.000000;1.382182
7097.000000;1.385732
7096.000000;1.389348
7095.000000;1.393503
7094.000000;1.397732
7093.000000;1.401340
7092.000000;1.404357
7091.000000;1.407467
7090.000000;1.411135
7089.000000;1.415242
7088.000000;1.419567
7087.000000;1.424125
7086.000000;1.428924
7085.000000;1.433792
7084.000000;1.438571
7083.000000;1.443228
7082.000000;1.447670
7081.000000;1.451647
7080.000000;1.455066
7079.000000;1.458276
7078.000000;1.461763
7077.000000;1.465610
7076.000000;1.469422
7075.000000;1.472780
7074.000000;1.475690
7073.000000;1.478539
7072.000000;1.481639
7071.000000;1.484876
7070.000000;1.487873
7069.000000;1.490502
7068.000000;1.493094
7067.000000;1.495980
7066.000000;1.498971
7065.000000;1.501624
7064.000000;1.503926
7063.000000;1.506336
7062.000000;1.509227
7061.000000;1.512602
7060.000000;1.516272
7059.000000;1.520008
7058.000000;1.523388
7057.000000;1.525916
7056.000000;1.527655
7055.000000;1.529545
7054.000000;1.532664
7053.000000;1.537084
7052.000000;1.541657
7051.000000;1.545025
7050.000000;1.546864
7049.000000;1.548094
7048.000000;1.549888
7047.000000;1.552467
7046.000000;1.554882
7045.000000;1.556056
7044.000000;1.555989
7043.000000;1.555724
7042.000000;1.556270
7041.000000;1.557805
7040.000000;1.559901
7039.000000;1.562158
7038.000000;1.564449
7037.000000;1.566754
7036.000000;1.568982
7035.000000;1.570973
7034.000000;1.572579
7033.000000;1.573797
7032.000000;1.574844
7031.000000;1.576016
7030.000000;1.577402
7029.000000;1.578813
7028.000000;1.580075
7027.000000;1.581295
7026.000000;1.582738
7025.000000;1.584451
7024.000000;1.586101
7023.000000;1.587226
7022.000000;1.587719
7021.000000;1.588117
7020.000000;1.589305
7019.000000;1.591774
7018.000000;1.595100
7017.000000;1.598264
7016.000000;1.600563
7015.000000;1.602123
7014.000000;1.603526
7013.000000;1.605089
7012.000000;1.606590
7011.000000;1.607590
7010.000000;1.607940
7009.000000;1.607949
7008.000000;1.608100
7007.000000;1.608592
7006.000000;1.609206
7005.000000;1.609654
7004.000000;1.609994
7003.000000;1.610568
7002.000000;1.611556
7001.000000;1.612805
7000.000000;1.614079
6999.000000;1.615209
6998.000000;1.615953
6997.000000;1.616000
6996.000000;1.615321
6995.000000;1.614367
6994.000000;1.613692
6993.000000;1.613511
6992.000000;1.613866
6991.000000;1.615033
6990.000000;1.617224
6989.000000;1.619834
6988.000000;1.621530
6987.000000;1.621544
6986.000000;1.620682
6985.000000;1.620539
6984.000000;1.621784
6983.000000;1.623631
6982.000000;1.624946
6981.000000;1.625386
6980.000000;1.625233
6979.000000;1.624654
6978.000000;1.623676
6977.000000;1.622619
6976.000000;1.621926
6975.000000;1.621575
6974.000000;1.621140
6973.000000;1.620541
6972.000000;1.620305
6971.000000;1.620879
6970.000000;1.622031
6969.000000;1.623237
6968.000000;1.624386
6967.000000;1.625704
6966.000000;1.627074
6965.000000;1.627825
6964.000000;1.627348
6963.000000;1.625799
6962.000000;1.624078
6961.000000;1.623138
6960.000000;1.623294
6959.000000;1.624154
6958.000000;1.625137
6957.000000;1.625994
6956.000000;1.626705
6955.000000;1.627065
6954.000000;1.626756
6953.000000;1.625868
6952.000000;1.624971
6951.000000;1.624424
6950.000000;1.623929
6949.000000;1.623095
6948.000000;1.622200
6947.000000;1.621920
6946.000000;1.622384
6945.000000;1.622979
6944.000000;1.623137
6943.000000;1.622904
6942.000000;1.622534
6941.000000;1.621953
6940.000000;1.621009
6939.000000;1.620007
6938.000000;1.619543
6937.000000;1.619799
6936.000000;1.620272
6935.000000;1.620285
6934.000000;1.619635
6933.000000;1.618662
6932.000000;1.617866
6931.000000;1.617542
6930.000000;1.617634
6929.000000;1.617741
6928.000000;1.617379
6927.000000;1.616460
6926.000000;1.615474
6925.000000;1.615071
6924.000000;1.615394
6923.000000;1.615872
6922.000000;1.615721
6921.000000;1.614707
6920.000000;1.613325
6919.000000;1.612247
6918.000000;1.611729
6917.000000;1.611576
6916.000000;1.611514
6915.000000;1.611439
6914.000000;1.611339
6913.000000;1.611159
6912.000000;1.610805
6911.000000;1.610183
6910.000000;1.609150
6909.000000;1.607509
6908.000000;1.605253
6907.000000;1.602817
6906.000000;1.600903
6905.000000;1.599946
6904.000000;1.599812
6903.000000;1.600026
6902.000000;1.600251
6901.000000;1.600478
6900.000000;1.600793
6899.000000;1.601097
6898.000000;1.601058
6897.000000;1.600328
6896.000000;1.598853
6895.000000;1.597004
6894.000000;1.595356
6893.000000;1.594282
6892.000000;1.593798
6891.000000;1.593782
6890.000000;1.594137
6889.000000;1.594583
6888.000000;1.594507
6887.000000;1.593458
6886.000000;1.591798
6885.000000;1.590508
6884.000000;1.590189
6883.000000;1.590489
6882.000000;1.590653
6881.000000;1.590397
6880.000000;1.589943
6879.000000;1.589379
6878.000000;1.588346
6877.000000;1.586491
6876.000000;1.584029
6875.000000;1.581763
6874.000000;1.580556
6873.000000;1.580693
6872.000000;1.581581
6871.000000;1.582138
6870.000000;1.581680
6869.000000;1.580511
6868.000000;1.579563
6867.000000;1.579442
6866.000000;1.579845
6865.000000;1.579845
6864.000000;1.578722
6863.000000;1.576637
6862.000000;1.574521
6861.000000;1.573242
6860.000000;1.572840
6859.000000;1.572613
6858.000000;1.571909
6857.000000;1.570653
6856.000000;1.569159
6855.000000;1.567747
6854.000000;1.566632
6853.000000;1.565823
6852.000000;1.564959
6851.000000;1.563576
6850.000000;1.561757
6849.000000;1.560197
6848.000000;1.559293
6847.000000;1.558517
6846.000000;1.557135
6845.000000;1.555283
6844.000000;1.553759
6843.000000;1.552870
6842.000000;1.552118
6841.000000;1.551062
6840.000000;1.549856
6839.000000;1.548700
6838.000000;1.547330
6837.000000;1.545434
6836.000000;1.543221
6835.000000;1.541148
6834.000000;1.539305
6833.000000;1.537474
6832.000000;1.535612
6831.000000;1.533871
6830.000000;1.532197
6829.000000;1.530299
6828.000000;1.528124
6827.000000;1.526054
6826.000000;1.524460
6825.000000;1.523256
6824.000000;1.522047
6823.000000;1.520559
6822.000000;1.518759
6821.000000;1.516692
6820.000000;1.514389
6819.000000;1.511941
6818.000000;1.509438
6817.000000;1.506751
6816.000000;1.503572
6815.000000;1.499903
6814.000000;1.496395
6813.000000;1.493900
6812.000000;1.492626
6811.000000;1.491902
6810.000000;1.490835
6809.000000;1.489035
6808.000000;1.486626
6807.000000;1.483837
6806.000000;1.480895
6805.000000;1.478128
6804.000000;1.475781
6803.000000;1.473729
6802.000000;1.471647
6801.000000;1.469518
6800.000000;1.467659
6799.000000;1.466142
6798.000000;1.464468
6797.000000;1.462057
6796.000000;1.458936
6795.000000;1.455705
6794.000000;1.452841
6793.000000;1.450210
6792.000000;1.447322
6791.000000;1.443956
6790.000000;1.440474
6789.000000;1.437506
6788.000000;1.435327
6787.000000;1.433561
6786.000000;1.431512
6785.000000;1.428786
6784.000000;1.425595
6783.000000;1.422478
6782.000000;1.419811
6781.000000;1.417565
6780.000000;1.415429
6779.000000;1.413113
6778.000000;1.410530
6777.000000;1.407731
6776.000000;1.404743
6775.000000;1.401577
6774.000000;1.398373
6773.000000;1.395389
6772.000000;1.392719
6771.000000;1.390141
6770.000000;1.387378
6769.000000;1.384480
6768.000000;1.381754
6767.000000;1.379334
6766.000000;1.376994
6765.000000;1.374451
6764.000000;1.371676
6763.000000;1.368858
6762.000000;1.366175
6761.000000;1.363696
6760.000000;1.361405
6759.000000;1.359189
6758.000000;1.356855
6757.000000;1.354269
6756.000000;1.351476
6755.000000;1.348619
6754.000000;1.345732
6753.000000;1.342682
6752.000000;1.339380
6751.000000;1.335991
6750.000000;1.332864
6749.000000;1.330192
6748.000000;1.327777
6747.000000;1.325226
6746.000000;1.322360
6745.000000;1.319346
6744.000000;1.316428
6743.000000;1.313697
6742.000000;1.311127
6741.000000;1.308664
6740.000000;1.306170
6739.000000;1.303442
6738.000000;1.300455
6737.000000;1.297474
6736.000000;1.294771
6735.000000;1.292274
6734.000000;1.289704
6733.000000;1.286977
6732.000000;1.284283
6731.000000;1.281765
6730.000000;1.279345
6729.000000;1.276885
6728.000000;1.274328
6727.000000;1.271619
6726.000000;1.268690
6725.000000;1.265611
6724.000000;1.262611
6723.000000;1.259831
6722.000000;1.257158
6721.000000;1.254403
6720.000000;1.251587
6719.000000;1.248895
6718.000000;1.246409
6717.000000;1.244044
6716.000000;1.241605
6715.000000;1.238951
6714.000000;1.236119
6713.000000;1.233279
6712.000000;1.230535
6711.000000;1.227863
6710.000000;1.224984
6709.000000;1.221791
6708.000000;1.218615
6707.000000;1.215818
6706.000000;1.213559
6705.000000;1.211609
6704.000000;1.209656
6703.000000;1.207545
6702.000000;1.205271
6701.000000;1.202829
6700.000000;1.200195
6699.000000;1.197410
6698.000000;1.194590
6697.000000;1.191839
6696.000000;1.189174
6695.000000;1.186548
6694.000000;1.183939
6693.000000;1.181383
6692.000000;1.178921
6691.000000;1.176546
6690.000000;1.174183
6689.000000;1.171727
6688.000000;1.169097
6687.000000;1.166292
6686.000000;1.163391
6685.000000;1.160504
6684.000000;1.157720
6683.000000;1.155101
6682.000000;1.152696
6681.000000;1.150497
6680.000000;1.148388
6679.000000;1.146207
6678.000000;1.143862
6677.000000;1.141359
6676.000000;1.138709
6675.000000;1.135921
6674.000000;1.133101
6673.000000;1.130458
6672.000000;1.128124
6671.000000;1.126000
6670.000000;1.123850
6669.000000;1.121510
6668.000000;1.118989
6667.000000;1.116418
6666.000000;1.113934
6665.000000;1.111586
6664.000000;1.109273
6663.000000;1.106850
6662.000000;1.104309
6661.000000;1.101810
6660.000000;1.099468
6659.000000;1.097228
6658.000000;1.094981
6657.000000;1.092728
6656.000000;1.090508
6655.000000;1.088280
6654.000000;1.085997
6653.000000;1.083721
6652.000000;1.081526
6651.000000;1.079355
6650.000000;1.077128
6649.000000;1.074907
6648.000000;1.072766
6647.000000;1.070562
6646.000000;1.068062
6645.000000;1.065341
6644.000000;1.062787
6643.000000;1.060652
6642.000000;1.058745
6641.000000;1.056702
6640.000000;1.054392
6639.000000;1.051961
6638.000000;1.049592
6637.000000;1.047363
6636.000000;1.045263
6635.000000;1.043210
6634.000000;1.041096
6633.000000;1.038875
6632.000000;1.036580
6631.000000;1.034217
6630.000000;1.031746
6629.000000;1.029234
6628.000000;1.026889
6627.000000;1.024849
6626.000000;1.022999
6625.000000;1.021119
6624.000000;1.019132
6623.000000;1.017094
6622.000000;1.015008
6621.000000;1.012813
6620.000000;1.010544
6619.000000;1.008335
6618.000000;1.006239
6617.000000;1.004162
6616.000000;1.002040
6615.000000;0.999962
6614.000000;0.998044
6613.000000;0.996237
6612.000000;0.994356
6611.000000;0.992273
6610.000000;0.990017
6609.000000;0.987720
6608.000000;0.985489
6607.000000;0.983369
6606.000000;0.981359
6605.000000;0.979442
6604.000000;0.977581
6603.000000;0.975718
6602.000000;0.973805
6601.000000;0.971848
6600.000000;0.969914
6599.000000;0.968056
6598.000000;0.966247
6597.000000;0.964398
6596.000000;0.962447
6595.000000;0.960422
6594.000000;0.958404
6593.000000;0.956442
6592.000000;0.954506
6591.000000;0.952535
6590.000000;0.950518
6589.000000;0.948519
6588.000000;0.946628
6587.000000;0.944885
6586.000000;0.943257
6585.000000;0.941652
6584.000000;0.939960
6583.000000;0.938113
6582.000000;0.936135
6581.000000;0.934142
6580.000000;0.932238
6579.000000;0.930417
6578.000000;0.928586
6577.000000;0.926691
6576.000000;0.924793
6575.000000;0.922995
6574.000000;0.921313
6573.000000;0.919638
6572.000000;0.917836
6571.000000;0.915884
6570.000000;0.913897
6569.000000;0.912017
6568.000000;0.910283
6567.000000;0.908635
6566.000000;0.907014
6565.000000;0.905404
6564.000000;0.903783
6563.000000;0.902102
6562.000000;0.900351
6561.000000;0.898580
6560.000000;0.896817
6559.000000;0.895010
6558.000000;0.893130
6557.000000;0.891281
6556.000000;0.889613
6555.000000;0.888134
6554.000000;0.886684
6553.000000;0.885112
6552.000000;0.883427
6551.000000;0.881738
6550.000000;0.880118
6549.000000;0.878529
6548.000000;0.876867
6547.000000;0.875063
6546.000000;0.873179
6545.000000;0.871387
6544.000000;0.869813
6543.000000;0.868392
6542.000000;0.866943
6541.000000;0.865361
6540.000000;0.863699
6539.000000;0.862036
6538.000000;0.860376
6537.000000;0.858694
6536.000000;0.857025
6535.000000;0.855447
6534.000000;0.853989
6533.000000;0.852593
6532.000000;0.851140
6531.000000;0.849556
6530.000000;0.847884
6529.000000;0.846266
6528.000000;0.844797
6527.000000;0.843401
6526.000000;0.841922
6525.000000;0.840312
6524.000000;0.838672
6523.000000;0.837103
6522.000000;0.835594
6521.000000;0.834087
6520.000000;0.832570
6519.000000;0.831063
6518.000000;0.829582
6517.000000;0.828150
6516.000000;0.826793
6515.000000;0.825475
6514.000000;0.824090
6513.000000;0.822578
6512.000000;0.821005
6511.000000;0.819473
6510.000000;0.818008
6509.000000;0.816572
6508.000000;0.815157
6507.000000;0.813786
6506.000000;0.812454
6505.000000;0.811123
6504.000000;0.809786
6503.000000;0.808469
6502.000000;0.807184
6501.000000;0.805909
6500.000000;0.804612
6499.000000;0.803268
6498.000000;0.801855
6497.000000;0.800377
6496.000000;0.798887
6495.000000;0.797454
6494.000000;0.796101
6493.000000;0.794787
6492.000000;0.793449
6491.000000;0.792048
6490.000000;0.790599
6489.000000;0.789169
6488.000000;0.787835
6487.000000;0.786615
6486.000000;0.785455
6485.000000;0.784280
6484.000000;0.783055
6483.000000;0.781789
6482.000000;0.780512
6481.000000;0.779281
6480.000000;0.778134
6479.000000;0.777036
6478.000000;0.775874
6477.000000;0.774560
6476.000000;0.773126
6475.000000;0.771691
6474.000000;0.770351
6473.000000;0.769119
6472.000000;0.767948
6471.000000;0.766775
6470.000000;0.765554
6469.000000;0.764296
6468.000000;0.763054
6467.000000;0.761853
6466.000000;0.760659
6465.000000;0.759443
6464.000000;0.758235
6463.000000;0.757077
6462.000000;0.755949
6461.000000;0.754791
6460.000000;0.753594
6459.000000;0.752400
6458.000000;0.751227
6457.000000;0.750053
6456.000000;0.748882
6455.000000;0.747753
6454.000000;0.746678
6453.000000;0.745604
6452.000000;0.744481
6451.000000;0.743334
6450.000000;0.742223
6449.000000;0.741150
6448.000000;0.740062
6447.000000;0.738928
6446.000000;0.737787
6445.000000;0.736685
6444.000000;0.735603
6443.000000;0.734466
6442.000000;0.733242
6441.000000;0.731989
6440.000000;0.730798
6439.000000;0.729708
6438.000000;0.728682
6437.000000;0.727671
6436.000000;0.726658
6435.000000;0.725642
6434.000000;0.724607
6433.000000;0.723533
6432.000000;0.722430
6431.000000;0.721340
6430.000000;0.720302
6429.000000;0.719322
6428.000000;0.718364
6427.000000;0.717378
6426.000000;0.716331
6425.000000;0.715244
6424.000000;0.714167
6423.000000;0.713140
6422.000000;0.712166
6421.000000;0.711228
6420.000000;0.710292
6419.000000;0.709326
6418.000000;0.708315
6417.000000;0.707281
6416.000000;0.706270
6415.000000;0.705301
6414.000000;0.704363
6413.000000;0.703425
6412.000000;0.702463
6411.000000;0.701461
6410.000000;0.700428
6409.000000;0.699411
6408.000000;0.698462
6407.000000;0.697572
6406.000000;0.696684
6405.000000;0.695760
6404.000000;0.694827
6403.000000;0.693926
6402.000000;0.693065
6401.000000;0.692227
6400.000000;0.691397
6399.000000;0.690559
6398.000000;0.689684
6397.000000;0.688751
6396.000000;0.687783
6395.000000;0.686831
6394.000000;0.685934
6393.000000;0.685094
6392.000000;0.684270
6391.000000;0.683397
6390.000000;0.682441
6389.000000;0.681446
6388.000000;0.680507
6387.000000;0.679665
6386.000000;0.678874
6385.000000;0.678070
6384.000000;0.677245
6383.000000;0.676427
6382.000000;0.675619
6381.000000;0.674792
6380.000000;0.673919
6379.000000;0.672996
6378.000000;0.672041
6377.000000;0.671092
6376.000000;0.670202
6375.000000;0.669393
6374.000000;0.668645
6373.000000;0.667926
6372.000000;0.667215
6371.000000;0.666495
6370.000000;0.665737
6369.000000;0.664923
6368.000000;0.664071
6367.000000;0.663213
6366.000000;0.662368
6365.000000;0.661563
6364.000000;0.660823
6363.000000;0.660129
6362.000000;0.659409
6361.000000;0.658617
6360.000000;0.657784
6359.000000;0.656960
6358.000000;0.656129
6357.000000;0.655246
6356.000000;0.654344
6355.000000;0.653529
6354.000000;0.652851
6353.000000;0.652239
6352.000000;0.651585
6351.000000;0.650859
6350.000000;0.650115
6349.000000;0.649402
6348.000000;0.648716
6347.000000;0.648021
6346.000000;0.647301
6345.000000;0.646580
6344.000000;0.645892
6343.000000;0.645235
6342.000000;0.644572
6341.000000;0.643866
6340.000000;0.643116
6339.000000;0.642338
6338.000000;0.641558
6337.000000;0.640806
6336.000000;0.640111
6335.000000;0.639469
6334.000000;0.638844
6333.000000;0.638205
6332.000000;0.637559
6331.000000;0.636904
6330.000000;0.636201
6329.000000;0.635422
6328.000000;0.634613
6327.000000;0.633869
6326.000000;0.633226
6325.000000;0.632634
6324.000000;0.632014
6323.000000;0.631344
6322.000000;0.630656
6321.000000;0.629991
6320.000000;0.629366
6319.000000;0.628764
6318.000000;0.628158
6317.000000;0.627533
6316.000000;0.626905
6315.000000;0.626283
6314.000000;0.625646
6313.000000;0.624960
6312.000000;0.624228
6311.000000;0.623497
6310.000000;0.622815
6309.000000;0.622197
6308.000000;0.621630
6307.000000;0.621093
6306.000000;0.620555
6305.000000;0.619988
6304.000000;0.619376
6303.000000;0.618729
6302.000000;0.618069
6301.000000;0.617434
6300.000000;0.616848
6299.000000;0.616307
6298.000000;0.615778
6297.000000;0.615232
6296.000000;0.614667
6295.000000;0.614087
6294.000000;0.613479
6293.000000;0.612846
6292.000000;0.612230
6291.000000;0.611670
6290.000000;0.611150
6289.000000;0.610613
6288.000000;0.610045
6287.000000;0.609483
6286.000000;0.608954
6285.000000;0.608435
6284.000000;0.607883
6283.000000;0.607294
6282.000000;0.606695
6281.000000;0.606106
6280.000000;0.605527
6279.000000;0.604956
6278.000000;0.604408
6277.000000;0.603904
6276.000000;0.603444
6275.000000;0.602990
6274.000000;0.602486
6273.000000;0.601902
6272.000000;0.601282
6271.000000;0.600704
6270.000000;0.600202
6269.000000;0.599741
6268.000000;0.599265
6267.000000;0.598759
6266.000000;0.598246
6265.000000;0.597749
6264.000000;0.597262
6263.000000;0.596772
6262.000000;0.596272
6261.000000;0.595770
6260.000000;0.595272
6259.000000;0.594776
6258.000000;0.594271
6257.000000;0.593744
6256.000000;0.593198
6255.000000;0.592656
6254.000000;0.592151
6253.000000;0.591707
6252.000000;0.591306
6251.000000;0.590905
6250.000000;0.590475
6249.000000;0.590025
6248.000000;0.589583
6247.000000;0.589147
6246.000000;0.588684
6245.000000;0.588183
6244.000000;0.587667
6243.000000;0.587159
6242.000000;0.586654
6241.000000;0.586147
6240.000000;0.585658
6239.000000;0.585209
6238.000000;0.584788
6237.000000;0.584371
6236.000000;0.583945
6235.000000;0.583503
6234.000000;0.583026
6233.000000;0.582512
6232.000000;0.582008
6231.000000;0.581557
6230.000000;0.581142
6229.000000;0.580709
6228.000000;0.580247
6227.000000;0.579801
6226.000000;0.579395
6225.000000;0.578992
6224.000000;0.578548
6223.000000;0.578077
6222.000000;0.577622
6221.000000;0.577203
6220.000000;0.576812
6219.000000;0.576430
6218.000000;0.576034
6217.000000;0.575606
6216.000000;0.575148
6215.000000;0.574687
6214.000000;0.574246
6213.000000;0.573827
6212.000000;0.573429
6211.000000;0.573059
6210.000000;0.572719
6209.000000;0.572376
6208.000000;0.571994
6207.000000;0.571580
6206.000000;0.571169
6205.000000;0.570787
6204.000000;0.570426
6203.000000;0.570073
6202.000000;0.569730
6201.000000;0.569399
6200.000000;0.569046
6199.000000;0.568623
6198.000000;0.568115
6197.000000;0.567579
6196.000000;0.567112
6195.000000;0.566759
6194.000000;0.566468
6193.000000;0.566147
6192.000000;0.565755
6191.000000;0.565334
6190.000000;0.564945
6189.000000;0.564600
6188.000000;0.564279
6187.000000;0.563957
6186.000000;0.563621
6185.000000;0.563251
6184.000000;0.562838
6183.000000;0.562412
6182.000000;0.562021
6181.000000;0.561691
6180.000000;0.561400
6179.000000;0.561103
6178.000000;0.560773
6177.000000;0.560417
6176.000000;0.560064
6175.000000;0.559730
6174.000000;0.559399
6173.000000;0.559031
6172.000000;0.558612
6171.000000;0.558182
6170.000000;0.557803
6169.000000;0.557495
6168.000000;0.557217
6167.000000;0.556921
6166.000000;0.556605
6165.000000;0.556299
6164.000000;0.556001
6163.000000;0.555661
6162.000000;0.555236
6161.000000;0.554748
6160.000000;0.554276
6159.000000;0.553883
6158.000000;0.553573
6157.000000;0.553304
6156.000000;0.553037
6155.000000;0.552761
6154.000000;0.552479
6153.000000;0.552189
6152.000000;0.551883
6151.000000;0.551566
6150.000000;0.551249
6149.000000;0.550942
6148.000000;0.550644
6147.000000;0.550346
6146.000000;0.550042
6145.000000;0.549726
6144.000000;0.549399
6143.000000;0.549071
6142.000000;0.548762
6141.000000;0.548480
6140.000000;0.548207
6139.000000;0.547907
6138.000000;0.547569
6137.000000;0.547215
6136.000000;0.546881
6135.000000;0.546585
6134.000000;0.546318
6133.000000;0.546068
6132.000000;0.545817
6131.000000;0.545547
6130.000000;0.545245
6129.000000;0.544920
6128.000000;0.544592
6127.000000;0.544274
6126.000000;0.543968
6125.000000;0.543673
6124.000000;0.543393
6123.000000;0.543136
6122.000000;0.542899
6121.000000;0.542676
6120.000000;0.542448
6119.000000;0.542196
6118.000000;0.541917
6117.000000;0.541627
6116.000000;0.541347
6115.000000;0.541083
6114.000000;0.540825
6113.000000;0.540564
6112.000000;0.540296
6111.000000;0.540007
6110.000000;0.539692
6109.000000;0.539371
6108.000000;0.539082
6107.000000;0.538843
6106.000000;0.538625
6105.000000;0.538386
6104.000000;0.538106
6103.000000;0.537796
6102.000000;0.537489
6101.000000;0.537215
6100.000000;0.536977
6099.000000;0.536751
6098.000000;0.536513
6097.000000;0.536265
6096.000000;0.536025
6095.000000;0.535796
6094.000000;0.535572
6093.000000;0.535353
6092.000000;0.535145
6091.000000;0.534929
6090.000000;0.534665
6089.000000;0.534341
6088.000000;0.534006
6087.000000;0.533734
6086.000000;0.533556
6085.000000;0.533444
6084.000000;0.533332
6083.000000;0.533160
6082.000000;0.532901
6081.000000;0.532580
6080.000000;0.532259
6079.000000;0.531987
6078.000000;0.531774
6077.000000;0.531598
6076.000000;0.531428
6075.000000;0.531229
6074.000000;0.530992
6073.000000;0.530744
6072.000000;0.530536
6071.000000;0.530383
6070.000000;0.530243
6069.000000;0.530062
6068.000000;0.529826
6067.000000;0.529545
6066.000000;0.529231
6065.000000;0.528896
6064.000000;0.528571
6063.000000;0.528297
6062.000000;0.528086
6061.000000;0.527927
6060.000000;0.527806
6059.000000;0.527709
6058.000000;0.527612
6057.000000;0.527484
6056.000000;0.527317
6055.000000;0.527124
6054.000000;0.526916
6053.000000;0.526694
6052.000000;0.526466
6051.000000;0.526247
6050.000000;0.526053
6049.000000;0.525889
6048.000000;0.525752
6047.000000;0.525624
6046.000000;0.525473
6045.000000;0.525271
6044.000000;0.525025
6043.000000;0.524780
6042.000000;0.524574
6041.000000;0.524403
6040.000000;0.524231
6039.000000;0.524025
6038.000000;0.523795
6037.000000;0.523591
6036.000000;0.523466
6035.000000;0.523414
6034.000000;0.523368
6033.000000;0.523255
6032.000000;0.523068
6031.000000;0.522870
6030.000000;0.522718
6029.000000;0.522608
6028.000000;0.522484
6027.000000;0.522309
6026.000000;0.522099
6025.000000;0.521897
6024.000000;0.521722
6023.000000;0.521553
6022.000000;0.521369
6021.000000;0.521183
6020.000000;0.521029
6019.000000;0.520915
6018.000000;0.520807
6017.000000;0.520674
6016.000000;0.520525
6015.000000;0.520388
6014.000000;0.520271
6013.000000;0.520155
6012.000000;0.520019
6011.000000;0.519864
6010.000000;0.519701
6009.000000;0.519539
6008.000000;0.519392
6007.000000;0.519276
6006.000000;0.519200
6005.000000;0.519144
6004.000000;0.519082
6003.000000;0.519001
6002.000000;0.518910
6001.000000;0.518816
6000.000000;0.518714
5999.000000;0.518600
5998.000000;0.518500
5997.000000;0.518447
5996.000000;0.518441
5995.000000;0.518433
5994.000000;0.518366
5993.000000;0.518227
5992.000000;0.518048
5991.000000;0.517868
5990.000000;0.517705
5989.000000;0.517567
5988.000000;0.517455
5987.000000;0.517365
5986.000000;0.517289
5985.000000;0.517219
5984.000000;0.517146
5983.000000;0.517060
5982.000000;0.516965
5981.000000;0.516867
5980.000000;0.516761
5979.000000;0.516633
5978.000000;0.516492
5977.000000;0.516381
5976.000000;0.516324
5975.000000;0.516288
5974.000000;0.516222
5973.000000;0.516128
5972.000000;0.516055
5971.000000;0.516027
5970.000000;0.516007
5969.000000;0.515956
5968.000000;0.515877
5967.000000;0.515802
5966.000000;0.515753
5965.000000;0.515730
5964.000000;0.515718
5963.000000;0.515685
5962.000000;0.515607
5961.000000;0.515501
5960.000000;0.515421
5959.000000;0.515394
5958.000000;0.515398
5957.000000;0.515398
5956.000000;0.515389
5955.000000;0.515376
5954.000000;0.515348
5953.000000;0.515299
5952.000000;0.515250
5951.000000;0.515224
5950.000000;0.515207
5949.000000;0.515169
5948.000000;0.515106
5947.000000;0.515052
5946.000000;0.515028
5945.000000;0.515026
5944.000000;0.515024
5943.000000;0.515011
5942.000000;0.514990
5941.000000;0.514963
5940.000000;0.514929
5939.000000;0.514880
5938.000000;0.514820
5937.000000;0.514771
5936.000000;0.514753
5935.000000;0.514763
5934.000000;0.514783
5933.000000;0.514805
5932.000000;0.514833
5931.000000;0.514857
5930.000000;0.514861
5929.000000;0.514862
5928.000000;0.514903
5927.000000;0.514994
5926.000000;0.515081
5925.000000;0.515114
5924.000000;0.515099
5923.000000;0.515077
5922.000000;0.515070
5921.000000;0.515072
5920.000000;0.515076
5919.000000;0.515075
5918.000000;0.515057
5917.000000;0.515018
5916.000000;0.514980
5915.000000;0.514962
5914.000000;0.514960
5913.000000;0.514962
5912.000000;0.514982
5911.000000;0.515032
5910.000000;0.515092
5909.000000;0.515136
5908.000000;0.515169
5907.000000;0.515217
5906.000000;0.515264
5905.000000;0.515264
5904.000000;0.515199
5903.000000;0.515117
5902.000000;0.515082
5901.000000;0.515122
5900.000000;0.515215
5899.000000;0.515321
5898.000000;0.515406
5897.000000;0.515461
5896.000000;0.515502
5895.000000;0.515549
5894.000000;0.515610
5893.000000;0.515684
5892.000000;0.515770
5891.000000;0.515853
5890.000000;0.515904
5889.000000;0.515915
5888.000000;0.515907
5887.000000;0.515913
5886.000000;0.515944
5885.000000;0.515991
5884.000000;0.516053
5883.000000;0.516133
5882.000000;0.516225
5881.000000;0.516315
5880.000000;0.516400
5879.000000;0.516488
5878.000000;0.516586
5877.000000;0.516697
5876.000000;0.516823
5875.000000;0.516956
5874.000000;0.517074
5873.000000;0.517162
5872.000000;0.517234
5871.000000;0.517318
5870.000000;0.517422
5869.000000;0.517523
5868.000000;0.517607
5867.000000;0.517679
5866.000000;0.517753
5865.000000;0.517839
5864.000000;0.517937
5863.000000;0.518048
5862.000000;0.518174
5861.000000;0.518324
5860.000000;0.518501
5859.000000;0.518687
5858.000000;0.518856
5857.000000;0.519005
5856.000000;0.519152
5855.000000;0.519312
5854.000000;0.519476
5853.000000;0.519631
5852.000000;0.519779
5851.000000;0.519918
5850.000000;0.520040
5849.000000;0.520160
5848.000000;0.520315
5847.000000;0.520518
5846.000000;0.520734
5845.000000;0.520925
5844.000000;0.521098
5843.000000;0.521282
5842.000000;0.521478
5841.000000;0.521666
5840.000000;0.521845
5839.000000;0.522042
5838.000000;0.522266
5837.000000;0.522504
5836.000000;0.522732
5835.000000;0.522941
5834.000000;0.523134
5833.000000;0.523332
5832.000000;0.523564
5831.000000;0.523833
5830.000000;0.524103
5829.000000;0.524331
5828.000000;0.524521
5827.000000;0.524702
5826.000000;0.524886
5825.000000;0.525071
5824.000000;0.525264
5823.000000;0.525483
5822.000000;0.525738
5821.000000;0.526018
5820.000000;0.526307
5819.000000;0.526576
5818.000000;0.526796
5817.000000;0.526969
5816.000000;0.527147
5815.000000;0.527385
5814.000000;0.527677
5813.000000;0.527979
5812.000000;0.528261
5811.000000;0.528530
5810.000000;0.528799
5809.000000;0.529076
5808.000000;0.529381
5807.000000;0.529726
5806.000000;0.530091
5805.000000;0.530432
5804.000000;0.530733
5803.000000;0.531013
5802.000000;0.531295
5801.000000;0.531591
5800.000000;0.531913
5799.000000;0.532257
5798.000000;0.532594
5797.000000;0.532889
5796.000000;0.533152
5795.000000;0.533431
5794.000000;0.533756
5793.000000;0.534121
5792.000000;0.534509
5791.000000;0.534909
5790.000000;0.535305
5789.000000;0.535671
5788.000000;0.535996
5787.000000;0.536293
5786.000000;0.536584
5785.000000;0.536886
5784.000000;0.537218
5783.000000;0.537580
5782.000000;0.537949
5781.000000;0.538298
5780.000000;0.538649
5779.000000;0.539043
5778.000000;0.539492
5777.000000;0.539963
5776.000000;0.540427
5775.000000;0.540892
5774.000000;0.541368
5773.000000;0.541838
5772.000000;0.542271
5771.000000;0.542665
5770.000000;0.543045
5769.000000;0.543436
5768.000000;0.543844
5767.000000;0.544254
5766.000000;0.544647
5765.000000;0.545025
5764.000000;0.545410
5763.000000;0.545823
5762.000000;0.546258
5761.000000;0.546693
5760.000000;0.547116
5759.000000;0.547535
5758.000000;0.547976
5757.000000;0.548464
5756.000000;0.549005
5755.000000;0.549568
5754.000000;0.550097
5753.000000;0.550565
5752.000000;0.551003
5751.000000;0.551460
5750.000000;0.551950
5749.000000;0.552450
5748.000000;0.552951
5747.000000;0.553466
5746.000000;0.554002
5745.000000;0.554545
5744.000000;0.555076
5743.000000;0.555594
5742.000000;0.556113
5741.000000;0.556655
5740.000000;0.557225
5739.000000;0.557794
5738.000000;0.558324
5737.000000;0.558808
5736.000000;0.559288
5735.000000;0.559821
5734.000000;0.560418
5733.000000;0.561057
5732.000000;0.561708
5731.000000;0.562350
5730.000000;0.562972
5729.000000;0.563576
5728.000000;0.564179
5727.000000;0.564785
5726.000000;0.565369
5725.000000;0.565920
5724.000000;0.566464
5723.000000;0.567035
5722.000000;0.567640
5721.000000;0.568270
5720.000000;0.568924
5719.000000;0.569605
5718.000000;0.570293
5717.000000;0.570957
5716.000000;0.571584
5715.000000;0.572178
5714.000000;0.572750
5713.000000;0.573332
5712.000000;0.573967
5711.000000;0.574668
5710.000000;0.575395
5709.000000;0.576094
5708.000000;0.576756
5707.000000;0.577406
5706.000000;0.578060
5705.000000;0.578711
5704.000000;0.579368
5703.000000;0.580029
5702.000000;0.580673
5701.000000;0.581312
5700.000000;0.581964
5699.000000;0.582649
5698.000000;0.583350
5697.000000;0.584047
5696.000000;0.584748
5695.000000;0.585464
5694.000000;0.586184
5693.000000;0.586895
5692.000000;0.587618
5691.000000;0.588372
5690.000000;0.589121
5689.000000;0.589814
5688.000000;0.590463
5687.000000;0.591135
5686.000000;0.591875
5685.000000;0.592663
5684.000000;0.593456
5683.000000;0.594224
5682.000000;0.594946
5681.000000;0.595622
5680.000000;0.596284
5679.000000;0.596959
5678.000000;0.597631
5677.000000;0.598271
5676.000000;0.598893
5675.000000;0.599547
5674.000000;0.600253
5673.000000;0.600996
5672.000000;0.601760
5671.000000;0.602542
5670.000000;0.603328
5669.000000;0.604095
5668.000000;0.604835
5667.000000;0.605552
5666.000000;0.606250
5665.000000;0.606940
5664.000000;0.607646
5663.000000;0.608363
5662.000000;0.609038
5661.000000;0.609644
5660.000000;0.610225
5659.000000;0.610841
5658.000000;0.611484
5657.000000;0.612114
5656.000000;0.612740
5655.000000;0.613407
5654.000000;0.614103
5653.000000;0.614771
5652.000000;0.615400
5651.000000;0.616037
5650.000000;0.616696
5649.000000;0.617331
5648.000000;0.617907
5647.000000;0.618454
5646.000000;0.619015
5645.000000;0.619599
5644.000000;0.620191
5643.000000;0.620783
5642.000000;0.621363
5641.000000;0.621930
5640.000000;0.622508
5639.000000;0.623128
5638.000000;0.623762
5637.000000;0.624342
5636.000000;0.624835
5635.000000;0.625272
5634.000000;0.625704
5633.000000;0.626162
5632.000000;0.626676
5631.000000;0.627261
5630.000000;0.627872
5629.000000;0.628426
5628.000000;0.628881
5627.000000;0.629283
5626.000000;0.629704
5625.000000;0.630170
5624.000000;0.630664
5623.000000;0.631155
5622.000000;0.631609
5621.000000;0.632002
5620.000000;0.632353
5619.000000;0.632710
5618.000000;0.633108
5617.000000;0.633544
5616.000000;0.633986
5615.000000;0.634400
5614.000000;0.634757
5613.000000;0.635054
5612.000000;0.635335
5611.000000;0.635644
5610.000000;0.635976
5609.000000;0.636296
5608.000000;0.636587
5607.000000;0.636859
5606.000000;0.637125
5605.000000;0.637404
5604.000000;0.637716
5603.000000;0.638046
5602.000000;0.638325
5601.000000;0.638509
5600.000000;0.638653
5599.000000;0.638847
5598.000000;0.639109
5597.000000;0.639382
5596.000000;0.639620
5595.000000;0.639808
5594.000000;0.639935
5593.000000;0.640014
5592.000000;0.640112
5591.000000;0.640286
5590.000000;0.640497
5589.000000;0.640671
5588.000000;0.640807
5587.000000;0.640967
5586.000000;0.641159
5585.000000;0.641329
5584.000000;0.641455
5583.000000;0.641560
5582.000000;0.641645
5581.000000;0.641682
5580.000000;0.641687
5579.000000;0.641713
5578.000000;0.641762
5577.000000;0.641789
5576.000000;0.641793
5575.000000;0.641828
5574.000000;0.641898
5573.000000;0.641943
5572.000000;0.641954
5571.000000;0.641997
5570.000000;0.642100
5569.000000;0.642185
5568.000000;0.642179
5567.000000;0.642113
5566.000000;0.642059
5565.000000;0.642034
5564.000000;0.642014
5563.000000;0.641990
5562.000000;0.641969
5561.000000;0.641961
5560.000000;0.641998
5559.000000;0.642144
5558.000000;0.642418
5557.000000;0.642745
5556.000000;0.643002
5555.000000;0.643111
5554.000000;0.643087
5553.000000;0.642993
5552.000000;0.642867
5551.000000;0.642703
5550.000000;0.642474
5549.000000;0.642190
5548.000000;0.641917
5547.000000;0.641717
5546.000000;0.641591
5545.000000;0.641499
5544.000000;0.641440
5543.000000;0.641465
5542.000000;0.641613
5541.000000;0.641845
5540.000000;0.642074
5539.000000;0.642244
5538.000000;0.642347
5537.000000;0.642346
5536.000000;0.642155
5535.000000;0.641732
5534.000000;0.641178
5533.000000;0.640683
5532.000000;0.640368
5531.000000;0.640218
5530.000000;0.640163
5529.000000;0.640179
5528.000000;0.640331
5527.000000;0.640667
5526.000000;0.641138
5525.000000;0.641622
5524.000000;0.641992
5523.000000;0.642191
5522.000000;0.642220
5521.000000;0.642084
5520.000000;0.641807
5519.000000;0.641496
5518.000000;0.641331
5517.000000;0.641408
5516.000000;0.641573
5515.000000;0.641603
5514.000000;0.641555
5513.000000;0.641758
5512.000000;0.642369
5511.000000;0.643131
5510.000000;0.643675
5509.000000;0.643903
5508.000000;0.643894
5507.000000;0.643549
5506.000000;0.642704
5505.000000;0.641608
5504.000000;0.640930
5503.000000;0.641198
5502.000000;0.642324
5501.000000;0.643771
5500.000000;0.645219
5499.000000;0.646818
5498.000000;0.648730
5497.000000;0.650706
5496.000000;0.652290
5495.000000;0.653337
5494.000000;0.653972
5493.000000;0.654055
5492.000000;0.653124
5491.000000;0.651096
5490.000000;0.648632
5489.000000;0.646483
5488.000000;0.644742
5487.000000;0.643132
5486.000000;0.641930
5485.000000;0.642054
5484.000000;0.643890
5483.000000;0.646644
5482.000000;0.649315
5481.000000;0.651697
5480.000000;0.653975
5479.000000;0.655799
5478.000000;0.656630
5477.000000;0.656655
5476.000000;0.656427
5475.000000;0.655819
5474.000000;0.654332
5473.000000;0.652358
5472.000000;0.651174
5471.000000;0.651683
5470.000000;0.653658
5469.000000;0.656110
5468.000000;0.658166
5467.000000;0.659507
5466.000000;0.660279
5465.000000;0.660772
5464.000000;0.661023
5463.000000;0.660791
5462.000000;0.659994
5461.000000;0.658882
5460.000000;0.657720
5459.000000;0.656638
5458.000000;0.655883
5457.000000;0.655940
5456.000000;0.657276
5455.000000;0.659899
5454.000000;0.663206
5453.000000;0.666488
5452.000000;0.669608
5451.000000;0.673083
5450.000000;0.677104
5449.000000;0.680718
5448.000000;0.682736
5447.000000;0.683217
5446.000000;0.683209
5445.000000;0.683265
5444.000000;0.683035
5443.000000;0.682309
5442.000000;0.681635
5441.000000;0.681555
5440.000000;0.681925
5439.000000;0.682536
5438.000000;0.683776
5437.000000;0.686055
5436.000000;0.689053
5435.000000;0.691809
5434.000000;0.693361
5433.000000;0.693369
5432.000000;0.692278
5431.000000;0.691027
5430.000000;0.690203
5429.000000;0.689308
5428.000000;0.687335
5427.000000;0.684140
5426.000000;0.680859
5425.000000;0.679045
5424.000000;0.679673
5423.000000;0.682663
5422.000000;0.687164
5421.000000;0.692524
5420.000000;0.698763
5419.000000;0.705925
5418.000000;0.713223
5417.000000;0.719402
5416.000000;0.723976
5415.000000;0.727257
5414.000000;0.729078
5413.000000;0.728575
5412.000000;0.725684
5411.000000;0.721896
5410.000000;0.718845
5409.000000;0.716890
5408.000000;0.715661
5407.000000;0.715279
5406.000000;0.716353
5405.000000;0.718962
5404.000000;0.722663
5403.000000;0.727343
5402.000000;0.732945
5401.000000;0.738929
5400.000000;0.744663
5399.000000;0.749963
5398.000000;0.754771
5397.000000;0.758701
5396.000000;0.761715
5395.000000;0.764519
5394.000000;0.767571
5393.000000;0.770367
5392.000000;0.772363
5391.000000;0.774167
5390.000000;0.776820
5389.000000;0.780349
5388.000000;0.784046
5387.000000;0.787963
5386.000000;0.792799
5385.000000;0.798376
5384.000000;0.803797
5383.000000;0.809037
5382.000000;0.814955
5381.000000;0.821649
5380.000000;0.828077
5379.000000;0.833575
5378.000000;0.838511
5377.000000;0.842937
5376.000000;0.846096
5375.000000;0.847938
5374.000000;0.849884
5373.000000;0.853392
5372.000000;0.858559
5371.000000;0.864709
5370.000000;0.871544
5369.000000;0.879115
5368.000000;0.887108
5367.000000;0.895085
5366.000000;0.903084
5365.000000;0.911393
5364.000000;0.920217
5363.000000;0.929760
5362.000000;0.940199
5361.000000;0.951393
5360.000000;0.963039
5359.000000;0.975295
5358.000000;0.988398
5357.000000;1.001725
5356.000000;1.014305
5355.000000;1.026430
5354.000000;1.039406
5353.000000;1.053371
5352.000000;1.066870
5351.000000;1.079167
5350.000000;1.091606
5349.000000;1.105749
5348.000000;1.121280
5347.000000;1.136878
5346.000000;1.152303
5345.000000;1.167997
5344.000000;1.183346
5343.000000;1.197226
5342.000000;1.210009
5341.000000;1.223372
5340.000000;1.238242
5339.000000;1.254027
5338.000000;1.269735
5337.000000;1.285213
5336.000000;1.300888
5335.000000;1.317270
5334.000000;1.335078
5333.000000;1.354788
5332.000000;1.375748
5331.000000;1.396503
5330.000000;1.416390
5329.000000;1.436112
5328.000000;1.456485
5327.000000;1.477248
5326.000000;1.497901
5325.000000;1.518901
5324.000000;1.541265
5323.000000;1.565521
5322.000000;1.591446
5321.000000;1.618311
5320.000000;1.645236
5319.000000;1.672010
5318.000000;1.699518
5317.000000;1.728747
5316.000000;1.759323
5315.000000;1.790008
5314.000000;1.820499
5313.000000;1.851279
5312.000000;1.882003
5311.000000;1.911824
5310.000000;1.941266
5309.000000;1.971773
5308.000000;2.003200
5307.000000;2.033660
5306.000000;2.062139
5305.000000;2.089276
5304.000000;2.115647
5303.000000;2.141554
5302.000000;2.168036
5301.000000;2.195537
5300.000000;2.222208
5299.000000;2.246319
5298.000000;2.269717
5297.000000;2.295724
5296.000000;2.324125
5295.000000;2.351299
5294.000000;2.374597
5293.000000;2.393412
5292.000000;2.407259
5291.000000;2.417254
5290.000000;2.428174
5289.000000;2.444169
5288.000000;2.463385
5287.000000;2.480679
5286.000000;2.494138
5285.000000;2.504931
5284.000000;2.512888
5283.000000;2.517093
5282.000000;2.519172
5281.000000;2.521345
5280.000000;2.523198
5279.000000;2.524050
5278.000000;2.525753
5277.000000;2.529131
5276.000000;2.530570
5275.000000;2.526657
5274.000000;2.520348
5273.000000;2.518023
5272.000000;2.523009
5271.000000;2.534906
5270.000000;2.551283
5269.000000;2.566799
5268.000000;2.574528
5267.000000;2.573145
5266.000000;2.569101
5265.000000;2.567931
5264.000000;2.567487
5263.000000;2.563091
5262.000000;2.555848
5261.000000;2.550459
5260.000000;2.548675
5259.000000;2.549523
5258.000000;2.552431
5257.000000;2.555980
5256.000000;2.556747
5255.000000;2.553640
5254.000000;2.551170
5253.000000;2.554063
5252.000000;2.560804
5251.000000;2.566292
5250.000000;2.568405
5249.000000;2.568209
5248.000000;2.566062
5247.000000;2.561972
5246.000000;2.557779
5245.000000;2.555097
5244.000000;2.553079
5243.000000;2.550966
5242.000000;2.550071
5241.000000;2.550579
5240.000000;2.549965
5239.000000;2.547577
5238.000000;2.547271
5237.000000;2.551730
5236.000000;2.557539
5235.000000;2.559871
5234.000000;2.559449
5233.000000;2.560180
5232.000000;2.562738
5231.000000;2.564992
5230.000000;2.566189
5229.000000;2.566687
5228.000000;2.565581
5227.000000;2.562268
5226.000000;2.558464
5225.000000;2.555983
5224.000000;2.554654
5223.000000;2.554577
5222.000000;2.557186
5221.000000;2.561717
5220.000000;2.563865
5219.000000;2.561032
5218.000000;2.556104
5217.000000;2.552995
5216.000000;2.552291
5215.000000;2.553804
5214.000000;2.558930
5213.000000;2.567389
5212.000000;2.575137
5211.000000;2.578836
5210.000000;2.579670
5209.000000;2.579445
5208.000000;2.576325
5207.000000;2.568573
5206.000000;2.559682
5205.000000;2.554916
5204.000000;2.555132
5203.000000;2.557876
5202.000000;2.561612
5201.000000;2.565383
5200.000000;2.566875
5199.000000;2.565058
5198.000000;2.562515
5197.000000;2.561300
5196.000000;2.559289
5195.000000;2.554537
5194.000000;2.550320
5193.000000;2.551369
5192.000000;2.557509
5191.000000;2.564749
5190.000000;2.570976
5189.000000;2.576524
5188.000000;2.579779
5187.000000;2.576949
5186.000000;2.567177
5185.000000;2.554805
5184.000000;2.545760
5183.000000;2.543458
5182.000000;2.547366
5181.000000;2.553459
5180.000000;2.556710
5179.000000;2.555193
5178.000000;2.551496
5177.000000;2.549508
5176.000000;2.551016
5175.000000;2.555419
5174.000000;2.560441
5173.000000;2.562300
5172.000000;2.558718
5171.000000;2.553074
5170.000000;2.551616
5169.000000;2.556102
5168.000000;2.562034
5167.000000;2.564642
5166.000000;2.564040
5165.000000;2.562833
5164.000000;2.561908
5163.000000;2.561044
5162.000000;2.560927
5161.000000;2.562015
5160.000000;2.563519
5159.000000;2.565115
5158.000000;2.567186
5157.000000;2.568150
5156.000000;2.564864
5155.000000;2.557402
5154.000000;2.549840
5153.000000;2.544724
5152.000000;2.540672
5151.000000;2.536887
5150.000000;2.535987
5149.000000;2.539964
5148.000000;2.546669
5147.000000;2.552998
5146.000000;2.558811
5145.000000;2.564722
5144.000000;2.568820
5143.000000;2.568960
5142.000000;2.565897
5141.000000;2.561117
5140.000000;2.554478
5139.000000;2.546945
5138.000000;2.542385
5137.000000;2.543366
5136.000000;2.547425
5135.000000;2.550009
5134.000000;2.549646
5133.000000;2.547798
5132.000000;2.545625
5131.000000;2.543991
5130.000000;2.544230
5129.000000;2.546195
5128.000000;2.547701
5127.000000;2.547720
5126.000000;2.548056
5125.000000;2.550219
5124.000000;2.552618
5123.000000;2.552766
5122.000000;2.550570
5121.000000;2.547652
5120.000000;2.545514
5119.000000;2.545906
5118.000000;2.550048
5117.000000;2.555637
5116.000000;2.557551
5115.000000;2.553836
5114.000000;2.548069
5113.000000;2.543869
5112.000000;2.540905
5111.000000;2.538007
5110.000000;2.536347
5109.000000;2.536952
5108.000000;2.538188
5107.000000;2.538666
5106.000000;2.539956
5105.000000;2.543505
5104.000000;2.547605
5103.000000;2.550119
5102.000000;2.551477
5101.000000;2.552133
5100.000000;2.550245
5099.000000;2.545178
5098.000000;2.540051
5097.000000;2.537535
5096.000000;2.536330
5095.000000;2.534826
5094.000000;2.535178
5093.000000;2.539870
5092.000000;2.546641
5091.000000;2.550869
5090.000000;2.551629
5089.000000;2.551410
5088.000000;2.551300
5087.000000;2.550310
5086.000000;2.548071
5085.000000;2.544735
5084.000000;2.539667
5083.000000;2.533453
5082.000000;2.529288
5081.000000;2.529311
5080.000000;2.531206
5079.000000;2.530978
5078.000000;2.528103
5077.000000;2.525265
5076.000000;2.524319
5075.000000;2.525470
5074.000000;2.528703
5073.000000;2.532935
5072.000000;2.535227
5071.000000;2.534275
5070.000000;2.533436
5069.000000;2.536514
5068.000000;2.541579
5067.000000;2.542654
5066.000000;2.537664
5065.000000;2.530636
5064.000000;2.525515
5063.000000;2.522077
5062.000000;2.518391
5061.000000;2.514111
5060.000000;2.510240
5059.000000;2.507552
5058.000000;2.506401
5057.000000;2.506991
5056.000000;2.508951
5055.000000;2.510935
5054.000000;2.511122
5053.000000;2.508629
5052.000000;2.504888
5051.000000;2.503005
5050.000000;2.504534
5049.000000;2.507340
5048.000000;2.508411
5047.000000;2.508505
5046.000000;2.510944
5045.000000;2.515507
5044.000000;2.517246
5043.000000;2.513279
5042.000000;2.507413
5041.000000;2.504950
5040.000000;2.506122
5039.000000;2.507183
5038.000000;2.505642
5037.000000;2.501897
5036.000000;2.497102
5035.000000;2.491923
5034.000000;2.486771
5033.000000;2.481739
5032.000000;2.476948
5031.000000;2.473744
5030.000000;2.473962
5029.000000;2.476975
5028.000000;2.479337
5027.000000;2.478787
5026.000000;2.476657
5025.000000;2.474725
5024.000000;2.472460
5023.000000;2.469345
5022.000000;2.466881
5021.000000;2.465777
5020.000000;2.463504
5019.000000;2.457706
5018.000000;2.450685
5017.000000;2.446736
5016.000000;2.446337
5015.000000;2.446221
5014.000000;2.444007
5013.000000;2.440155
5012.000000;2.436051
5011.000000;2.432869
5010.000000;2.431767
5009.000000;2.432558
5008.000000;2.432470
5007.000000;2.428457
5006.000000;2.421049
5005.000000;2.413711
5004.000000;2.409052
5003.000000;2.407273
5002.000000;2.407296
5001.000000;2.407612
5000.000000;2.406498
4999.000000;2.403185
4998.000000;2.398640
4997.000000;2.394001
4996.000000;2.388853
4995.000000;2.382388
4994.000000;2.375456
4993.000000;2.369854
4992.000000;2.366092
4991.000000;2.363140
4990.000000;2.359904
4989.000000;2.355875
4988.000000;2.350927
4987.000000;2.345458
4986.000000;2.340318
4985.000000;2.335858
4984.000000;2.331703
4983.000000;2.328041
4982.000000;2.325903
4981.000000;2.325157
4980.000000;2.323642
4979.000000;2.319742
4978.000000;2.314666
4977.000000;2.310595
4976.000000;2.307755
4975.000000;2.305061
4974.000000;2.302553
4973.000000;2.301205
4972.000000;2.300690
4971.000000;2.299103
4970.000000;2.294976
4969.000000;2.288509
4968.000000;2.280871
4967.000000;2.273314
4966.000000;2.266800
4965.000000;2.261613
4964.000000;2.257304
4963.000000;2.253361
4962.000000;2.249555
4961.000000;2.245338
4960.000000;2.239741
4959.000000;2.232631
4958.000000;2.225421
4957.000000;2.219715
4956.000000;2.215614
4955.000000;2.211939
4954.000000;2.207565
4953.000000;2.201952
4952.000000;2.195026
4951.000000;2.187372
4950.000000;2.180124
4949.000000;2.174058
4948.000000;2.169171
4947.000000;2.165294
4946.000000;2.162394
4945.000000;2.159981
4944.000000;2.157071
4943.000000;2.153212
4942.000000;2.148750
4941.000000;2.143791
4940.000000;2.137991
4939.000000;2.131899
4938.000000;2.127249
4937.000000;2.124904
4936.000000;2.123347
4935.000000;2.120076
4934.000000;2.114091
4933.000000;2.106339
4932.000000;2.098343
4931.000000;2.091191
4930.000000;2.085249
4929.000000;2.080048
4928.000000;2.074888
4927.000000;2.069906
4926.000000;2.065762
4925.000000;2.061956
4924.000000;2.056670
4923.000000;2.049094
4922.000000;2.040768
4921.000000;2.033733
4920.000000;2.028386
4919.000000;2.023947
4918.000000;2.019942
4917.000000;2.016062
4916.000000;2.011392
4915.000000;2.005200
4914.000000;1.998136
4913.000000;1.991484
4912.000000;1.985561
4911.000000;1.979867
4910.000000;1.974387
4909.000000;1.969678
4908.000000;1.965839
4907.000000;1.962318
4906.000000;1.958611
4905.000000;1.954443
4904.000000;1.949502
4903.000000;1.943744
4902.000000;1.937752
4901.000000;1.932118
4900.000000;1.926718
4899.000000;1.921150
4898.000000;1.915532
4897.000000;1.910150
4896.000000;1.904683
4895.000000;1.898577
4894.000000;1.891986
4893.000000;1.885636
4892.000000;1.879930
4891.000000;1.874799
4890.000000;1.870151
4889.000000;1.865724
4888.000000;1.860737
4887.000000;1.854587
4886.000000;1.847834
4885.000000;1.841726
4884.000000;1.836729
4883.000000;1.832186
4882.000000;1.827364
4881.000000;1.822138
4880.000000;1.816609
4879.000000;1.810783
4878.000000;1.804887
4877.000000;1.799430
4876.000000;1.794660
4875.000000;1.790311
4874.000000;1.786039
4873.000000;1.781793
4872.000000;1.777654
4871.000000;1.773591
4870.000000;1.769515
4869.000000;1.765288
4868.000000;1.760638
4867.000000;1.755346
4866.000000;1.749586
4865.000000;1.743845
4864.000000;1.738453
4863.000000;1.733376
4862.000000;1.728475
4861.000000;1.723738
4860.000000;1.719227
4859.000000;1.714913
4858.000000;1.710595
4857.000000;1.705934
4856.000000;1.700696
4855.000000;1.695073
4854.000000;1.689579
4853.000000;1.684485
4852.000000;1.679524
4851.000000;1.674338
4850.000000;1.668989
4849.000000;1.663811
4848.000000;1.658962
4847.000000;1.654410
4846.000000;1.650172
4845.000000;1.646232
4844.000000;1.642356
4843.000000;1.638323
4842.000000;1.634222
4841.000000;1.630192
4840.000000;1.625968
4839.000000;1.621119
4838.000000;1.615718
4837.000000;1.610387
4836.000000;1.605559
4835.000000;1.601058
4834.000000;1.596495
4833.000000;1.591832
4832.000000;1.587311
4831.000000;1.583012
4830.000000;1.578673
4829.000000;1.574008
4828.000000;1.569104
4827.000000;1.564427
4826.000000;1.560361
4825.000000;1.556729
4824.000000;1.552905
4823.000000;1.548468
4822.000000;1.543593
4821.000000;1.538740
4820.000000;1.534142
4819.000000;1.529753
4818.000000;1.525512
4817.000000;1.521409
4816.000000;1.517358
4815.000000;1.513265
4814.000000;1.509129
4813.000000;1.504965
4812.000000;1.500676
4811.000000;1.496170
4810.000000;1.491585
4809.000000;1.487164
4808.000000;1.482998
4807.000000;1.479022
4806.000000;1.475201
4805.000000;1.471589
4804.000000;1.468177
4803.000000;1.464826
4802.000000;1.461389
4801.000000;1.457729
4800.000000;1.453706
4799.000000;1.449272
4798.000000;1.444599
4797.000000;1.440000
4796.000000;1.435703
4795.000000;1.431753
4794.000000;1.428051
4793.000000;1.424380
4792.000000;1.420499
4791.000000;1.416361
4790.000000;1.412205
4789.000000;1.408315
4788.000000;1.404700
4787.000000;1.401149
4786.000000;1.397536
4785.000000;1.393915
4784.000000;1.390306
4783.000000;1.386609
4782.000000;1.382778
4781.000000;1.378950
4780.000000;1.375308
4779.000000;1.371889
4778.000000;1.368571
4777.000000;1.365201
4776.000000;1.361694
4775.000000;1.358068
4774.000000;1.354397
4773.000000;1.350707
4772.000000;1.346913
4771.000000;1.342924
4770.000000;1.338845
4769.000000;1.334980
4768.000000;1.331558
4767.000000;1.328471
4766.000000;1.325369
4765.000000;1.322034
4764.000000;1.318626
4763.000000;1.315455
4762.000000;1.312552
4761.000000;1.309591
4760.000000;1.306288
4759.000000;1.302734
4758.000000;1.299217
4757.000000;1.295797
4756.000000;1.292266
4755.000000;1.288518
4754.000000;1.284760
4753.000000;1.281280
4752.000000;1.278133
4751.000000;1.275133
4750.000000;1.272053
4749.000000;1.268784
4748.000000;1.265389
4747.000000;1.262065
4746.000000;1.259001
4745.000000;1.256204
4744.000000;1.253493
4743.000000;1.250701
4742.000000;1.247807
4741.000000;1.244879
4740.000000;1.241977
4739.000000;1.239125
4738.000000;1.236309
4737.000000;1.233450
4736.000000;1.230472
4735.000000;1.227423
4734.000000;1.224432
4733.000000;1.221545
4732.000000;1.218678
4731.000000;1.215756
4730.000000;1.212804
4729.000000;1.209878
4728.000000;1.207013
4727.000000;1.204248
4726.000000;1.201596
4725.000000;1.198939
4724.000000;1.196097
4723.000000;1.193049
4722.000000;1.189989
4721.000000;1.187090
4720.000000;1.184335
4719.000000;1.181636
4718.000000;1.178980
4717.000000;1.176389
4716.000000;1.173837
4715.000000;1.171292
4714.000000;1.168761
4713.000000;1.166245
4712.000000;1.163744
4711.000000;1.161358
4710.000000;1.159223
4709.000000;1.157289
4708.000000;1.155289
4707.000000;1.153049
4706.000000;1.150693
4705.000000;1.148441
4704.000000;1.146300
4703.000000;1.144105
4702.000000;1.141755
4701.000000;1.139285
4700.000000;1.136775
4699.000000;1.134291
4698.000000;1.131853
4697.000000;1.129378
4696.000000;1.126752
4695.000000;1.124066
4694.000000;1.121642
4693.000000;1.119674
4692.000000;1.117950
4691.000000;1.116081
4690.000000;1.113937
4689.000000;1.111686
4688.000000;1.109468
4687.000000;1.107253
4686.000000;1.105021
4685.000000;1.102873
4684.000000;1.100884
4683.000000;1.098978
4682.000000;1.097029
4681.000000;1.095048
4680.000000;1.093180
4679.000000;1.091543
4678.000000;1.090065
4677.000000;1.088497
4676.000000;1.086626
4675.000000;1.084505
4674.000000;1.082402
4673.000000;1.080484
4672.000000;1.078654
4671.000000;1.076745
4670.000000;1.074773
4669.000000;1.072883
4668.000000;1.071125
4667.000000;1.069413
4666.000000;1.067676
4665.000000;1.065933
4664.000000;1.064244
4663.000000;1.062672
4662.000000;1.061245
4661.000000;1.059885
4660.000000;1.058416
4659.000000;1.056766
4658.000000;1.055088
4657.000000;1.053567
4656.000000;1.052164
4655.000000;1.050689
4654.000000;1.049066
4653.000000;1.047372
4652.000000;1.045661
4651.000000;1.043907
4650.000000;1.042147
4649.000000;1.040501
4648.000000;1.039006
4647.000000;1.037568
4646.000000;1.036136
4645.000000;1.034783
4644.000000;1.033558
4643.000000;1.032360
4642.000000;1.031045
4641.000000;1.029596
4640.000000;1.028121
4639.000000;1.026740
4638.000000;1.025500
4637.000000;1.024334
4636.000000;1.023091
4635.000000;1.021676
4634.000000;1.020192
4633.000000;1.018856
4632.000000;1.017743
4631.000000;1.016677
4630.000000;1.015451
4629.000000;1.014076
4628.000000;1.012739
4627.000000;1.011569
4626.000000;1.010540
4625.000000;1.009549
4624.000000;1.008529
4623.000000;1.007470
4622.000000;1.006401
4621.000000;1.005368
4620.000000;1.004404
4619.000000;1.003504
4618.000000;1.002637
4617.000000;1.001790
4616.000000;1.000976
4615.000000;1.000198
4614.000000;0.999425
4613.000000;0.998592
4612.000000;0.997645
4611.000000;0.996587
4610.000000;0.995504
4609.000000;0.994523
4608.000000;0.993710
4607.000000;0.993008
4606.000000;0.992269
4605.000000;0.991370
4604.000000;0.990315
4603.000000;0.989212
4602.000000;0.988177
4601.000000;0.987269
4600.000000;0.986500
4599.000000;0.985850
4598.000000;0.985240
4597.000000;0.984542
4596.000000;0.983687
4595.000000;0.982750
4594.000000;0.981869
4593.000000;0.981103
4592.000000;0.980421
4591.000000;0.979811
4590.000000;0.979304
4589.000000;0.978890
4588.000000;0.978498
4587.000000;0.978094
4586.000000;0.977711
4585.000000;0.977345
4584.000000;0.976910
4583.000000;0.976370
4582.000000;0.975833
4581.000000;0.975431
4580.000000;0.975166
4579.000000;0.974929
4578.000000;0.974627
4577.000000;0.974234
4576.000000;0.973766
4575.000000;0.973290
4574.000000;0.972911
4573.000000;0.972662
4572.000000;0.972433
4571.000000;0.972090
4570.000000;0.971645
4569.000000;0.971227
4568.000000;0.970898
4567.000000;0.970595
4566.000000;0.970271
4565.000000;0.969993
4564.000000;0.969862
4563.000000;0.969892
4562.000000;0.970014
4561.000000;0.970157
4560.000000;0.970278
4559.000000;0.970357
4558.000000;0.970392
4557.000000;0.970429
4556.000000;0.970541
4555.000000;0.970760
4554.000000;0.971021
4553.000000;0.971198
4552.000000;0.971212
4551.000000;0.971089
4550.000000;0.970927
4549.000000;0.970855
4548.000000;0.971019
4547.000000;0.971508
4546.000000;0.972208
4545.000000;0.972825
4544.000000;0.973168
4543.000000;0.973381
4542.000000;0.973754
4541.000000;0.974321
4540.000000;0.974833
4539.000000;0.975132
4538.000000;0.975369
4537.000000;0.975732
4536.000000;0.976180
4535.000000;0.976571
4534.000000;0.976916
4533.000000;0.977307
4532.000000;0.977700
4531.000000;0.977958
4530.000000;0.978096
4529.000000;0.978282
4528.000000;0.978588
4527.000000;0.978908
4526.000000;0.979146
4525.000000;0.979354
4524.000000;0.979633
4523.000000;0.980005
4522.000000;0.980418
4521.000000;0.980835
4520.000000;0.981247
4519.000000;0.981659
4518.000000;0.982079
4517.000000;0.982487
4516.000000;0.982822
4515.000000;0.983033
4514.000000;0.983137
4513.000000;0.983218
4512.000000;0.983358
4511.000000;0.983622
4510.000000;0.984027
4509.000000;0.984494
4508.000000;0.984866
4507.000000;0.985053
4506.000000;0.985149
4505.000000;0.985335
4504.000000;0.985702
4503.000000;0.986232
4502.000000;0.986917
4501.000000;0.987787
4500.000000;0.988813
4499.000000;0.989863
4498.000000;0.990780
4497.000000;0.991501
4496.000000;0.992103
4495.000000;0.992763
4494.000000;0.993634
4493.000000;0.994688
4492.000000;0.995708
4491.000000;0.996505
4490.000000;0.997113
4489.000000;0.997720
4488.000000;0.998439
4487.000000;0.999229
4486.000000;1.000011
4485.000000;1.000764
4484.000000;1.001522
4483.000000;1.002351
4482.000000;1.003320
4481.000000;1.004434
4480.000000;1.005593
4479.000000;1.006694
4478.000000;1.007752
4477.000000;1.008856
4476.000000;1.010031
4475.000000;1.011235
4474.000000;1.012447
4473.000000;1.013661
4472.000000;1.014814
4471.000000;1.015828
4470.000000;1.016756
4469.000000;1.017745
4468.000000;1.018848
4467.000000;1.019961
4466.000000;1.020999
4465.000000;1.022046
4464.000000;1.023283
4463.000000;1.024810
4462.000000;1.026592
4461.000000;1.028490
4460.000000;1.030339
4459.000000;1.032042
4458.000000;1.033655
4457.000000;1.035340
4456.000000;1.037197
4455.000000;1.039161
4454.000000;1.041083
4453.000000;1.042875
4452.000000;1.044555
4451.000000;1.046183
4450.000000;1.047769
4449.000000;1.049264
4448.000000;1.050637
4447.000000;1.051968
4446.000000;1.053414
4445.000000;1.055063
4444.000000;1.056853
4443.000000;1.058688
4442.000000;1.060575
4441.000000;1.062585
4440.000000;1.064722
4439.000000;1.066918
4438.000000;1.069124
4437.000000;1.071304
4436.000000;1.073381
4435.000000;1.075301
4434.000000;1.077163
4433.000000;1.079164
4432.000000;1.081368
4431.000000;1.083611
4430.000000;1.085683
4429.000000;1.087512
4428.000000;1.089167
4427.000000;1.090773
4426.000000;1.092532
4425.000000;1.094706
4424.000000;1.097424
4423.000000;1.100467
4422.000000;1.103342
4421.000000;1.105665
4420.000000;1.107493
4419.000000;1.109264
4418.000000;1.111419
4417.000000;1.114088
4416.000000;1.117074
4415.000000;1.120060
4414.000000;1.122807
4413.000000;1.125241
4412.000000;1.127487
4411.000000;1.129800
4410.000000;1.132353
4409.000000;1.135034
4408.000000;1.137571
4407.000000;1.139886
4406.000000;1.142217
4405.000000;1.144801
4404.000000;1.147568
4403.000000;1.150269
4402.000000;1.152842
4401.000000;1.155478
4400.000000;1.158361
4399.000000;1.161479
4398.000000;1.164686
4397.000000;1.167826
4396.000000;1.170760
4395.000000;1.173423
4394.000000;1.175920
4393.000000;1.178463
4392.000000;1.181156
4391.000000;1.183890
4390.000000;1.186522
4389.000000;1.189095
4388.000000;1.191771
4387.000000;1.194604
4386.000000;1.197477
4385.000000;1.200311
4384.000000;1.203219
4383.000000;1.206350
4382.000000;1.209620
4381.000000;1.212775
4380.000000;1.215747
4379.000000;1.218785
4378.000000;1.222116
4377.000000;1.225621
4376.000000;1.229057
4375.000000;1.232451
4374.000000;1.235999
4373.000000;1.239621
4372.000000;1.242988
4371.000000;1.246079
4370.000000;1.249348
4369.000000;1.253123
4368.000000;1.257097
4367.000000;1.260702
4366.000000;1.263825
4365.000000;1.266838
4364.000000;1.270042
4363.000000;1.273401
4362.000000;1.276826
4361.000000;1.280382
4360.000000;1.284131
4359.000000;1.287987
4358.000000;1.291857
4357.000000;1.295808
4356.000000;1.300013
4355.000000;1.304564
4354.000000;1.309338
4353.000000;1.314009
4352.000000;1.318204
4351.000000;1.321756
4350.000000;1.324829
4349.000000;1.327775
4348.000000;1.330929
4347.000000;1.334563
4346.000000;1.338870
4345.000000;1.343776
4344.000000;1.348839
4343.000000;1.353544
4342.000000;1.357762
4341.000000;1.361816
4340.000000;1.366089
4339.000000;1.370665
4338.000000;1.375343
4337.000000;1.379814
4336.000000;1.383791
4335.000000;1.387163
4334.000000;1.390179
4333.000000;1.393473
4332.000000;1.397753
4331.000000;1.403318
4330.000000;1.409814
4329.000000;1.416498
4328.000000;1.422795
4327.000000;1.428563
4326.000000;1.433793
4325.000000;1.438336
4324.000000;1.442169
4323.000000;1.445756
4322.000000;1.449774
4321.000000;1.454507
4320.000000;1.459719
4319.000000;1.465040
4318.000000;1.470097
4317.000000;1.474412
4316.000000;1.477779
4315.000000;1.480892
4314.000000;1.484966
4313.000000;1.490449
4312.000000;1.496579
4311.000000;1.502529
4310.000000;1.508451
4309.000000;1.514810
4308.000000;1.521177
4307.000000;1.526528
4306.000000;1.530719
4305.000000;1.534877
4304.000000;1.540101
4303.000000;1.546304
4302.000000;1.552557
4301.000000;1.558194
4300.000000;1.563266
4299.000000;1.568091
4298.000000;1.572691
4297.000000;1.576857
4296.000000;1.580663
4295.000000;1.584686
4294.000000;1.589573
4293.000000;1.595547
4292.000000;1.602562
4291.000000;1.610644
4290.000000;1.619482
4289.000000;1.627837
4288.000000;1.634289
4287.000000;1.638963
4286.000000;1.643646
4285.000000;1.649599
4284.000000;1.656023
4283.000000;1.661311
4282.000000;1.665214
4281.000000;1.668921
4280.000000;1.673465
4279.000000;1.679086
4278.000000;1.685839
4277.000000;1.693705
4276.000000;1.701953
4275.000000;1.709208
4274.000000;1.714595
4273.000000;1.718457
4272.000000;1.721864
4271.000000;1.725808
4270.000000;1.730830
4269.000000;1.736870
4268.000000;1.743298
4267.000000;1.749459
4266.000000;1.755241
4265.000000;1.760941
4264.000000;1.766862
4263.000000;1.773354
4262.000000;1.780942
4261.000000;1.789892
4260.000000;1.799638
4259.000000;1.808902
4258.000000;1.816412
4257.000000;1.821750
4256.000000;1.825903
4255.000000;1.830695
4254.000000;1.836951
4253.000000;1.843323
4252.000000;1.847990
4251.000000;1.851571
4250.000000;1.856853
4249.000000;1.865047
4248.000000;1.874073
4247.000000;1.881506
4246.000000;1.887678
4245.000000;1.894360
4244.000000;1.901978
4243.000000;1.910176
4242.000000;1.919720
4241.000000;1.931268
4240.000000;1.943032
4239.000000;1.952459
4238.000000;1.959774
4237.000000;1.966871
4236.000000;1.973356
4235.000000;1.976933
4234.000000;1.977740
4233.000000;1.978984
4232.000000;1.982488
4231.000000;1.986663
4230.000000;1.989888
4229.000000;1.993532
4228.000000;2.000392
4227.000000;2.011844
4226.000000;2.027219
4225.000000;2.044262
4224.000000;2.059705
4223.000000;2.071327
4222.000000;2.080228
4221.000000;2.089230
4220.000000;2.098768
4219.000000;2.106452
4218.000000;2.110987
4217.000000;2.113757
4216.000000;2.115552
4215.000000;2.115095
4214.000000;2.112577
4213.000000;2.111530
4212.000000;2.115018
4211.000000;2.122385
4210.000000;2.131538
4209.000000;2.142227
4208.000000;2.154416
4207.000000;2.165147
4206.000000;2.170772
4205.000000;2.172190
4204.000000;2.174414
4203.000000;2.181076
4202.000000;2.191697
4201.000000;2.203475
4200.000000;2.213987
4199.000000;2.222228
4198.000000;2.228771
4197.000000;2.235613
4196.000000;2.244303
4195.000000;2.253832
4194.000000;2.261631
4193.000000;2.266899
4192.000000;2.271623
4191.000000;2.277611
4190.000000;2.284046
4189.000000;2.289037
4188.000000;2.292988
4187.000000;2.299652
4186.000000;2.313217
4185.000000;2.333906
4184.000000;2.356487
4183.000000;2.374573
4182.000000;2.386994
4181.000000;2.397738
4180.000000;2.409181
4179.000000;2.418515
4178.000000;2.422892
4177.000000;2.425098
4176.000000;2.430070
4175.000000;2.437951
4174.000000;2.444697
4173.000000;2.448446
4172.000000;2.451886
4171.000000;2.457036
4170.000000;2.460425
4169.000000;2.456772
4168.000000;2.446150
4167.000000;2.434770
4166.000000;2.429582
4165.000000;2.433683
4164.000000;2.446513
4163.000000;2.466614
4162.000000;2.491906
4161.000000;2.517879
4160.000000;2.540186
4159.000000;2.558620
4158.000000;2.576219
4157.000000;2.595817
4156.000000;2.617180
4155.000000;2.637995
4154.000000;2.655369
4153.000000;2.666950
4152.000000;2.673615
4151.000000;2.676848
4150.000000;2.676676
4149.000000;2.672862
4148.000000;2.662757
4147.000000;2.642626
4146.000000;2.614294
4145.000000;2.586583
4144.000000;2.567438
4143.000000;2.557418
4142.000000;2.552456
4141.000000;2.550828
4140.000000;2.554929
4139.000000;2.567919
4138.000000;2.590808
4137.000000;2.618371
4136.000000;2.641606
4135.000000;2.658099
4134.000000;2.672925
4133.000000;2.691523
4132.000000;2.712993
4131.000000;2.729259
4130.000000;2.733512
4129.000000;2.730051
4128.000000;2.730603
4127.000000;2.745656
4126.000000;2.775708
4125.000000;2.804232
4124.000000;2.810241
4123.000000;2.793043
4122.000000;2.769880
4121.000000;2.753971
4120.000000;2.748278
4119.000000;2.752540
4118.000000;2.765470
4117.000000;2.782449
4116.000000;2.797143
4115.000000;2.802936
4114.000000;2.799401
4113.000000;2.792388
4112.000000;2.779005
4111.000000;2.761236
4110.000000;2.756765
4109.000000;2.777452
4108.000000;2.821481
4107.000000;2.879106
4106.000000;2.931831
4105.000000;2.945288
4104.000000;2.899824
4103.000000;2.832813
4102.000000;2.790324
4101.000000;2.783716
4100.000000;2.797826
4099.000000;2.816429
4098.000000;2.843693
4097.000000;2.888927
4096.000000;2.930638
4095.000000;2.928333
4094.000000;2.889858
4093.000000;2.850787
4092.000000;2.823079
4091.000000;2.802116
4090.000000;2.785639
4089.000000;2.776290
4088.000000;2.769080
4087.000000;2.751225
4086.000000;2.723920
4085.000000;2.709197
4084.000000;2.728723
4083.000000;2.787974
4082.000000;2.877879
4081.000000;2.987201
4080.000000;3.113746
4079.000000;3.211397
4078.000000;3.177674
4077.000000;3.069539
4076.000000;2.967859
4075.000000;2.880924
4074.000000;2.814283
4073.000000;2.772049
4072.000000;2.754604
4071.000000;2.755873
4070.000000;2.764657
4069.000000;2.767669
4068.000000;2.757368
4067.000000;2.741680
4066.000000;2.735115
4065.000000;2.743410
4064.000000;2.763773
4063.000000;2.789260
4062.000000;2.813343
4061.000000;2.839068
4060.000000;2.866939
4059.000000;2.880951
4058.000000;2.868061
4057.000000;2.841676
4056.000000;2.831539
4055.000000;2.859810
4054.000000;2.931091
4053.000000;3.032949
4052.000000;3.140336
4051.000000;3.219116
4050.000000;3.245279
4049.000000;3.238705
4048.000000;3.222199
4047.000000;3.196241
4046.000000;3.165331
4045.000000;3.132065
4044.000000;3.093987
4043.000000;3.053137
4042.000000;3.017767
4041.000000;2.994161
4040.000000;2.979023
4039.000000;2.964479
4038.000000;2.953558
4037.000000;2.951276
4036.000000;2.945109
4035.000000;2.920205
4034.000000;2.885812
4033.000000;2.866107
4032.000000;2.883732
4031.000000;2.959105
4030.000000;3.134362
4029.000000;3.427559
4028.000000;3.522327
4027.000000;3.405477
4026.000000;3.320576
4025.000000;3.235836
4024.000000;3.202498
4023.000000;3.188228
4022.000000;3.159049
4021.000000;3.119498
4020.000000;3.087221
4019.000000;3.066536
4018.000000;3.045391
4017.000000;3.031480
4016.000000;3.055131
4015.000000;3.110040
4014.000000;3.101604
4013.000000;3.032768
4012.000000;2.989138
4011.000000;2.972764
4010.000000;2.965665
4009.000000;2.978417
4008.000000;3.017141
4007.000000;3.041707
4006.000000;2.997950
4005.000000;2.913061
4004.000000;2.858088
4003.000000;2.872857
4002.000000;2.971021
4001.000000;3.157417
4000.000000;3.422588
3999.000000;3.642726
3998.000000;3.666633
3997.000000;3.548367
3996.000000;3.419160
3995.000000;3.376521
3994.000000;3.514211
3993.000000;4.069265
3992.000000;3.728607
3991.000000;3.381670
3990.000000;3.274760
3989.000000;3.203834
3988.000000;3.196247
3987.000000;3.210370
3986.000000;3.179775
3985.000000;3.103397
3984.000000;3.044041
3983.000000;3.001439
3982.000000;2.976667
3981.000000;2.996373
3980.000000;3.063010
3979.000000;3.138878
3978.000000;3.146206
3977.000000;3.077239
3976.000000;2.981806
3975.000000;2.911543
3974.000000;2.898618
3973.000000;2.938075
3972.000000;3.011494
3971.000000;3.120612
3970.000000;3.227111
3969.000000;3.266267
3968.000000;3.243443
3967.000000;3.121287
3966.000000;2.995645
3965.000000;2.939180
3964.000000;2.914018
3963.000000;2.884914
3962.000000;2.856059
3961.000000;2.840324
3960.000000;2.832805
3959.000000;2.826747
3958.000000;2.818077
3957.000000;2.805385
3956.000000;2.804757
3955.000000;2.846115
3954.000000;2.943179
3953.000000;3.047103
3952.000000;3.116065
3951.000000;3.225918
3950.000000;3.410578
3949.000000;3.553985
3948.000000;3.602615
3947.000000;3.606854
3946.000000;3.474558
3945.000000;3.275603
3944.000000;3.152876
3943.000000;3.151986
3942.000000;3.281130
3941.000000;3.507399
3940.000000;3.553263
3939.000000;3.372936
3938.000000;3.223698
3937.000000;3.119784
3936.000000;3.057329
3935.000000;3.073067
3934.000000;3.188448
3933.000000;3.267281
3932.000000;3.192391
3931.000000;3.091120
3930.000000;3.009426
3929.000000;2.967069
3928.000000;2.957926
3927.000000;2.939316
3926.000000;2.901137
3925.000000;2.847213
3924.000000;2.763172
3923.000000;2.683498
3922.000000;2.668208
3921.000000;2.739146
3920.000000;2.894113
3919.000000;3.102277
3918.000000;3.140371
3917.000000;2.984839
3916.000000;2.876129
3915.000000;2.839643
3914.000000;2.854584
3913.000000;2.881844
3912.000000;2.895481
3911.000000;2.917306
3910.000000;2.922697
3909.000000;2.839678
3908.000000;2.733224
3907.000000;2.652407
3906.000000;2.572168
3905.000000;2.512628
3904.000000;2.518499
3903.000000;2.598654
3902.000000;2.707167
3901.000000;2.756677
3900.000000;2.720001
3899.000000;2.666708
3898.000000;2.656542
3897.000000;2.701977
3896.000000;2.760311
3895.000000;2.766073
3894.000000;2.753498
3893.000000;2.785321
3892.000000;2.841909
3891.000000;2.864906
3890.000000;2.858502
3889.000000;2.833976
3888.000000;2.794624
3887.000000;2.815246
3886.000000;2.911555
3885.000000;3.031343
3884.000000;3.139457
3883.000000;3.338895
3882.000000;3.259635
3881.000000;3.261259
3880.000000;3.763969
3879.000000;3.103514
3878.000000;2.812653
3877.000000;2.770115
3876.000000;2.780980
3875.000000;2.790235
3874.000000;2.735727
3873.000000;2.674630
3872.000000;2.651486
3871.000000;2.689347
3870.000000;2.790317
3869.000000;2.909322
3868.000000;2.951718
3867.000000;2.898330
3866.000000;2.829294
3865.000000;2.788563
3864.000000;2.759224
3863.000000;2.755906
3862.000000;2.799070
3861.000000;2.812635
3860.000000;2.701444
3859.000000;2.540477
3858.000000;2.462881
3857.000000;2.531014
3856.000000;2.686424
3855.000000;2.748885
3854.000000;2.733011
3853.000000;2.770468
3852.000000;2.882734
3851.000000;3.090618
3850.000000;3.311875
3849.000000;3.262143
3848.000000;3.252437
3847.000000;3.247177
3846.000000;3.125246
3845.000000;3.127200
3844.000000;3.238274
3843.000000;3.321325
3842.000000;3.573795
3841.000000;3.609156
3840.000000;3.201902
3839.000000;3.042065
3838.000000;3.143371
3837.000000;3.455879
3836.000000;3.135161
3835.000000;2.890978
3834.000000;2.909915
3833.000000;3.067813
3832.000000;3.253409
3831.000000;3.229491
3830.000000;3.091609
3829.000000;2.915713
3828.000000;2.778630
3827.000000;2.695983
3826.000000;2.641518
3825.000000;2.628830
3824.000000;2.678379
3823.000000;2.802090
3822.000000;2.973226
3821.000000;3.075664
3820.000000;3.041749
3819.000000;3.010169
3818.000000;3.015092
3817.000000;3.019840
3816.000000;3.090629
3815.000000;3.422980
3814.000000;3.729068
3813.000000;3.196402
3812.000000;2.957173
3811.000000;2.883176
3810.000000;2.888966
3809.000000;2.873408
3808.000000;2.804925
3807.000000;2.746588
3806.000000;2.724269
3805.000000;2.757370
3804.000000;2.834220
3803.000000;2.859577
3802.000000;2.821816
3801.000000;2.815678
3800.000000;2.931826
3799.000000;3.316112
3798.000000;3.321496
3797.000000;2.992467
3796.000000;2.918352
3795.000000;2.987018
3794.000000;3.235816
3793.000000;3.606046
3792.000000;3.664044
3791.000000;3.598990
3790.000000;3.589579
3789.000000;3.674289
3788.000000;3.554506
3787.000000;3.473328
3786.000000;3.510585
3785.000000;3.287355
3784.000000;2.938682
3783.000000;2.751666
3782.000000;2.750359
3781.000000;2.886961
3780.000000;3.136030
3779.000000;3.407376
3778.000000;3.222598
3777.000000;3.031487
3776.000000;2.958828
3775.000000;2.940638
3774.000000;2.906467
3773.000000;3.046301
3772.000000;3.556306
3771.000000;3.598023
3770.000000;3.574347
3769.000000;3.119265
3768.000000;2.904717
3767.000000;2.833354
3766.000000;2.675681
3765.000000;2.566650
3764.000000;2.519540
3763.000000;2.533025
3762.000000;2.583570
3761.000000;2.559523
3760.000000;2.399599
3759.000000;2.251383
3758.000000;2.187767
3757.000000;2.196155
3756.000000;2.232550
3755.000000;2.229633
3754.000000;2.203924
3753.000000;2.216866
3752.000000;2.271840
3751.000000;2.332676
3750.000000;2.429735
3749.000000;2.632750
3748.000000;2.797383
3747.000000;2.761311
3746.000000;2.774176
3745.000000;2.974868
3744.000000;3.023482
3743.000000;2.841468
3742.000000;2.847288
3741.000000;2.921035
3740.000000;2.937685
3739.000000;3.089090
3738.000000;3.170562
3737.000000;3.153242
3736.000000;3.426139
3735.000000;4.006346
3734.000000;3.660472
3733.000000;3.072700
3732.000000;2.814232
3731.000000;2.677831
3730.000000;2.615928
3729.000000;2.656141
3728.000000;2.792795
3727.000000;2.971241
3726.000000;3.131882
3725.000000;3.217351
3724.000000;3.184430
3723.000000;3.130622
3722.000000;3.246641
3721.000000;3.624033
3720.000000;3.283907
3719.000000;2.914373
3718.000000;2.694735
3717.000000;2.537778
3716.000000;2.462571
3715.000000;2.463563
3714.000000;2.523366
3713.000000;2.667347
3712.000000;2.888417
3711.000000;2.919001
3710.000000;2.829825
3709.000000;2.822930
3708.000000;2.895326
3707.000000;2.956786
3706.000000;2.840846
3705.000000;2.639744
3704.000000;2.487326
3703.000000;2.449387
3702.000000;2.556471
3701.000000;2.784384
3700.000000;2.890922
3699.000000;2.718448
3698.000000;2.539724
3697.000000;2.422273
3696.000000;2.343770
3695.000000;2.298994
3694.000000;2.281013
3693.000000;2.255541
3692.000000;2.230400
3691.000000;2.244498
3690.000000;2.298502
3689.000000;2.384296
3688.000000;2.494314
3687.000000;2.617989
3686.000000;2.663364
3685.000000;2.540929
3684.000000;2.419185
3683.000000;2.377889
3682.000000;2.401971
3681.000000;2.463968
3680.000000;2.577886
3679.000000;2.689613
3678.000000;2.607219
3677.000000;2.517898
3676.000000;2.498489
3675.000000;2.417329
3674.000000;2.313394
3673.000000;2.272686
3672.000000;2.297030
3671.000000;2.346416
3670.000000;2.349971
3669.000000;2.278219
3668.000000;2.171185
3667.000000;2.075040
3666.000000;2.026509
3665.000000;2.042755
3664.000000;2.110904
3663.000000;2.180619
3662.000000;2.189014
3661.000000;2.138440
3660.000000;2.087572
3659.000000;2.087361
3658.000000;2.134778
3657.000000;2.216495
3656.000000;2.297456
3655.000000;2.513523
3654.000000;3.012963
3653.000000;2.670745
3652.000000;2.410139
3651.000000;2.366558
3650.000000;2.483037
3649.000000;2.831256
3648.000000;2.656851
3647.000000;2.335770
3646.000000;2.207367
3645.000000;2.173721
3644.000000;2.201736
3643.000000;2.238093
3642.000000;2.230068
3641.000000;2.184286
3640.000000;2.133806
3639.000000;2.099382
3638.000000;2.093109
3637.000000;2.141150
3636.000000;2.269358
3635.000000;2.418000
3634.000000;2.421909
3633.000000;2.341731
3632.000000;2.220436
3631.000000;2.110629
3630.000000;2.096952
3629.000000;2.159209
3628.000000;2.210042
3627.000000;2.188986
3626.000000;2.138574
3625.000000;2.116424
3624.000000;2.146893
3623.000000;2.218867
3622.000000;2.252089
3621.000000;2.181879
3620.000000;2.097670
3619.000000;2.074214
3618.000000;2.083883
3617.000000;2.088887
3616.000000;2.071683
3615.000000;2.088774
3614.000000;2.171044
3613.000000;2.393971
3612.000000;2.852682
3611.000000;2.616095
3610.000000;2.385850
3609.000000;2.373386
3608.000000;2.401189
3607.000000;2.472280
3606.000000;2.466969
3605.000000;2.334049
3604.000000;2.258045
3603.000000;2.308202
3602.000000;2.511805
3601.000000;2.570476
3600.000000;2.310718
3599.000000;2.176985
3598.000000;2.130912
3597.000000;2.116241
3596.000000;2.134416
3595.000000;2.202039
3594.000000;2.315708
3593.000000;2.365992
3592.000000;2.351298
3591.000000;2.457235
3590.000000;2.615392
3589.000000;2.413895
3588.000000;2.211661
3587.000000;2.134792
3586.000000;2.106024
3585.000000;2.085113
3584.000000;2.077533
3583.000000;2.123930
3582.000000;2.220557
3581.000000;2.284743
3580.000000;2.267093
3579.000000;2.240075
3578.000000;2.291524
3577.000000;2.447220
3576.000000;2.468772
3575.000000;2.338219
3574.000000;2.355819
3573.000000;2.521371
3572.000000;2.609057
3571.000000;2.548294
3570.000000;2.469209
3569.000000;2.388004
3568.000000;2.396476
3567.000000;2.481911
3566.000000;2.578795
3565.000000;2.795029
3564.000000;3.090569
3563.000000;2.852521
3562.000000;2.636099
3561.000000;2.589742
3560.000000;2.498777
3559.000000;2.380461
3558.000000;2.342006
3557.000000;2.341601
3556.000000;2.273637
3555.000000;2.157663
3554.000000;2.105121
3553.000000;2.184132
3552.000000;2.474131
3551.000000;2.805124
3550.000000;2.572935
3549.000000;2.371016
3548.000000;2.221104
3547.000000;2.085651
3546.000000;2.000579
3545.000000;1.997068
3544.000000;2.128668
3543.000000;2.438165
3542.000000;2.466748
3541.000000;2.261186
3540.000000;2.232484
3539.000000;2.211961
3538.000000;2.169244
3537.000000;2.158736
3536.000000;2.219552
3535.000000;2.373294
3534.000000;2.509621
3533.000000;2.503450
3532.000000;2.423255
3531.000000;2.338358
3530.000000;2.281139
3529.000000;2.268221
3528.000000;2.297391
3527.000000;2.341379
3526.000000;2.353632
3525.000000;2.315782
3524.000000;2.287661
3523.000000;2.309039
3522.000000;2.526360
3521.000000;2.981478
3520.000000;2.704803
3519.000000;2.680047
3518.000000;2.925276
3517.000000;2.820543
3516.000000;2.662446
3515.000000;2.605249
3514.000000;2.517629
3513.000000;2.424668
3512.000000;2.314716
3511.000000;2.215496
3510.000000;2.218513
3509.000000;2.381526
3508.000000;2.855128
3507.000000;3.211748
3506.000000;2.982933
3505.000000;2.990989
3504.000000;2.893961
3503.000000;2.781444
3502.000000;2.811535
3501.000000;2.815417
3500.000000;2.582819
3499.000000;2.448804
3498.000000;2.427375
3497.000000;2.388497
3496.000000;2.270145
3495.000000;2.156655
3494.000000;2.111196
3493.000000;2.131423
3492.000000;2.195600
3491.000000;2.270739
3490.000000;2.313069
3489.000000;2.269358
3488.000000;2.175476
3487.000000;2.118179
3486.000000;2.122978
3485.000000;2.167588
3484.000000;2.202236
3483.000000;2.188219
3482.000000;2.152900
3481.000000;2.151537
3480.000000;2.216962
3479.000000;2.362126
3478.000000;2.586288
3477.000000;2.805332
3476.000000;2.860003
3475.000000;2.804108
3474.000000;2.773367
3473.000000;2.802489
3472.000000;2.982538
3471.000000;3.265319
3470.000000;2.931180
3469.000000;2.732654
3468.000000;2.738064
3467.000000;2.885381
3466.000000;2.840542
3465.000000;2.647749
3464.000000;2.660714
3463.000000;2.755583
3462.000000;2.659822
3461.000000;2.550092
3460.000000;2.575150
3459.000000;2.720238
3458.000000;2.846597
3457.000000;2.757338
3456.000000;2.570470
3455.000000;2.387848
3454.000000;2.264376
3453.000000;2.223093
3452.000000;2.242692
3451.000000;2.267982
3450.000000;2.253075
3449.000000;2.212224
3448.000000;2.172154
3447.000000;2.140447
3446.000000;2.120287
3445.000000;2.113679
3444.000000;2.122617
3443.000000;2.150820
3442.000000;2.175716
3441.000000;2.143503
3440.000000;2.072197
3439.000000;2.025866
3438.000000;2.020208
3437.000000;2.037303
3436.000000;2.058292
3435.000000;2.076980
3434.000000;2.085523
3433.000000;2.073301
3432.000000;2.044838
3431.000000;2.013227
3430.000000;1.983742
3429.000000;1.955230
3428.000000;1.931917
3427.000000;1.921594
3426.000000;1.927811
3425.000000;1.950766
3424.000000;1.986471
3423.000000;2.023524
3422.000000;2.061589
3421.000000;2.129792
3420.000000;2.269696
3419.000000;2.510036
3418.000000;2.665047
3417.000000;2.554098
3416.000000;2.477693
3415.000000;2.510645
3414.000000;2.635803
3413.000000;2.653809
3412.000000;2.559361
3411.000000;2.547529
3410.000000;2.595793
3409.000000;2.583464
3408.000000;2.471069
3407.000000;2.379039
3406.000000;2.323157
3405.000000;2.284314
3404.000000;2.247258
3403.000000;2.204874
3402.000000;2.171059
3401.000000;2.132798
3400.000000;2.070046
3399.000000;2.001367
3398.000000;1.965124
3397.000000;1.983781
3396.000000;2.053882
3395.000000;2.155802
3394.000000;2.268718
3393.000000;2.374905
3392.000000;2.421318
3391.000000;2.378797
3390.000000;2.336924
3389.000000;2.334650
3388.000000;2.339411
3387.000000;2.327520
3386.000000;2.327580
3385.000000;2.358233
3384.000000;2.381315
3383.000000;2.389084
3382.000000;2.433825
3381.000000;2.546681
3380.000000;2.590974
3379.000000;2.506935
3378.000000;2.524949
3377.000000;2.718153
3376.000000;3.347186
3375.000000;3.303872
3374.000000;2.842250
3373.000000;2.704316
3372.000000;2.607916
3371.000000;2.607917
3370.000000;2.704505
3369.000000;2.826410
3368.000000;2.708776
3367.000000;2.515267
3366.000000;2.407563
3365.000000;2.392200
3364.000000;2.451627
3363.000000;2.540648
3362.000000;2.602592
3361.000000;2.624325
3360.000000;2.661718
3359.000000;2.687979
3358.000000;2.641202
3357.000000;2.599740
3356.000000;2.610741
3355.000000;2.595955
3354.000000;2.550747
3353.000000;2.583164
3352.000000;2.663255
3351.000000;2.714925
3350.000000;2.733052
3349.000000;2.707330
3348.000000;2.621697
3347.000000;2.496227
3346.000000;2.392714
3345.000000;2.344460
3344.000000;2.326691
3343.000000;2.298698
3342.000000;2.281694
3341.000000;2.329950
3340.000000;2.443445
3339.000000;2.512984
3338.000000;2.440808
3337.000000;2.326878
3336.000000;2.260225
3335.000000;2.243166
3334.000000;2.239774
3333.000000;2.215764
3332.000000;2.174985
3331.000000;2.144467
3330.000000;2.146704
3329.000000;2.188712
3328.000000;2.251404
3327.000000;2.293843
3326.000000;2.311740
3325.000000;2.358513
3324.000000;2.479950
3323.000000;2.701952
3322.000000;2.905344
3321.000000;2.913654
3320.000000;3.002011
3319.000000;2.998313
3318.000000;2.700853
3317.000000;2.445199
3316.000000;2.266912
3315.000000;2.169695
3314.000000;2.155743
3313.000000;2.205690
3312.000000;2.280358
3311.000000;2.337467
3310.000000;2.370711
3309.000000;2.403915
3308.000000;2.453571
3307.000000;2.517526
3306.000000;2.574406
3305.000000;2.589542
3304.000000;2.570987
3303.000000;2.520764
3302.000000;2.414550
3301.000000;2.305437
3300.000000;2.245832
3299.000000;2.239567
3298.000000;2.261610
3297.000000;2.278134
3296.000000;2.273431
3295.000000;2.250421
3294.000000;2.212799
3293.000000;2.169438
3292.000000;2.136655
3291.000000;2.132326
3290.000000;2.175490
3289.000000;2.275175
3288.000000;2.406320
3287.000000;2.499493
3286.000000;2.531334
3285.000000;2.571834
3284.000000;2.666525
3283.000000;2.799234
3282.000000;3.009034
3281.000000;3.720026
3280.000000;3.191826
3279.000000;2.961148
3278.000000;2.790044
3277.000000;2.672972
3276.000000;2.667406
3275.000000;2.719167
3274.000000;2.742757
3273.000000;2.743811
3272.000000;2.777434
3271.000000;2.893974
3270.000000;3.013576
3269.000000;2.879588
3268.000000;2.709819
3267.000000;2.618170
3266.000000;2.602836
3265.000000;2.686966
3264.000000;2.938093
3263.000000;2.879960
3262.000000;2.642546
3261.000000;2.534436
3260.000000;2.464030
3259.000000;2.382855
3258.000000;2.322561
3257.000000;2.330698
3256.000000;2.405429
3255.000000;2.471063
3254.000000;2.443300
3253.000000;2.368167
3252.000000;2.325121
3251.000000;2.340528
3250.000000;2.398392
3249.000000;2.459178
3248.000000;2.475261
3247.000000;2.416020
3246.000000;2.322541
3245.000000;2.268541
3244.000000;2.257598
3243.000000;2.240410
3242.000000;2.188750
3241.000000;2.124990
3240.000000;2.074506
3239.000000;2.046567
3238.000000;2.042482
3237.000000;2.056279
3236.000000;2.063907
3235.000000;2.043651
3234.000000;2.019438
3233.000000;2.012254
3232.000000;2.016275
3231.000000;2.022278
3230.000000;2.029199
3229.000000;2.043982
3228.000000;2.062503
3227.000000;2.068898
3226.000000;2.056305
3225.000000;2.034650
3224.000000;2.024115
3223.000000;2.037066
3222.000000;2.056568
3221.000000;2.044506
3220.000000;2.008815
3219.000000;1.995606
3218.000000;2.016675
3217.000000;2.047576
3216.000000;2.056131
3215.000000;2.050137
3214.000000;2.067365
3213.000000;2.115865
3212.000000;2.152855
3211.000000;2.144550
3210.000000;2.131665
3209.000000;2.153648
3208.000000;2.203184
3207.000000;2.263999
3206.000000;2.367104
3205.000000;2.573788
3204.000000;2.906002
3203.000000;2.670239
3202.000000;2.508682
3201.000000;2.456887
3200.000000;2.434585
3199.000000;2.448644
3198.000000;2.538656
3197.000000;2.706944
3196.000000;2.850144
3195.000000;2.804993
3194.000000;2.668868
3193.000000;2.571829
3192.000000;2.508842
3191.000000;2.444314
3190.000000;2.367626
3189.000000;2.284202
3188.000000;2.212407
3187.000000;2.178218
3186.000000;2.188350
3185.000000;2.214904
3184.000000;2.219133
3183.000000;2.211333
3182.000000;2.213099
3181.000000;2.204200
3180.000000;2.170875
3179.000000;2.136170
3178.000000;2.121977
3177.000000;2.131720
3176.000000;2.158098
3175.000000;2.182979
3174.000000;2.192035
3173.000000;2.205629
3172.000000;2.247153
3171.000000;2.298317
3170.000000;2.339753
3169.000000;2.414433
3168.000000;2.617218
3167.000000;3.093089
3166.000000;3.063669
3165.000000;2.812296
3164.000000;2.863478
3163.000000;2.944794
3162.000000;3.062970
3161.000000;3.121850
3160.000000;2.983555
3159.000000;2.820308
3158.000000;2.780984
3157.000000;2.813719
3156.000000;2.770995
3155.000000;2.648881
3154.000000;2.522936
3153.000000;2.419361
3152.000000;2.349118
3151.000000;2.314415
3150.000000;2.295619
3149.000000;2.272128
3148.000000;2.273572
3147.000000;2.329208
3146.000000;2.397257
3145.000000;2.400218
3144.000000;2.373916
3143.000000;2.395738
3142.000000;2.496858
3141.000000;2.673999
3140.000000;2.895877
3139.000000;3.033773
3138.000000;3.042838
3137.000000;3.069404
3136.000000;3.409920
3135.000000;3.734904
3134.000000;3.125559
3133.000000;2.880196
3132.000000;2.740179
3131.000000;2.644247
3130.000000;2.616236
3129.000000;2.700023
3128.000000;2.967160
3127.000000;2.883322
3126.000000;2.608357
3125.000000;2.455590
3124.000000;2.372302
3123.000000;2.346512
3122.000000;2.358327
3121.000000;2.360758
3120.000000;2.338398
3119.000000;2.335660
3118.000000;2.394416
3117.000000;2.510327
3116.000000;2.651686
3115.000000;2.819957
3114.000000;2.884436
3113.000000;2.826023
3112.000000;2.946551
3111.000000;3.039208
3110.000000;2.974895
3109.000000;2.986275
3108.000000;2.997760
3107.000000;2.997670
3106.000000;3.282322
3105.000000;3.525894
3104.000000;3.049849
3103.000000;2.928874
3102.000000;2.903456
3101.000000;2.837389
3100.000000;2.861698
3099.000000;2.733496
3098.000000;2.568427
3097.000000;2.516424
3096.000000;2.531291
3095.000000;2.565899
3094.000000;2.573400
3093.000000;2.531281
3092.000000;2.472352
3091.000000;2.446294
3090.000000;2.467616
3089.000000;2.503983
3088.000000;2.498978
3087.000000;2.459739
3086.000000;2.441973
3085.000000;2.447537
3084.000000;2.438221
3083.000000;2.402738
3082.000000;2.361075
3081.000000;2.327991
3080.000000;2.312214
3079.000000;2.344352
3078.000000;2.441682
3077.000000;2.582531
3076.000000;2.741086
3075.000000;2.923115
3074.000000;3.110241
3073.000000;3.292793
3072.000000;3.451221
3071.000000;3.364669
3070.000000;3.205067
3069.000000;3.105037
3068.000000;2.879335
3067.000000;2.716936
3066.000000;2.684265
3065.000000;2.741557
3064.000000;2.874078
3063.000000;3.145082
3062.000000;3.549390
3061.000000;3.232894
3060.000000;2.896617
3059.000000;2.757187
3058.000000;2.708900
3057.000000;2.622826
3056.000000;2.496967
3055.000000;2.398036
3054.000000;2.368464
3053.000000;2.381540
3052.000000;2.368101
3051.000000;2.321160
3050.000000;2.291429
3049.000000;2.294402
3048.000000;2.303011
3047.000000;2.287390
3046.000000;2.248551
3045.000000;2.210997
3044.000000;2.193930
3043.000000;2.201931
3042.000000;2.222891
3041.000000;2.249010
3040.000000;2.303803
3039.000000;2.395342
3038.000000;2.430300
3037.000000;2.355650
3036.000000;2.300911
3035.000000;2.306584
3034.000000;2.308873
3033.000000;2.275408
3032.000000;2.257527
3031.000000;2.287136
3030.000000;2.369788
3029.000000;2.469943
3028.000000;2.483337
3027.000000;2.431660
3026.000000;2.429095
3025.000000;2.497182
3024.000000;2.566190
3023.000000;2.562224
3022.000000;2.532212
3021.000000;2.503439
3020.000000;2.460237
3019.000000;2.421307
3018.000000;2.443939
3017.000000;2.572570
3016.000000;2.787338
3015.000000;2.875005
3014.000000;2.806926
3013.000000;2.802437
3012.000000;2.878991
3011.000000;2.944516
3010.000000;2.994162
3009.000000;2.958302
3008.000000;2.748265
3007.000000;2.539513
3006.000000;2.382849
3005.000000;2.277701
3004.000000;2.218673
3003.000000;2.188175
3002.000000;2.167042
3001.000000;2.155599
3000.000000;2.161189
2999.000000;2.171353
2998.000000;2.161328
2997.000000;2.132779
2996.000000;2.117791
2995.000000;2.140084
2994.000000;2.198900
2993.000000;2.274525
2992.000000;2.352523
2991.000000;2.440621
2990.000000;2.523784
2989.000000;2.567260
2988.000000;2.604261
2987.000000;2.747014
2986.000000;3.077703
2985.000000;3.015700
2984.000000;2.834577
2983.000000;2.804274
2982.000000;2.826762
2981.000000;2.795898
2980.000000;2.631911
2979.000000;2.509921
2978.000000;2.500184
2977.000000;2.549942
2976.000000;2.571070
2975.000000;2.545954
2974.000000;2.526416
2973.000000;2.522882
2972.000000;2.493376
2971.000000;2.427572
2970.000000;2.359207
2969.000000;2.301546
2968.000000;2.252269
2967.000000;2.222912
2966.000000;2.223323
2965.000000;2.237742
2964.000000;2.242140
2963.000000;2.235462
2962.000000;2.237976
2961.000000;2.263843
2960.000000;2.310696
2959.000000;2.370025
2958.000000;2.426832
2957.000000;2.458922
2956.000000;2.447846
2955.000000;2.424990
2954.000000;2.451864
2953.000000;2.523037
2952.000000;2.589197
2951.000000;2.646449
2950.000000;2.705854
2949.000000;2.812893
2948.000000;2.944253
2947.000000;2.943455
2946.000000;2.884782
2945.000000;2.786830
2944.000000;2.668600
2943.000000;2.603375
2942.000000;2.578388
2941.000000;2.583006
2940.000000;2.627711
2939.000000;2.687454
2938.000000;2.689173
2937.000000;2.588721
2936.000000;2.458759
2935.000000;2.391127
2934.000000;2.407210
2933.000000;2.467448
2932.000000;2.500161
2931.000000;2.489046
2930.000000;2.497487
2929.000000;2.567356
2928.000000;2.631978
2927.000000;2.610316
2926.000000;2.557034
2925.000000;2.496869
2924.000000;2.462772
2923.000000;2.470339
2922.000000;2.464051
2921.000000;2.399519
2920.000000;2.318184
2919.000000;2.270461
2918.000000;2.263593
2917.000000;2.291203
2916.000000;2.344816
2915.000000;2.392471
2914.000000;2.402136
2913.000000;2.397443
2912.000000;2.416331
2911.000000;2.452651
2910.000000;2.471563
2909.000000;2.473748
2908.000000;2.511476
2907.000000;2.634814
2906.000000;2.838498
2905.000000;2.958856
2904.000000;2.906038
2903.000000;2.782721
2902.000000;2.649221
2901.000000;2.578648
2900.000000;2.564398
2899.000000;2.548749
2898.000000;2.511316
2897.000000;2.505112
2896.000000;2.589130
2895.000000;2.721303
2894.000000;2.737886
2893.000000;2.648031
2892.000000;2.556884
2891.000000;2.512462
2890.000000;2.508826
2889.000000;2.522620
2888.000000;2.581928
2887.000000;2.691196
2886.000000;2.756104
2885.000000;2.701877
2884.000000;2.597194
2883.000000;2.500001
2882.000000;2.421273
2881.000000;2.375368
2880.000000;2.381304
2879.000000;2.441093
2878.000000;2.535245
2877.000000;2.618719
2876.000000;2.658965
2875.000000;2.707777
2874.000000;2.831505
2873.000000;2.921465
2872.000000;2.908879
2871.000000;2.970712
2870.000000;3.095893
2869.000000;3.578216
2868.000000;3.651271
2867.000000;3.056149
2866.000000;2.955772
2865.000000;2.924338
2864.000000;2.925662
2863.000000;2.946505
2862.000000;2.912163
2861.000000;2.870397
2860.000000;2.908115
2859.000000;3.083139
2858.000000;3.338918
2857.000000;3.321071
2856.000000;3.137293
2855.000000;2.992110
2854.000000;2.984417
2853.000000;3.049587
2852.000000;2.842238
2851.000000;2.633516
2850.000000;2.524536
2849.000000;2.461824
2848.000000;2.419831
2847.000000;2.383733
2846.000000;2.357299
2845.000000;2.346835
2844.000000;2.352218
2843.000000;2.362056
2842.000000;2.350016
2841.000000;2.310885
2840.000000;2.283559
2839.000000;2.294999
2838.000000;2.336549
2837.000000;2.381414
2836.000000;2.412703
2835.000000;2.440084
2834.000000;2.473583
2833.000000;2.510486
2832.000000;2.549737
2831.000000;2.586687
2830.000000;2.604071
2829.000000;2.597512
2828.000000;2.592305
2827.000000;2.587481
2826.000000;2.559751
2825.000000;2.541259
2824.000000;2.574223
2823.000000;2.660423
2822.000000;2.720664
2821.000000;2.677859
2820.000000;2.606466
2819.000000;2.552960
2818.000000;2.525704
2817.000000;2.511831
2816.000000;2.464777
2815.000000;2.375353
2814.000000;2.283767
2813.000000;2.221285
2812.000000;2.199838
2811.000000;2.216759
2810.000000;2.243586
2809.000000;2.245435
2808.000000;2.225667
2807.000000;2.213311
2806.000000;2.222858
2805.000000;2.242289
2804.000000;2.255174
2803.000000;2.270997
2802.000000;2.300839
2801.000000;2.325734
2800.000000;2.314284
2799.000000;2.258223
2798.000000;2.184471
2797.000000;2.125731
2796.000000;2.094647
2795.000000;2.082301
2794.000000;2.074034
2793.000000;2.071621
2792.000000;2.086831
2791.000000;2.116436
2790.000000;2.145998
2789.000000;2.181186
2788.000000;2.248667
2787.000000;2.355376
2786.000000;2.464845
2785.000000;2.534268
2784.000000;2.570760
2783.000000;2.599930
2782.000000;2.620685
2781.000000;2.658633
2780.000000;2.758366
2779.000000;2.820745
2778.000000;2.796816
2777.000000;2.809916
2776.000000;2.968446
2775.000000;3.449537
2774.000000;3.721308
2773.000000;3.250863
2772.000000;3.049554
2771.000000;2.997173
2770.000000;2.865385
2769.000000;2.697775
2768.000000;2.624180
2767.000000;2.599471
2766.000000;2.566199
2765.000000;2.491946
2764.000000;2.397717
2763.000000;2.328370
2762.000000;2.304941
2761.000000;2.319140
2760.000000;2.343536
2759.000000;2.356823
2758.000000;2.373125
2757.000000;2.411970
2756.000000;2.490170
2755.000000;2.616768
2754.000000;2.809413
2753.000000;3.130971
2752.000000;3.075086
2751.000000;2.730188
2750.000000;2.535575
2749.000000;2.424696
2748.000000;2.342787
2747.000000;2.264178
2746.000000;2.204746
2745.000000;2.181827
2744.000000;2.184690
2743.000000;2.191524
2742.000000;2.190398
2741.000000;2.178769
2740.000000;2.155115
2739.000000;2.124179
2738.000000;2.096076
2737.000000;2.076573
2736.000000;2.068904
2735.000000;2.076599
2734.000000;2.098408
2733.000000;2.123341
2732.000000;2.136778
2731.000000;2.142809
2730.000000;2.155560
2729.000000;2.173072
2728.000000;2.198981
2727.000000;2.252501
2726.000000;2.340749
2725.000000;2.455928
2724.000000;2.576283
2723.000000;2.704079
2722.000000;2.801112
2721.000000;2.741966
2720.000000;2.624107
2719.000000;2.524759
2718.000000;2.424613
2717.000000;2.326147
2716.000000;2.249334
2715.000000;2.208870
2714.000000;2.193703
2713.000000;2.180071
2712.000000;2.161245
2711.000000;2.149907
2710.000000;2.156352
2709.000000;2.166486
2708.000000;2.159299
2707.000000;2.142280
2706.000000;2.131305
2705.000000;2.136096
2704.000000;2.167850
2703.000000;2.230835
2702.000000;2.300164
2701.000000;2.329980
2700.000000;2.327159
2699.000000;2.338394
2698.000000;2.392369
2697.000000;2.481914
2696.000000;2.611970
2695.000000;2.805847
2694.000000;3.161307
2693.000000;3.754988
2692.000000;3.318914
2691.000000;3.004695
2690.000000;2.806600
2689.000000;2.698381
2688.000000;2.713353
2687.000000;2.927426
2686.000000;3.236119
2685.000000;2.945856
2684.000000;2.709903
2683.000000;2.562064
2682.000000;2.472516
2681.000000;2.454266
2680.000000;2.469211
2679.000000;2.486444
2678.000000;2.477906
2677.000000;2.452579
2676.000000;2.452910
2675.000000;2.520728
2674.000000;2.631408
2673.000000;2.721064
2672.000000;2.801476
2671.000000;2.908439
2670.000000;2.988317
2669.000000;2.961426
2668.000000;2.993926
2667.000000;3.132879
2666.000000;3.384828
2665.000000;3.683507
2664.000000;3.126504
2663.000000;2.774836
2662.000000;2.602063
2661.000000;2.527267
2660.000000;2.542653
2659.000000;2.610753
2658.000000;2.620132
2657.000000;2.524475
2656.000000;2.450167
2655.000000;2.451953
2654.000000;2.518755
2653.000000;2.595572
2652.000000;2.606892
2651.000000;2.556595
2650.000000;2.512988
2649.000000;2.511599
2648.000000;2.534985
2647.000000;2.534710
2646.000000;2.487008
2645.000000;2.418745
2644.000000;2.350260
2643.000000;2.282329
2642.000000;2.217096
2641.000000;2.161581
2640.000000;2.123936
2639.000000;2.111087
2638.000000;2.124430
2637.000000;2.153623
2636.000000;2.183670
2635.000000;2.213968
2634.000000;2.254903
2633.000000;2.301339
2632.000000;2.326195
2631.000000;2.315633
2630.000000;2.290606
2629.000000;2.271191
2628.000000;2.252854
2627.000000;2.227811
2626.000000;2.204596
2625.000000;2.190404
2624.000000;2.178785
2623.000000;2.165298
2622.000000;2.157331
2621.000000;2.160143
2620.000000;2.170309
2619.000000;2.194732
2618.000000;2.244842
2617.000000;2.305786
2616.000000;2.347501
2615.000000;2.368421
2614.000000;2.405690
2613.000000;2.493610
2612.000000;2.656370
2611.000000;2.897372
2610.000000;3.273687
2609.000000;3.589971
2608.000000;3.252562
2607.000000;3.090433
2606.000000;3.288055
2605.000000;3.577715
2604.000000;3.139312
2603.000000;2.876338
2602.000000;2.736181
2601.000000;2.668686
2600.000000;2.662272
2599.000000;2.645684
2598.000000;2.577727
2597.000000;2.498549
2596.000000;2.463062
2595.000000;2.464710
2594.000000;2.472375
2593.000000;2.439158
2592.000000;2.361507
2591.000000;2.296261
2590.000000;2.292873
2589.000000;2.352171
2588.000000;2.430477
2587.000000;2.475549
2586.000000;2.464613
2585.000000;2.419152
2584.000000;2.393656
2583.000000;2.435100
2582.000000;2.550631
2581.000000;2.665463
2580.000000;2.648179
2579.000000;2.550990
2578.000000;2.504474
2577.000000;2.528586
2576.000000;2.546878
2575.000000;2.502332
2574.000000;2.443924
2573.000000;2.404720
2572.000000;2.388755
2571.000000;2.407240
2570.000000;2.461256
2569.000000;2.522564
2568.000000;2.572569
2567.000000;2.650588
2566.000000;2.802927
2565.000000;3.009841
2564.000000;3.133544
2563.000000;3.113368
2562.000000;3.088695
2561.000000;3.113018
2560.000000;3.110685
2559.000000;3.103982
2558.000000;3.088811
2557.000000;3.081453
2556.000000;3.057066
2555.000000;3.202365
2554.000000;3.749648
2553.000000;3.315007
2552.000000;3.029466
2551.000000;2.951523
2550.000000;2.892947
2549.000000;2.858821
2548.000000;2.844367
2547.000000;2.887024
2546.000000;2.983651
2545.000000;3.149011
2544.000000;3.282348
2543.000000;3.076344
2542.000000;2.815839
2541.000000;2.657133
2540.000000;2.564799
2539.000000;2.523584
2538.000000;2.516855
2537.000000;2.521039
2536.000000;2.513746
2535.000000;2.504151
2534.000000;2.531069
2533.000000;2.610171
2532.000000;2.695264
2531.000000;2.738559
2530.000000;2.817729
2529.000000;3.023694
2528.000000;3.184056
2527.000000;3.100279
2526.000000;3.015507
2525.000000;2.904262
2524.000000;2.782394
2523.000000;2.711807
2522.000000;2.684754
2521.000000;2.679566
2520.000000;2.713553
2519.000000;2.828286
2518.000000;2.985234
2517.000000;2.986926
2516.000000;2.851381
2515.000000;2.748304
2514.000000;2.709520
2513.000000;2.712483
2512.000000;2.689290
2511.000000;2.630320
2510.000000;2.574543
2509.000000;2.527904
2508.000000;2.499234
2507.000000;2.510500
2506.000000;2.560661
2505.000000;2.609508
2504.000000;2.654283
2503.000000;2.770533
2502.000000;2.975217
2501.000000;3.032240
2500.000000;2.877766
2499.000000;2.705666
2498.000000;2.545550
2497.000000;2.417264
2496.000000;2.331920
2495.000000;2.283611
2494.000000;2.250693
2493.000000;2.210421
2492.000000;2.163320
2491.000000;2.123546
2490.000000;2.098177
2489.000000;2.087391
2488.000000;2.090073
2487.000000;2.101302
2486.000000;2.114628
2485.000000;2.129997
2484.000000;2.147933
2483.000000;2.163210
2482.000000;2.174381
2481.000000;2.193574
2480.000000;2.233085
2479.000000;2.281594
2478.000000;2.314330
2477.000000;2.326128
2476.000000;2.330514
2475.000000;2.331158
2474.000000;2.321644
2473.000000;2.319476
2472.000000;2.356839
2471.000000;2.437049
2470.000000;2.522018
2469.000000;2.571464
2468.000000;2.609242
2467.000000;2.677402
2466.000000;2.798210
2465.000000;2.945781
2464.000000;3.048574
2463.000000;3.070794
2462.000000;3.072626
2461.000000;3.297830
2460.000000;3.292519
2459.000000;2.973461
2458.000000;2.862552
2457.000000;2.803454
2456.000000;2.743710
2455.000000;2.728130
2454.000000;2.791097
2453.000000;2.887514
2452.000000;2.916447
2451.000000;2.879980
2450.000000;2.908185
2449.000000;3.037695
2448.000000;3.304485
2447.000000;3.565241
2446.000000;3.045468
2445.000000;2.856426
2444.000000;2.915613
2443.000000;3.038615
2442.000000;3.042344
2441.000000;2.894241
2440.000000;2.805194
2439.000000;2.877860
2438.000000;2.970095
2437.000000;2.874603
2436.000000;2.734476
2435.000000;2.642769
2434.000000;2.590342
2433.000000;2.563675
2432.000000;2.556480
2431.000000;2.550614
2430.000000;2.533644
2429.000000;2.515164
2428.000000;2.513340
2427.000000;2.520233
2426.000000;2.493593
2425.000000;2.439400
2424.000000;2.414303
2423.000000;2.448120
2422.000000;2.530073
2421.000000;2.619568
2420.000000;2.713476
2419.000000;2.856850
2418.000000;3.137184
2417.000000;3.570669
2416.000000;3.371232
2415.000000;3.144097
2414.000000;3.047389
2413.000000;2.931950
2412.000000;2.801427
2411.000000;2.730952
2410.000000;2.745505
2409.000000;2.813031
2408.000000;2.891872
2407.000000;2.963714
2406.000000;3.084106
2405.000000;3.255090
2404.000000;3.255033
2403.000000;3.190040
2402.000000;3.170159
2401.000000;3.154823
2400.000000;3.167160
2399.000000;3.249863
2398.000000;3.231971
2397.000000;2.943826
2396.000000;2.772229
2395.000000;2.758382
2394.000000;2.848476
2393.000000;2.928616
2392.000000;2.861641
2391.000000;2.765694
2390.000000;2.721842
2389.000000;2.719774
2388.000000;2.703297
2387.000000;2.662164
2386.000000;2.635506
2385.000000;2.635294
2384.000000;2.694794
2383.000000;2.844255
2382.000000;2.990013
2381.000000;2.950141
2380.000000;2.826811
2379.000000;2.734199
2378.000000;2.705635
2377.000000;2.744225
2376.000000;2.811919
2375.000000;2.842061
2374.000000;2.840997
2373.000000;2.899711
2372.000000;3.093187
2371.000000;3.353870
2370.000000;3.110894
2369.000000;2.869883
2368.000000;2.798082
2367.000000;2.822510
2366.000000;2.846837
2365.000000;2.806762
2364.000000;2.735575
2363.000000;2.688862
2362.000000;2.652601
2361.000000;2.601373
2360.000000;2.563247
2359.000000;2.544687
2358.000000;2.504276
2357.000000;2.451947
2356.000000;2.452857
2355.000000;2.530939
2354.000000;2.629755
2353.000000;2.655625
2352.000000;2.632635
2351.000000;2.636451
2350.000000;2.651082
2349.000000;2.670822
2348.000000;2.736552
2347.000000;2.800168
2346.000000;2.791506
2345.000000;2.748174
2344.000000;2.717039
2343.000000;2.656260
2342.000000;2.582011
2341.000000;2.542582
2340.000000;2.540335
2339.000000;2.537731
2338.000000;2.512511
2337.000000;2.474973
2336.000000;2.452296
2335.000000;2.463495
2334.000000;2.506157
2333.000000;2.557869
2332.000000;2.632189
2331.000000;2.746200
2330.000000;2.820221
2329.000000;2.781936
2328.000000;2.780796
2327.000000;2.802894
2326.000000;2.616202
2325.000000;2.470662
2324.000000;2.416564
2323.000000;2.376187
2322.000000;2.334663
2321.000000;2.276240
2320.000000;2.228856
2319.000000;2.211611
2318.000000;2.224708
2317.000000;2.264682
2316.000000;2.335486
2315.000000;2.440107
2314.000000;2.518733
2313.000000;2.543617
2312.000000;2.581044
2311.000000;2.626334
2310.000000;2.612455
2309.000000;2.576710
2308.000000;2.550856
2307.000000;2.535439
2306.000000;2.560014
2305.000000;2.636585
2304.000000;2.673665
2303.000000;2.638799
2302.000000;2.634156
2301.000000;2.704843
2300.000000;2.802506
2299.000000;2.819784
2298.000000;2.748349
2297.000000;2.697758
2296.000000;2.704007
2295.000000;2.728652
2294.000000;2.711064
2293.000000;2.662212
2292.000000;2.632213
2291.000000;2.639546
2290.000000;2.674810
2289.000000;2.704698
2288.000000;2.698142
2287.000000;2.684984
2286.000000;2.723005
2285.000000;2.816237
2284.000000;2.876600
2283.000000;2.832991
2282.000000;2.770853
2281.000000;2.742019
2280.000000;2.713543
2279.000000;2.661028
2278.000000;2.608594
2277.000000;2.571681
2276.000000;2.528884
2275.000000;2.451773
2274.000000;2.348560
2273.000000;2.253894
2272.000000;2.197900
2271.000000;2.190323
2270.000000;2.208390
2269.000000;2.215975
2268.000000;2.207765
2267.000000;2.215085
2266.000000;2.260003
2265.000000;2.321034
2264.000000;2.354098
2263.000000;2.371798
2262.000000;2.431010
2261.000000;2.536764
2260.000000;2.611408
2259.000000;2.607595
2258.000000;2.578243
2257.000000;2.552026
2256.000000;2.512868
2255.000000;2.464816
2254.000000;2.433652
2253.000000;2.428327
2252.000000;2.428599
2251.000000;2.402039
2250.000000;2.359387
2249.000000;2.329134
2248.000000;2.312958
2247.000000;2.299250
2246.000000;2.262890
2245.000000;2.194467
2244.000000;2.127665
2243.000000;2.098384
2242.000000;2.109673
2241.000000;2.141590
2240.000000;2.172387
2239.000000;2.191062
2238.000000;2.201682
2237.000000;2.219787
2236.000000;2.258951
2235.000000;2.299848
2234.000000;2.296823
2233.000000;2.257354
2232.000000;2.236720
2231.000000;2.250853
2230.000000;2.263222
2229.000000;2.254817
2228.000000;2.250927
2227.000000;2.265080
2226.000000;2.285387
2225.000000;2.319522
2224.000000;2.395981
2223.000000;2.510066
2222.000000;2.628884
2221.000000;2.739961
2220.000000;2.845704
2219.000000;2.952374
2218.000000;3.033164
2217.000000;3.054225
2216.000000;3.039322
2215.000000;2.930942
2214.000000;2.805513
2213.000000;2.769267
2212.000000;2.866219
2211.000000;3.079896
2210.000000;3.198805
2209.000000;3.133983
2208.000000;3.164104
2207.000000;3.360019
2206.000000;3.142826
2205.000000;2.937337
2204.000000;2.805698
2203.000000;2.730639
2202.000000;2.694891
2201.000000;2.690772
2200.000000;2.685095
2199.000000;2.633182
2198.000000;2.578152
2197.000000;2.568984
2196.000000;2.589896
2195.000000;2.594221
2194.000000;2.559774
2193.000000;2.524855
2192.000000;2.525775
2191.000000;2.533236
2190.000000;2.505509
2189.000000;2.462310
2188.000000;2.445598
2187.000000;2.469658
2186.000000;2.524845
2185.000000;2.573564
2184.000000;2.562604
2183.000000;2.494766
2182.000000;2.434028
2181.000000;2.408670
2180.000000;2.396916
2179.000000;2.371914
2178.000000;2.332606
2177.000000;2.297961
2176.000000;2.287791
2175.000000;2.311451
2174.000000;2.359424
2173.000000;2.397964
2172.000000;2.399312
2171.000000;2.385059
2170.000000;2.396442
2169.000000;2.448798
2168.000000;2.529944
2167.000000;2.620361
2166.000000;2.715927
2165.000000;2.813061
2164.000000;2.907524
2163.000000;2.986949
2162.000000;3.147935
2161.000000;3.268030
2160.000000;3.004554
2159.000000;2.895750
2158.000000;2.957192
2157.000000;3.007177
2156.000000;2.907123
2155.000000;2.797283
2154.000000;2.813059
2153.000000;2.998181
2152.000000;3.315456
2151.000000;4.111403
2150.000000;3.334044
2149.000000;3.017770
2148.000000;2.859208
2147.000000;2.846517
2146.000000;2.870054
2145.000000;2.901012
2144.000000;3.020210
2143.000000;2.988118
2142.000000;2.909147
2141.000000;2.847195
2140.000000;2.679525
2139.000000;2.527980
2138.000000;2.454971
2137.000000;2.438629
2136.000000;2.437368
2135.000000;2.427021
2134.000000;2.415213
2133.000000;2.427882
2132.000000;2.471088
2131.000000;2.511344
2130.000000;2.519284
2129.000000;2.526157
2128.000000;2.595492
2127.000000;2.745786
2126.000000;2.899520
2125.000000;2.972266
2124.000000;3.063994
2123.000000;3.143172
2122.000000;2.904972
2121.000000;2.725051
2120.000000;2.622669
2119.000000;2.586469
2118.000000;2.586338
2117.000000;2.556535
2116.000000;2.497349
2115.000000;2.485323
2114.000000;2.568204
2113.000000;2.702541
2112.000000;2.724159
2111.000000;2.632203
2110.000000;2.600672
2109.000000;2.686927
2108.000000;2.828160
2107.000000;2.839806
2106.000000;2.762422
2105.000000;2.756374
2104.000000;2.821330
2103.000000;2.836478
2102.000000;2.790165
2101.000000;2.756928
2100.000000;2.752682
2099.000000;2.779312
2098.000000;2.811983
2097.000000;2.864260
2096.000000;2.993833
2095.000000;3.176613
2094.000000;3.139448
2093.000000;3.038139
2092.000000;3.047876
2091.000000;3.143541
2090.000000;3.296729
2089.000000;3.413515
2088.000000;3.263300
2087.000000;3.150091
2086.000000;3.109960
2085.000000;3.004290
2084.000000;2.925896
2083.000000;2.955919
2082.000000;3.073605
2081.000000;3.153898
2080.000000;3.044096
2079.000000;2.841915
2078.000000;2.684665
2077.000000;2.581225
2076.000000;2.507120
2075.000000;2.450102
2074.000000;2.406555
2073.000000;2.368541
2072.000000;2.327200
2071.000000;2.288855
2070.000000;2.272996
2069.000000;2.293248
2068.000000;2.344504
2067.000000;2.393420
2066.000000;2.394161
2065.000000;2.359372
2064.000000;2.345296
2063.000000;2.368056
2062.000000;2.397277
2061.000000;2.414720
2060.000000;2.434076
2059.000000;2.455460
2058.000000;2.470660
2057.000000;2.488604
2056.000000;2.515199
2055.000000;2.542756
2054.000000;2.579858
2053.000000;2.627688
2052.000000;2.628476
2051.000000;2.567657
2050.000000;2.533153
2049.000000;2.566805
2048.000000;2.630052
2047.000000;2.678883
2046.000000;2.690677
2045.000000;2.660424
2044.000000;2.645328
2043.000000;2.672615
2042.000000;2.771529
2041.000000;2.916930
2040.000000;2.959188
2039.000000;2.895070
2038.000000;2.811733
2037.000000;2.827335
2036.000000;2.981971
2035.000000;3.080942
2034.000000;2.983756
2033.000000;2.894465
2032.000000;2.885000
2031.000000;2.935132
2030.000000;2.914208
2029.000000;2.839712
2028.000000;2.812415
2027.000000;2.896870
2026.000000;2.870175
2025.000000;2.829462
2024.000000;2.966917
2023.000000;3.073527
2022.000000;2.939894
2021.000000;2.840221
2020.000000;2.938664
2019.000000;3.107066
2018.000000;2.984780
2017.000000;2.964150
2016.000000;2.974132
2015.000000;2.805912
2014.000000;2.616398
2013.000000;2.530294
2012.000000;2.511063
2011.000000;2.472236
2010.000000;2.388215
2009.000000;2.321228
2008.000000;2.305906
2007.000000;2.309717
2006.000000;2.282738
2005.000000;2.227135
2004.000000;2.171205
2003.000000;2.129790
2002.000000;2.108046
2001.000000;2.100462
2000.000000;2.086685
1999.000000;2.057187
1998.000000;2.032950
1997.000000;2.035827
1996.000000;2.063846
1995.000000;2.097135
1994.000000;2.109900
1993.000000;2.102849
1992.000000;2.099446
1991.000000;2.110217
1990.000000;2.140176
1989.000000;2.180746
1988.000000;2.211669
1987.000000;2.233747
1986.000000;2.272554
1985.000000;2.358955
1984.000000;2.490087
1983.000000;2.587639
1982.000000;2.581683
1981.000000;2.536952
1980.000000;2.507546
1979.000000;2.481620
1978.000000;2.457100
1977.000000;2.450361
1976.000000;2.441925
1975.000000;2.406751
1974.000000;2.379680
1973.000000;2.378972
1972.000000;2.363340
1971.000000;2.308382
1970.000000;2.251952
1969.000000;2.225492
1968.000000;2.218856
1967.000000;2.208954
1966.000000;2.194456
1965.000000;2.190215
1964.000000;2.206164
1963.000000;2.239004
1962.000000;2.267608
1961.000000;2.275568
1960.000000;2.280337
1959.000000;2.310154
1958.000000;2.369878
1957.000000;2.415205
1956.000000;2.428130
1955.000000;2.450774
1954.000000;2.455036
1953.000000;2.390164
1952.000000;2.306330
1951.000000;2.270568
1950.000000;2.290106
1949.000000;2.328609
1948.000000;2.347325
1947.000000;2.361366
1946.000000;2.416325
1945.000000;2.519820
1944.000000;2.600689
1943.000000;2.579824
1942.000000;2.497314
1941.000000;2.413462
1940.000000;2.340211
1939.000000;2.278035
1938.000000;2.239101
1937.000000;2.226804
1936.000000;2.225698
1935.000000;2.224601
1934.000000;2.228370
1933.000000;2.240809
1932.000000;2.252609
1931.000000;2.256679
1930.000000;2.264617
1929.000000;2.285620
1928.000000;2.302321
1927.000000;2.288926
1926.000000;2.258662
1925.000000;2.254874
1924.000000;2.294889
1923.000000;2.347117
1922.000000;2.371903
1921.000000;2.368140
1920.000000;2.359745
1919.000000;2.354379
1918.000000;2.338736
1917.000000;2.334681
1916.000000;2.370245
1915.000000;2.420530
1914.000000;2.433746
1913.000000;2.420060
1912.000000;2.446792
1911.000000;2.553632
1910.000000;2.726091
1909.000000;2.920966
1908.000000;3.104387
1907.000000;3.231495
1906.000000;3.203410
1905.000000;3.052854
1904.000000;2.855694
1903.000000;2.672661
1902.000000;2.580217
1901.000000;2.585175
1900.000000;2.622262
1899.000000;2.623778
1898.000000;2.613492
1897.000000;2.654084
1896.000000;2.770458
1895.000000;2.800002
1894.000000;2.763209
1893.000000;2.777106
1892.000000;2.726468
1891.000000;2.609963
1890.000000;2.499710
1889.000000;2.427748
1888.000000;2.372525
1887.000000;2.327060
1886.000000;2.296950
1885.000000;2.263275
1884.000000;2.224443
1883.000000;2.205636
1882.000000;2.218216
1881.000000;2.237892
1880.000000;2.240460
1879.000000;2.236842
1878.000000;2.238619
1877.000000;2.235454
1876.000000;2.229019
1875.000000;2.242620
1874.000000;2.284189
1873.000000;2.329728
1872.000000;2.353991
1871.000000;2.365277
1870.000000;2.381020
1869.000000;2.392659
1868.000000;2.380134
1867.000000;2.351514
1866.000000;2.323643
1865.000000;2.299261
1864.000000;2.285579
1863.000000;2.289882
1862.000000;2.297873
1861.000000;2.288535
1860.000000;2.272464
1859.000000;2.278442
1858.000000;2.311620
1857.000000;2.360881
1856.000000;2.430523
1855.000000;2.519019
1854.000000;2.580613
1853.000000;2.603508
1852.000000;2.690536
1851.000000;2.925341
1850.000000;3.198112
1849.000000;3.168435
1848.000000;2.953146
1847.000000;2.751045
1846.000000;2.654121
1845.000000;2.643045
1844.000000;2.641417
1843.000000;2.564092
1842.000000;2.441692
1841.000000;2.355082
1840.000000;2.321461
1839.000000;2.307959
1838.000000;2.293928
1837.000000;2.307818
1836.000000;2.379732
1835.000000;2.496539
1834.000000;2.579414
1833.000000;2.563389
1832.000000;2.524352
1831.000000;2.553113
1830.000000;2.622859
1829.000000;2.632795
1828.000000;2.542238
1827.000000;2.439493
1826.000000;2.420028
1825.000000;2.453419
1824.000000;2.424903
1823.000000;2.330024
1822.000000;2.276671
1821.000000;2.306676
1820.000000;2.365625
1819.000000;2.362500
1818.000000;2.313896
1817.000000;2.294625
1816.000000;2.313136
1815.000000;2.336304
1814.000000;2.351180
1813.000000;2.361547
1812.000000;2.359646
1811.000000;2.352281
1810.000000;2.361203
1809.000000;2.388110
1808.000000;2.421918
1807.000000;2.467095
1806.000000;2.521453
1805.000000;2.549159
1804.000000;2.542748
1803.000000;2.564369
1802.000000;2.635726
1801.000000;2.683321
1800.000000;2.756190
1799.000000;2.996826
1798.000000;3.193639
1797.000000;3.027057
1796.000000;2.877787
1795.000000;2.753909
1794.000000;2.658672
1793.000000;2.574427
1792.000000;2.486685
1791.000000;2.424919
1790.000000;2.413009
1789.000000;2.435742
1788.000000;2.442307
1787.000000;2.413244
1786.000000;2.394953
1785.000000;2.423003
1784.000000;2.457853
1783.000000;2.448715
1782.000000;2.417807
1781.000000;2.413850
1780.000000;2.455296
1779.000000;2.511238
1778.000000;2.558779
1777.000000;2.635370
1776.000000;2.814893
1775.000000;3.082193
1774.000000;3.108452
1773.000000;2.929635
1772.000000;2.745729
1771.000000;2.606264
1770.000000;2.509831
1769.000000;2.454619
1768.000000;2.408954
1767.000000;2.334186
1766.000000;2.262242
1765.000000;2.230037
1764.000000;2.221201
1763.000000;2.212892
1762.000000;2.212802
1761.000000;2.218390
1760.000000;2.208440
1759.000000;2.182145
1758.000000;2.175113
1757.000000;2.212049
1756.000000;2.274289
1755.000000;2.323344
1754.000000;2.341532
1753.000000;2.341844
1752.000000;2.353489
1751.000000;2.391927
1750.000000;2.456787
1749.000000;2.520247
1748.000000;2.533450
1747.000000;2.518587
1746.000000;2.520922
1745.000000;2.546677
1744.000000;2.599172
1743.000000;2.689193
1742.000000;2.761238
1741.000000;2.727240
1740.000000;2.654520
1739.000000;2.585538
1738.000000;2.499017
1737.000000;2.406428
1736.000000;2.340135
1735.000000;2.326295
1734.000000;2.343808
1733.000000;2.349460
1732.000000;2.339567
1731.000000;2.345547
1730.000000;2.383226
1729.000000;2.420500
1728.000000;2.419934
1727.000000;2.405655
1726.000000;2.419655
1725.000000;2.454214
1724.000000;2.461830
1723.000000;2.441940
1722.000000;2.449039
1721.000000;2.497498
1720.000000;2.554425
1719.000000;2.592604
1718.000000;2.627786
1717.000000;2.701306
1716.000000;2.863356
1715.000000;3.100546
1714.000000;3.053241
1713.000000;2.860842
1712.000000;2.786750
1711.000000;2.758561
1710.000000;2.733245
1709.000000;2.686667
1708.000000;2.611946
1707.000000;2.536937
1706.000000;2.502749
1705.000000;2.500962
1704.000000;2.482054
1703.000000;2.466125
1702.000000;2.505875
1701.000000;2.592035
1700.000000;2.642404
1699.000000;2.619134
1698.000000;2.587513
1697.000000;2.581127
1696.000000;2.564607
1695.000000;2.550803
1694.000000;2.584741
1693.000000;2.638579
1692.000000;2.635140
1691.000000;2.591681
1690.000000;2.607363
1689.000000;2.750822
1688.000000;2.884264
1687.000000;2.754177
1686.000000;2.598889
1685.000000;2.530359
1684.000000;2.509401
1683.000000;2.500534
1682.000000;2.509756
1681.000000;2.536316
1680.000000;2.569985
1679.000000;2.626474
1678.000000;2.726275
1677.000000;2.907906
1676.000000;2.988919
1675.000000;2.781821
1674.000000;2.588465
1673.000000;2.482524
1672.000000;2.461262
1671.000000;2.491423
1670.000000;2.494191
1669.000000;2.458685
1668.000000;2.455833
1667.000000;2.522240
1666.000000;2.614083
1665.000000;2.684625
1664.000000;2.754668
1663.000000;2.949730
1662.000000;3.189962
1661.000000;3.433600
1660.000000;3.725071
1659.000000;3.125171
1658.000000;2.946098
1657.000000;2.967888
1656.000000;2.983644
1655.000000;2.986390
1654.000000;2.930785
1653.000000;2.800792
1652.000000;2.623666
1651.000000;2.493362
1650.000000;2.443843
1649.000000;2.454948
1648.000000;2.477669
1647.000000;2.487535
1646.000000;2.505314
1645.000000;2.579530
1644.000000;2.729679
1643.000000;2.895064
1642.000000;2.932775
1641.000000;2.877302
1640.000000;2.915260
1639.000000;2.973621
1638.000000;2.853436
1637.000000;2.722815
1636.000000;2.714028
1635.000000;2.667246
1634.000000;2.504648
1633.000000;2.427173
1632.000000;2.451958
1631.000000;2.475717
1630.000000;2.458686
1629.000000;2.466288
1628.000000;2.521988
1627.000000;2.573143
1626.000000;2.595603
1625.000000;2.619069
1624.000000;2.657613
1623.000000;2.719933
1622.000000;2.775494
1621.000000;2.722209
1620.000000;2.612476
1619.000000;2.530462
1618.000000;2.464581
1617.000000;2.404514
1616.000000;2.369058
1615.000000;2.366198
1614.000000;2.382067
1613.000000;2.401417
1612.000000;2.422726
1611.000000;2.458562
1610.000000;2.529428
1609.000000;2.636778
1608.000000;2.711594
1607.000000;2.686361
1606.000000;2.619933
1605.000000;2.567960
1604.000000;2.524858
1603.000000;2.487637
1602.000000;2.484489
1601.000000;2.535328
1600.000000;2.616180
1599.000000;2.688932
1598.000000;2.771543
1597.000000;2.876996
1596.000000;2.956605
1595.000000;2.939147
1594.000000;2.874398
1593.000000;2.835130
1592.000000;2.749390
1591.000000;2.612607
1590.000000;2.492555
1589.000000;2.403390
1588.000000;2.337481
1587.000000;2.285759
1586.000000;2.250242
1585.000000;2.237177
1584.000000;2.239424
1583.000000;2.233186
1582.000000;2.200867
1581.000000;2.165476
1580.000000;2.157459
1579.000000;2.166392
1578.000000;2.174128
1577.000000;2.199752
1576.000000;2.247757
1575.000000;2.284764
1574.000000;2.291064
1573.000000;2.290274
1572.000000;2.322325
1571.000000;2.415668
1570.000000;2.552987
1569.000000;2.664681
1568.000000;2.712379
1567.000000;2.758816
1566.000000;2.860294
1565.000000;2.835165
1564.000000;2.827874
1563.000000;2.977153
1562.000000;2.930970
1561.000000;2.736686
1560.000000;2.632561
1559.000000;2.592379
1558.000000;2.559772
1557.000000;2.546228
1556.000000;2.552399
1555.000000;2.554978
1554.000000;2.561840
1553.000000;2.579832
1552.000000;2.567484
1551.000000;2.551702
1550.000000;2.609639
1549.000000;2.708682
1548.000000;2.706025
1547.000000;2.615740
1546.000000;2.569677
1545.000000;2.564910
1544.000000;2.529695
1543.000000;2.458638
1542.000000;2.404583
1541.000000;2.409200
1540.000000;2.437621
1539.000000;2.440267
1538.000000;2.440500
1537.000000;2.459027
1536.000000;2.479843
1535.000000;2.490280
1534.000000;2.521019
1533.000000;2.583903
1532.000000;2.637697
1531.000000;2.632851
1530.000000;2.585815
1529.000000;2.575366
1528.000000;2.646937
1527.000000;2.774511
1526.000000;2.810319
1525.000000;2.667636
1524.000000;2.531423
1523.000000;2.508529
1522.000000;2.564863
1521.000000;2.595369
1520.000000;2.569059
1519.000000;2.553756
1518.000000;2.565066
1517.000000;2.571308
1516.000000;2.597702
1515.000000;2.688003
1514.000000;2.779518
1513.000000;2.763101
1512.000000;2.741112
1511.000000;2.827513
1510.000000;2.972778
1509.000000;3.015481
1508.000000;2.955516
1507.000000;2.872633
1506.000000;2.767771
1505.000000;2.650938
1504.000000;2.578861
1503.000000;2.572746
1502.000000;2.576695
1501.000000;2.523012
1500.000000;2.430961
1499.000000;2.367770
1498.000000;2.355620
1497.000000;2.366588
1496.000000;2.360328
1495.000000;2.327295
1494.000000;2.292369
1493.000000;2.272627
1492.000000;2.266440
1491.000000;2.267005
1490.000000;2.262086
1489.000000;2.247614
1488.000000;2.242516
1487.000000;2.269179
1486.000000;2.326450
1485.000000;2.382939
1484.000000;2.421465
1483.000000;2.479749
1482.000000;2.590015
1481.000000;2.728067
1480.000000;2.841135
1479.000000;2.927322
1478.000000;2.954764
1477.000000;2.823676
1476.000000;2.693196
1475.000000;2.665788
1474.000000;2.704308
1473.000000;2.729058
1472.000000;2.669914
1471.000000;2.613779
1470.000000;2.644310
1469.000000;2.692151
1468.000000;2.640213
1467.000000;2.599293
1466.000000;2.626372
1465.000000;2.703415
1464.000000;2.742939
1463.000000;2.836471
1462.000000;3.397137
1461.000000;3.299772
1460.000000;2.900707
1459.000000;2.840378
1458.000000;2.792774
1457.000000;2.707054
1456.000000;2.554352
1455.000000;2.437715
1454.000000;2.425771
1453.000000;2.544645
1452.000000;2.682655
1451.000000;2.614364
1450.000000;2.521120
1449.000000;2.489798
1448.000000;2.488375
1447.000000;2.495485
1446.000000;2.494487
1445.000000;2.492359
1444.000000;2.501186
1443.000000;2.520532
1442.000000;2.521719
1441.000000;2.499998
1440.000000;2.480023
1439.000000;2.474688
1438.000000;2.490896
1437.000000;2.531361
1436.000000;2.565360
1435.000000;2.598573
1434.000000;2.648996
1433.000000;2.725948
1432.000000;2.764331
1431.000000;2.961530
1430.000000;3.510535
1429.000000;3.031822
1428.000000;2.847414
1427.000000;2.859376
1426.000000;2.889347
1425.000000;2.877727
1424.000000;2.881365
1423.000000;3.014359
1422.000000;3.113674
1421.000000;3.017900
1420.000000;2.856200
1419.000000;2.802768
1418.000000;2.797560
1417.000000;2.794662
1416.000000;2.787580
1415.000000;2.762609
1414.000000;2.722333
1413.000000;2.676534
1412.000000;2.668130
1411.000000;2.696530
1410.000000;2.711032
1409.000000;2.679224
1408.000000;2.628131
1407.000000;2.589458
1406.000000;2.598839
1405.000000;2.698971
1404.000000;2.881165
1403.000000;2.957542
1402.000000;2.814790
1401.000000;2.767657
1400.000000;2.907002
1399.000000;3.285953
1398.000000;3.669370
1397.000000;3.069598
1396.000000;2.898339
1395.000000;2.978963
1394.000000;3.077679
1393.000000;2.941535
1392.000000;2.762978
1391.000000;2.737222
1390.000000;2.759021
1389.000000;2.690328
1388.000000;2.622659
1387.000000;2.602408
1386.000000;2.591372
1385.000000;2.568916
1384.000000;2.540540
1383.000000;2.526513
1382.000000;2.537325
1381.000000;2.564193
1380.000000;2.569481
1379.000000;2.510436
1378.000000;2.406229
1377.000000;2.312921
1376.000000;2.260067
1375.000000;2.254294
1374.000000;2.280386
1373.000000;2.296931
1372.000000;2.279736
1371.000000;2.262671
1370.000000;2.279432
1369.000000;2.306993
1368.000000;2.319654
1367.000000;2.334691
1366.000000;2.358685
1365.000000;2.378404
1364.000000;2.388004
1363.000000;2.406009
1362.000000;2.435184
1361.000000;2.429411
1360.000000;2.366670
1359.000000;2.304883
1358.000000;2.294801
1357.000000;2.317855
1356.000000;2.311244
1355.000000;2.265346
1354.000000;2.249892
1353.000000;2.306736
1352.000000;2.427758
1351.000000;2.517252
1350.000000;2.535845
1349.000000;2.560643
1348.000000;2.746770
1347.000000;3.469708
1346.000000;2.994226
1345.000000;2.669452
1344.000000;2.540189
1343.000000;2.445859
1342.000000;2.380357
1341.000000;2.330192
1340.000000;2.304688
1339.000000;2.285486
1338.000000;2.258475
1337.000000;2.237048
1336.000000;2.247978
1335.000000;2.293375
1334.000000;2.359433
1333.000000;2.436812
1332.000000;2.538473
1331.000000;2.670756
1330.000000;2.943500
1329.000000;3.192291
1328.000000;2.697858
1327.000000;2.423715
1326.000000;2.339738
1325.000000;2.334587
1324.000000;2.359242
1323.000000;2.365683
1322.000000;2.347009
1321.000000;2.332212
1320.000000;2.349474
1319.000000;2.393774
1318.000000;2.433815
1317.000000;2.466285
1316.000000;2.517532
1315.000000;2.569492
1314.000000;2.557935
1313.000000;2.504123
1312.000000;2.491450
1311.000000;2.525073
1310.000000;2.555182
1309.000000;2.634835
1308.000000;2.886896
1307.000000;3.044944
1306.000000;2.804618
1305.000000;2.624973
1304.000000;2.454502
1303.000000;2.313752
1302.000000;2.246266
1301.000000;2.228833
1300.000000;2.225838
1299.000000;2.229558
1298.000000;2.241438
1297.000000;2.253135
1296.000000;2.259727
1295.000000;2.275825
1294.000000;2.323137
1293.000000;2.385709
1292.000000;2.411573
1291.000000;2.389342
1290.000000;2.356641
1289.000000;2.341952
1288.000000;2.360379
1287.000000;2.419671
1286.000000;2.523513
1285.000000;2.660797
1284.000000;2.799727
1283.000000;2.928874
1282.000000;3.082366
1281.000000;3.305564
1280.000000;3.110250
1279.000000;2.916096
1278.000000;3.070767
1277.000000;3.110923
1276.000000;2.957783
1275.000000;2.900707
1274.000000;2.857996
1273.000000;2.782140
1272.000000;2.706539
1271.000000;2.769128
1270.000000;3.000140
1269.000000;3.177150
1268.000000;3.144574
1267.000000;3.082569
1266.000000;3.030447
1265.000000;2.916053
1264.000000;2.874283
1263.000000;2.874422
1262.000000;2.792259
1261.000000;2.680426
1260.000000;2.569368
1259.000000;2.492901
1258.000000;2.482371
1257.000000;2.534001
1256.000000;2.587564
1255.000000;2.597596
1254.000000;2.617540
1253.000000;2.689089
1252.000000;2.765507
1251.000000;2.774207
1250.000000;2.813161
1249.000000;3.016110
1248.000000;3.038819
1247.000000;2.864916
1246.000000;2.756005
1245.000000;2.691188
1244.000000;2.703376
1243.000000;2.732192
1242.000000;2.721910
1241.000000;2.717124
1240.000000;2.770693
1239.000000;2.773410
1238.000000;2.725584
1237.000000;2.688802
1236.000000;2.563710
1235.000000;2.416167
1234.000000;2.354236
1233.000000;2.396736
1232.000000;2.472871
1231.000000;2.477447
1230.000000;2.427886
1229.000000;2.403655
1228.000000;2.419781
1227.000000;2.409603
1226.000000;2.371425
1225.000000;2.350308
1224.000000;2.346518
1223.000000;2.348392
1222.000000;2.345029
1221.000000;2.334414
1220.000000;2.327220
1219.000000;2.341971
1218.000000;2.392209
1217.000000;2.471971
1216.000000;2.534715
1215.000000;2.508500
1214.000000;2.418825
1213.000000;2.364322
1212.000000;2.394044
1211.000000;2.481541
1210.000000;2.513397
1209.000000;2.430368
1208.000000;2.330579
1207.000000;2.290386
1206.000000;2.319115
1205.000000;2.392564
1204.000000;2.469986
1203.000000;2.526141
1202.000000;2.583118
1201.000000;2.666001
1200.000000;2.766572
