Criado como novo conjunto de dados;"0307_DANIEL.spp","57964.8 Secs"
cm-1;Abs
10000.000000;0.445953
9999.000000;0.445193
9998.000000;0.444433
9997.000000;0.443676
9996.000000;0.442918
9995.000000;0.442164
9994.000000;0.441408
9993.000000;0.440660
9992.000000;0.439902
9991.000000;0.439165
9990.000000;0.438386
9989.000000;0.437809
9988.000000;0.437569
9987.000000;0.437381
9986.000000;0.436896
9985.000000;0.435868
9984.000000;0.434450
9983.000000;0.433076
9982.000000;0.432123
9981.000000;0.431636
9980.000000;0.431366
9979.000000;0.431016
9978.000000;0.430438
9977.000000;0.429646
9976.000000;0.428747
9975.000000;0.427838
9974.000000;0.426956
9973.000000;0.426068
9972.000000;0.425127
9971.000000;0.424129
9970.000000;0.423124
9969.000000;0.422189
9968.000000;0.421391
9967.000000;0.420722
9966.000000;0.420073
9965.000000;0.419322
9964.000000;0.418489
9963.000000;0.417726
9962.000000;0.417096
9961.000000;0.416446
9960.000000;0.415592
9959.000000;0.414583
9958.000000;0.413661
9957.000000;0.412954
9956.000000;0.412339
9955.000000;0.411650
9954.000000;0.410908
9953.000000;0.410245
9952.000000;0.409674
9951.000000;0.408996
9950.000000;0.407970
9949.000000;0.406562
9948.000000;0.405038
9947.000000;0.403793
9946.000000;0.403025
9945.000000;0.402556
9944.000000;0.402035
9943.000000;0.401300
9942.000000;0.400467
9941.000000;0.399667
9940.000000;0.398855
9939.000000;0.397928
9938.000000;0.396903
9937.000000;0.395863
9936.000000;0.394799
9935.000000;0.393659
9934.000000;0.392516
9933.000000;0.391538
9932.000000;0.390783
9931.000000;0.390129
9930.000000;0.389429
9929.000000;0.388644
9928.000000;0.387784
9927.000000;0.386841
9926.000000;0.385856
9925.000000;0.384972
9924.000000;0.384306
9923.000000;0.383744
9922.000000;0.382997
9921.000000;0.381933
9920.000000;0.380781
9919.000000;0.379897
9918.000000;0.379334
9917.000000;0.378763
9916.000000;0.377857
9915.000000;0.376655
9914.000000;0.375465
9913.000000;0.374495
9912.000000;0.373728
9911.000000;0.373088
9910.000000;0.372518
9909.000000;0.371892
9908.000000;0.371008
9907.000000;0.369791
9906.000000;0.368399
9905.000000;0.367059
9904.000000;0.365890
9903.000000;0.364944
9902.000000;0.364273
9901.000000;0.363815
9900.000000;0.363300
9899.000000;0.362455
9898.000000;0.361297
9897.000000;0.360112
9896.000000;0.359125
9895.000000;0.358296
9894.000000;0.357445
9893.000000;0.356460
9892.000000;0.355364
9891.000000;0.354248
9890.000000;0.353182
9889.000000;0.352172
9888.000000;0.351189
9887.000000;0.350255
9886.000000;0.349459
9885.000000;0.348846
9884.000000;0.348303
9883.000000;0.347626
9882.000000;0.346704
9881.000000;0.345604
9880.000000;0.344486
9879.000000;0.343466
9878.000000;0.342533
9877.000000;0.341543
9876.000000;0.340349
9875.000000;0.338971
9874.000000;0.337610
9873.000000;0.336427
9872.000000;0.335378
9871.000000;0.334348
9870.000000;0.333364
9869.000000;0.332545
9868.000000;0.331854
9867.000000;0.331064
9866.000000;0.329998
9865.000000;0.328689
9864.000000;0.327288
9863.000000;0.325925
9862.000000;0.324725
9861.000000;0.323796
9860.000000;0.323110
9859.000000;0.322452
9858.000000;0.321588
9857.000000;0.320454
9856.000000;0.319129
9855.000000;0.317699
9854.000000;0.316229
9853.000000;0.314829
9852.000000;0.313640
9851.000000;0.312734
9850.000000;0.312063
9849.000000;0.311495
9848.000000;0.310868
9847.000000;0.310061
9846.000000;0.309050
9845.000000;0.307908
9844.000000;0.306720
9843.000000;0.305511
9842.000000;0.304290
9841.000000;0.303112
9840.000000;0.302056
9839.000000;0.301138
9838.000000;0.300273
9837.000000;0.299336
9836.000000;0.298254
9835.000000;0.297076
9834.000000;0.295938
9833.000000;0.294937
9832.000000;0.293994
9831.000000;0.292895
9830.000000;0.291529
9829.000000;0.290072
9828.000000;0.288854
9827.000000;0.288013
9826.000000;0.287310
9825.000000;0.286340
9824.000000;0.284931
9823.000000;0.283301
9822.000000;0.281833
9821.000000;0.280721
9820.000000;0.279863
9819.000000;0.279029
9818.000000;0.278077
9817.000000;0.276995
9816.000000;0.275841
9815.000000;0.274684
9814.000000;0.273564
9813.000000;0.272434
9812.000000;0.271174
9811.000000;0.269728
9810.000000;0.268199
9809.000000;0.266756
9808.000000;0.265436
9807.000000;0.264146
9806.000000;0.262840
9805.000000;0.261614
9804.000000;0.260574
9803.000000;0.259650
9802.000000;0.258618
9801.000000;0.257321
9800.000000;0.255842
9799.000000;0.254451
9798.000000;0.253369
9797.000000;0.252572
9796.000000;0.251833
9795.000000;0.250946
9794.000000;0.249902
9793.000000;0.248796
9792.000000;0.247651
9791.000000;0.246383
9790.000000;0.244951
9789.000000;0.243438
9788.000000;0.241962
9787.000000;0.240567
9786.000000;0.239224
9785.000000;0.237900
9784.000000;0.236614
9783.000000;0.235419
9782.000000;0.234330
9781.000000;0.233254
9780.000000;0.232033
9779.000000;0.230613
9778.000000;0.229137
9777.000000;0.227794
9776.000000;0.226609
9775.000000;0.225428
9774.000000;0.224120
9773.000000;0.222723
9772.000000;0.221386
9771.000000;0.220227
9770.000000;0.219232
9769.000000;0.218226
9768.000000;0.216971
9767.000000;0.215388
9766.000000;0.213646
9765.000000;0.211978
9764.000000;0.210435
9763.000000;0.208973
9762.000000;0.207699
9761.000000;0.206820
9760.000000;0.206273
9759.000000;0.205611
9758.000000;0.204413
9757.000000;0.202688
9756.000000;0.200776
9755.000000;0.198973
9754.000000;0.197383
9753.000000;0.196024
9752.000000;0.194849
9751.000000;0.193721
9750.000000;0.192497
9749.000000;0.191150
9748.000000;0.189706
9747.000000;0.188101
9746.000000;0.186264
9745.000000;0.184334
9744.000000;0.182665
9743.000000;0.181509
9742.000000;0.180771
9741.000000;0.180076
9740.000000;0.179051
9739.000000;0.177561
9738.000000;0.175775
9737.000000;0.174021
9736.000000;0.172528
9735.000000;0.171248
9734.000000;0.169962
9733.000000;0.168542
9732.000000;0.167053
9731.000000;0.165633
9730.000000;0.164325
9729.000000;0.163052
9728.000000;0.161700
9727.000000;0.160211
9726.000000;0.158619
9725.000000;0.157022
9724.000000;0.155475
9723.000000;0.153917
9722.000000;0.152244
9721.000000;0.150434
9720.000000;0.148597
9719.000000;0.146890
9718.000000;0.145412
9717.000000;0.144141
9716.000000;0.142915
9715.000000;0.141542
9714.000000;0.139986
9713.000000;0.138447
9712.000000;0.137142
9711.000000;0.136028
9710.000000;0.134795
9709.000000;0.133178
9708.000000;0.131215
9707.000000;0.129192
9706.000000;0.127387
9705.000000;0.125894
9704.000000;0.124605
9703.000000;0.123321
9702.000000;0.121899
9701.000000;0.120328
9700.000000;0.118660
9699.000000;0.116913
9698.000000;0.115097
9697.000000;0.113318
9696.000000;0.111771
9695.000000;0.110551
9694.000000;0.109511
9693.000000;0.108343
9692.000000;0.106839
9691.000000;0.105056
9690.000000;0.103246
9689.000000;0.101602
9688.000000;0.100089
9687.000000;0.098508
9686.000000;0.096732
9685.000000;0.094844
9684.000000;0.093025
9683.000000;0.091372
9682.000000;0.089837
9681.000000;0.088306
9680.000000;0.086682
9679.000000;0.084952
9678.000000;0.083224
9677.000000;0.081675
9676.000000;0.080367
9675.000000;0.079130
9674.000000;0.077687
9673.000000;0.075900
9672.000000;0.073836
9671.000000;0.071643
9670.000000;0.069464
9669.000000;0.067439
9668.000000;0.065691
9667.000000;0.064215
9666.000000;0.062859
9665.000000;0.061450
9664.000000;0.059931
9663.000000;0.058351
9662.000000;0.056755
9661.000000;0.055118
9660.000000;0.053355
9659.000000;0.051423
9658.000000;0.049399
9657.000000;0.047455
9656.000000;0.045728
9655.000000;0.044222
9654.000000;0.042869
9653.000000;0.041585
9652.000000;0.040228
9651.000000;0.038560
9650.000000;0.036436
9649.000000;0.034035
9648.000000;0.031769
9647.000000;0.029900
9646.000000;0.028309
9645.000000;0.026683
9644.000000;0.024850
9643.000000;0.022885
9642.000000;0.020944
9641.000000;0.019084
9640.000000;0.017239
9639.000000;0.015331
9638.000000;0.013382
9637.000000;0.011505
9636.000000;0.009769
9635.000000;0.008100
9634.000000;0.006343
9633.000000;0.004438
9632.000000;0.002460
9631.000000;0.000518
9630.000000;-0.001370
9629.000000;-0.003272
9628.000000;-0.005264
9627.000000;-0.007346
9626.000000;-0.009413
9625.000000;-0.011339
9624.000000;-0.013116
9623.000000;-0.014863
9622.000000;-0.016646
9621.000000;-0.018384
9620.000000;-0.020004
9619.000000;-0.021612
9618.000000;-0.023385
9617.000000;-0.025339
9616.000000;-0.027349
9615.000000;-0.029347
9614.000000;-0.031354
9613.000000;-0.033327
9612.000000;-0.035196
9611.000000;-0.037068
9610.000000;-0.039179
9609.000000;-0.041548
9608.000000;-0.043862
9607.000000;-0.045833
9606.000000;-0.047535
9605.000000;-0.049264
9604.000000;-0.051194
9603.000000;-0.053299
9602.000000;-0.055478
9601.000000;-0.057584
9600.000000;-0.059440
9599.000000;-0.061002
9598.000000;-0.062495
9597.000000;-0.064225
9596.000000;-0.066274
9595.000000;-0.068479
9594.000000;-0.070680
9593.000000;-0.072811
9592.000000;-0.074794
9591.000000;-0.076537
9590.000000;-0.078127
9589.000000;-0.079868
9588.000000;-0.082003
9587.000000;-0.084445
9586.000000;-0.086863
9585.000000;-0.088994
9584.000000;-0.090824
9583.000000;-0.092509
9582.000000;-0.094210
9581.000000;-0.095995
9580.000000;-0.097848
9579.000000;-0.099726
9578.000000;-0.101623
9577.000000;-0.103597
9576.000000;-0.105719
9575.000000;-0.107949
9574.000000;-0.110085
9573.000000;-0.111924
9572.000000;-0.113537
9571.000000;-0.115287
9570.000000;-0.117456
9569.000000;-0.119903
9568.000000;-0.122218
9567.000000;-0.124211
9566.000000;-0.126069
9565.000000;-0.128032
9564.000000;-0.130096
9563.000000;-0.132146
9562.000000;-0.134190
9561.000000;-0.136296
9560.000000;-0.138414
9559.000000;-0.140410
9558.000000;-0.142248
9557.000000;-0.143976
9556.000000;-0.145603
9555.000000;-0.147130
9554.000000;-0.148685
9553.000000;-0.150457
9552.000000;-0.152498
9551.000000;-0.154693
9550.000000;-0.156919
9549.000000;-0.159129
9548.000000;-0.161271
9547.000000;-0.163279
9546.000000;-0.165152
9545.000000;-0.166948
9544.000000;-0.168677
9543.000000;-0.170310
9542.000000;-0.171922
9541.000000;-0.173685
9540.000000;-0.175666
9539.000000;-0.177720
9538.000000;-0.179672
9537.000000;-0.181554
9536.000000;-0.183543
9535.000000;-0.185690
9534.000000;-0.187783
9533.000000;-0.189545
9532.000000;-0.190963
9531.000000;-0.192381
9530.000000;-0.194176
9529.000000;-0.196344
9528.000000;-0.198478
9527.000000;-0.200202
9526.000000;-0.201561
9525.000000;-0.202912
9524.000000;-0.204532
9523.000000;-0.206446
9522.000000;-0.208534
9521.000000;-0.210625
9520.000000;-0.212527
9519.000000;-0.214148
9518.000000;-0.215633
9517.000000;-0.217194
9516.000000;-0.218803
9515.000000;-0.220227
9514.000000;-0.221427
9513.000000;-0.222702
9512.000000;-0.224305
9511.000000;-0.226089
9510.000000;-0.227712
9509.000000;-0.229085
9508.000000;-0.230398
9507.000000;-0.231792
9506.000000;-0.233215
9505.000000;-0.234617
9504.000000;-0.236060
9503.000000;-0.237576
9502.000000;-0.239060
9501.000000;-0.240410
9500.000000;-0.241679
9499.000000;-0.243014
9498.000000;-0.244485
9497.000000;-0.246035
9496.000000;-0.247553
9495.000000;-0.248943
9494.000000;-0.250177
9493.000000;-0.251305
9492.000000;-0.252407
9491.000000;-0.253494
9490.000000;-0.254501
9489.000000;-0.255388
9488.000000;-0.256207
9487.000000;-0.257033
9486.000000;-0.257892
9485.000000;-0.258780
9484.000000;-0.259725
9483.000000;-0.260762
9482.000000;-0.261886
9481.000000;-0.263034
9480.000000;-0.264107
9479.000000;-0.264981
9478.000000;-0.265549
9477.000000;-0.265861
9476.000000;-0.266173
9475.000000;-0.266773
9474.000000;-0.267688
9473.000000;-0.268638
9472.000000;-0.269310
9471.000000;-0.269647
9470.000000;-0.269858
9469.000000;-0.270215
9468.000000;-0.270875
9467.000000;-0.271812
9466.000000;-0.272823
9465.000000;-0.273627
9464.000000;-0.274072
9463.000000;-0.274270
9462.000000;-0.274468
9461.000000;-0.274755
9460.000000;-0.274983
9459.000000;-0.275011
9458.000000;-0.274939
9457.000000;-0.275023
9456.000000;-0.275392
9455.000000;-0.275937
9454.000000;-0.276448
9453.000000;-0.276778
9452.000000;-0.276873
9451.000000;-0.276740
9450.000000;-0.276450
9449.000000;-0.276110
9448.000000;-0.275784
9447.000000;-0.275465
9446.000000;-0.275147
9445.000000;-0.274873
9444.000000;-0.274692
9443.000000;-0.274584
9442.000000;-0.274478
9441.000000;-0.274313
9440.000000;-0.274054
9439.000000;-0.273684
9438.000000;-0.273252
9437.000000;-0.272910
9436.000000;-0.272807
9435.000000;-0.272891
9434.000000;-0.272869
9433.000000;-0.272419
9432.000000;-0.271492
9431.000000;-0.270409
9430.000000;-0.269627
9429.000000;-0.269367
9428.000000;-0.269416
9427.000000;-0.269311
9426.000000;-0.268758
9425.000000;-0.267864
9424.000000;-0.266942
9423.000000;-0.266132
9422.000000;-0.265308
9421.000000;-0.264330
9420.000000;-0.263265
9419.000000;-0.262284
9418.000000;-0.261433
9417.000000;-0.260605
9416.000000;-0.259716
9415.000000;-0.258801
9414.000000;-0.257942
9413.000000;-0.257205
9412.000000;-0.256630
9411.000000;-0.256190
9410.000000;-0.255733
9409.000000;-0.255059
9408.000000;-0.254112
9407.000000;-0.253024
9406.000000;-0.251912
9405.000000;-0.250708
9404.000000;-0.249311
9403.000000;-0.247852
9402.000000;-0.246639
9401.000000;-0.245802
9400.000000;-0.245116
9399.000000;-0.244224
9398.000000;-0.242985
9397.000000;-0.241525
9396.000000;-0.240026
9395.000000;-0.238580
9394.000000;-0.237225
9393.000000;-0.236005
9392.000000;-0.234939
9391.000000;-0.233965
9390.000000;-0.232973
9389.000000;-0.231875
9388.000000;-0.230637
9387.000000;-0.229249
9386.000000;-0.227717
9385.000000;-0.226100
9384.000000;-0.224529
9383.000000;-0.223150
9382.000000;-0.222002
9381.000000;-0.220946
9380.000000;-0.219793
9379.000000;-0.218497
9378.000000;-0.217193
9377.000000;-0.215997
9376.000000;-0.214838
9375.000000;-0.213560
9374.000000;-0.212152
9373.000000;-0.210748
9372.000000;-0.209412
9371.000000;-0.208027
9370.000000;-0.206473
9369.000000;-0.204831
9368.000000;-0.203302
9367.000000;-0.201981
9366.000000;-0.200779
9365.000000;-0.199550
9364.000000;-0.198218
9363.000000;-0.196794
9362.000000;-0.195340
9361.000000;-0.193922
9360.000000;-0.192533
9359.000000;-0.191050
9358.000000;-0.189350
9357.000000;-0.187493
9356.000000;-0.185728
9355.000000;-0.184245
9354.000000;-0.182984
9353.000000;-0.181735
9352.000000;-0.180400
9351.000000;-0.179057
9350.000000;-0.177777
9349.000000;-0.176487
9348.000000;-0.175075
9347.000000;-0.173554
9346.000000;-0.172054
9345.000000;-0.170662
9344.000000;-0.169338
9343.000000;-0.167967
9342.000000;-0.166474
9341.000000;-0.164886
9340.000000;-0.163324
9339.000000;-0.161927
9338.000000;-0.160722
9337.000000;-0.159584
9336.000000;-0.158364
9335.000000;-0.157025
9334.000000;-0.155600
9333.000000;-0.154043
9332.000000;-0.152281
9331.000000;-0.150412
9330.000000;-0.148726
9329.000000;-0.147405
9328.000000;-0.146318
9327.000000;-0.145220
9326.000000;-0.144057
9325.000000;-0.142911
9324.000000;-0.141711
9323.000000;-0.140227
9322.000000;-0.138424
9321.000000;-0.136611
9320.000000;-0.135123
9319.000000;-0.133923
9318.000000;-0.132682
9317.000000;-0.131180
9316.000000;-0.129513
9315.000000;-0.127896
9314.000000;-0.126405
9313.000000;-0.124985
9312.000000;-0.123611
9311.000000;-0.122306
9310.000000;-0.121011
9309.000000;-0.119564
9308.000000;-0.117914
9307.000000;-0.116283
9306.000000;-0.114964
9305.000000;-0.113936
9304.000000;-0.112828
9303.000000;-0.111354
9302.000000;-0.109664
9301.000000;-0.108116
9300.000000;-0.106804
9299.000000;-0.105504
9298.000000;-0.104054
9297.000000;-0.102559
9296.000000;-0.101160
9295.000000;-0.099816
9294.000000;-0.098445
9293.000000;-0.097130
9292.000000;-0.096002
9291.000000;-0.095011
9290.000000;-0.093963
9289.000000;-0.092774
9288.000000;-0.091527
9287.000000;-0.090293
9286.000000;-0.089030
9285.000000;-0.087675
9284.000000;-0.086236
9283.000000;-0.084742
9282.000000;-0.083202
9281.000000;-0.081655
9280.000000;-0.080210
9279.000000;-0.078982
9278.000000;-0.077982
9277.000000;-0.077078
9276.000000;-0.076064
9275.000000;-0.074786
9274.000000;-0.073253
9273.000000;-0.071641
9272.000000;-0.070152
9271.000000;-0.068858
9270.000000;-0.067681
9269.000000;-0.066499
9268.000000;-0.065237
9267.000000;-0.063913
9266.000000;-0.062641
9265.000000;-0.061564
9264.000000;-0.060704
9263.000000;-0.059862
9262.000000;-0.058744
9261.000000;-0.057232
9260.000000;-0.055536
9259.000000;-0.054038
9258.000000;-0.052961
9257.000000;-0.052185
9256.000000;-0.051384
9255.000000;-0.050359
9254.000000;-0.049195
9253.000000;-0.048094
9252.000000;-0.047092
9251.000000;-0.046035
9250.000000;-0.044800
9249.000000;-0.043422
9248.000000;-0.041986
9247.000000;-0.040558
9246.000000;-0.039274
9245.000000;-0.038339
9244.000000;-0.037774
9243.000000;-0.037252
9242.000000;-0.036378
9241.000000;-0.035097
9240.000000;-0.033696
9239.000000;-0.032427
9238.000000;-0.031296
9237.000000;-0.030208
9236.000000;-0.029145
9235.000000;-0.028138
9234.000000;-0.027210
9233.000000;-0.026392
9232.000000;-0.025653
9231.000000;-0.024784
9230.000000;-0.023512
9229.000000;-0.021859
9228.000000;-0.020239
9227.000000;-0.019042
9226.000000;-0.018203
9225.000000;-0.017327
9224.000000;-0.016181
9223.000000;-0.014885
9222.000000;-0.013657
9221.000000;-0.012571
9220.000000;-0.011595
9219.000000;-0.010690
9218.000000;-0.009781
9217.000000;-0.008737
9216.000000;-0.007530
9215.000000;-0.006354
9214.000000;-0.005466
9213.000000;-0.004895
9212.000000;-0.004396
9211.000000;-0.003710
9210.000000;-0.002802
9209.000000;-0.001806
9208.000000;-0.000823
9207.000000;0.000160
9206.000000;0.001161
9205.000000;0.002113
9204.000000;0.002954
9203.000000;0.003744
9202.000000;0.004632
9201.000000;0.005678
9200.000000;0.006788
9199.000000;0.007855
9198.000000;0.008889
9197.000000;0.009968
9196.000000;0.011084
9195.000000;0.012147
9194.000000;0.013126
9193.000000;0.014096
9192.000000;0.015109
9191.000000;0.016067
9190.000000;0.016814
9189.000000;0.017322
9188.000000;0.017742
9187.000000;0.018270
9186.000000;0.018994
9185.000000;0.019872
9184.000000;0.020792
9183.000000;0.021644
9182.000000;0.022408
9181.000000;0.023188
9180.000000;0.024135
9179.000000;0.025298
9178.000000;0.026557
9177.000000;0.027740
9176.000000;0.028746
9175.000000;0.029534
9174.000000;0.030087
9173.000000;0.030475
9172.000000;0.030930
9171.000000;0.031708
9170.000000;0.032827
9169.000000;0.034029
9168.000000;0.035035
9167.000000;0.035805
9166.000000;0.036478
9165.000000;0.037165
9164.000000;0.037886
9163.000000;0.038666
9162.000000;0.039552
9161.000000;0.040528
9160.000000;0.041510
9159.000000;0.042455
9158.000000;0.043404
9157.000000;0.044383
9156.000000;0.045324
9155.000000;0.046130
9154.000000;0.046784
9153.000000;0.047336
9152.000000;0.047833
9151.000000;0.048299
9150.000000;0.048782
9149.000000;0.049340
9148.000000;0.049986
9147.000000;0.050674
9146.000000;0.051364
9145.000000;0.052077
9144.000000;0.052858
9143.000000;0.053689
9142.000000;0.054476
9141.000000;0.055147
9140.000000;0.055765
9139.000000;0.056467
9138.000000;0.057279
9137.000000;0.058049
9136.000000;0.058641
9135.000000;0.059157
9134.000000;0.059858
9133.000000;0.060833
9132.000000;0.061852
9131.000000;0.062631
9130.000000;0.063154
9129.000000;0.063647
9128.000000;0.064290
9127.000000;0.065049
9126.000000;0.065801
9125.000000;0.066471
9124.000000;0.067050
9123.000000;0.067549
9122.000000;0.068027
9121.000000;0.068584
9120.000000;0.069278
9119.000000;0.070060
9118.000000;0.070843
9117.000000;0.071580
9116.000000;0.072263
9115.000000;0.072880
9114.000000;0.073434
9113.000000;0.073971
9112.000000;0.074541
9111.000000;0.075166
9110.000000;0.075871
9109.000000;0.076686
9108.000000;0.077567
9107.000000;0.078360
9106.000000;0.078961
9105.000000;0.079422
9104.000000;0.079832
9103.000000;0.080125
9102.000000;0.080198
9101.000000;0.080208
9100.000000;0.080529
9099.000000;0.081317
9098.000000;0.082278
9097.000000;0.083009
9096.000000;0.083466
9095.000000;0.083937
9094.000000;0.084619
9093.000000;0.085453
9092.000000;0.086327
9091.000000;0.087221
9090.000000;0.088072
9089.000000;0.088661
9088.000000;0.088817
9087.000000;0.088673
9086.000000;0.088584
9085.000000;0.088833
9084.000000;0.089451
9083.000000;0.090303
9082.000000;0.091230
9081.000000;0.092132
9080.000000;0.092994
9079.000000;0.093841
9078.000000;0.094660
9077.000000;0.095370
9076.000000;0.095912
9075.000000;0.096330
9074.000000;0.096703
9073.000000;0.097021
9072.000000;0.097221
9071.000000;0.097337
9070.000000;0.097541
9069.000000;0.097969
9068.000000;0.098577
9067.000000;0.099202
9066.000000;0.099739
9065.000000;0.100213
9064.000000;0.100713
9063.000000;0.101303
9062.000000;0.101966
9061.000000;0.102591
9060.000000;0.103013
9059.000000;0.103146
9058.000000;0.103104
9057.000000;0.103165
9056.000000;0.103582
9055.000000;0.104387
9054.000000;0.105372
9053.000000;0.106226
9052.000000;0.106731
9051.000000;0.106895
9050.000000;0.106913
9049.000000;0.106992
9048.000000;0.107177
9047.000000;0.107386
9046.000000;0.107582
9045.000000;0.107852
9044.000000;0.108285
9043.000000;0.108844
9042.000000;0.109424
9041.000000;0.109994
9040.000000;0.110593
9039.000000;0.111207
9038.000000;0.111753
9037.000000;0.112211
9036.000000;0.112679
9035.000000;0.113241
9034.000000;0.113837
9033.000000;0.114328
9032.000000;0.114646
9031.000000;0.114835
9030.000000;0.114977
9029.000000;0.115132
9028.000000;0.115328
9027.000000;0.115558
9026.000000;0.115798
9025.000000;0.116070
9024.000000;0.116470
9023.000000;0.117071
9022.000000;0.117815
9021.000000;0.118527
9020.000000;0.119056
9019.000000;0.119369
9018.000000;0.119558
9017.000000;0.119770
9016.000000;0.120089
9015.000000;0.120435
9014.000000;0.120628
9013.000000;0.120615
9012.000000;0.120595
9011.000000;0.120832
9010.000000;0.121365
9009.000000;0.122002
9008.000000;0.122566
9007.000000;0.123032
9006.000000;0.123401
9005.000000;0.123618
9004.000000;0.123700
9003.000000;0.123815
9002.000000;0.124121
9001.000000;0.124564
9000.000000;0.124986
8999.000000;0.125364
8998.000000;0.125819
8997.000000;0.126369
8996.000000;0.126830
8995.000000;0.127012
8994.000000;0.126955
8993.000000;0.126888
8992.000000;0.126998
8991.000000;0.127289
8990.000000;0.127631
8989.000000;0.127898
8988.000000;0.128065
8987.000000;0.128223
8986.000000;0.128492
8985.000000;0.128896
8984.000000;0.129316
8983.000000;0.129588
8982.000000;0.129670
8981.000000;0.129683
8980.000000;0.129798
8979.000000;0.130098
8978.000000;0.130539
8977.000000;0.131017
8976.000000;0.131419
8975.000000;0.131671
8974.000000;0.131773
8973.000000;0.131827
8972.000000;0.131979
8971.000000;0.132317
8970.000000;0.132801
8969.000000;0.133309
8968.000000;0.133721
8967.000000;0.133951
8966.000000;0.133953
8965.000000;0.133756
8964.000000;0.133523
8963.000000;0.133489
8962.000000;0.133783
8961.000000;0.134298
8960.000000;0.134796
8959.000000;0.135143
8958.000000;0.135416
8957.000000;0.135744
8956.000000;0.136098
8955.000000;0.136329
8954.000000;0.136392
8953.000000;0.136468
8952.000000;0.136771
8951.000000;0.137289
8950.000000;0.137770
8949.000000;0.137988
8948.000000;0.137961
8947.000000;0.137892
8946.000000;0.137962
8945.000000;0.138210
8944.000000;0.138566
8943.000000;0.138931
8942.000000;0.139212
8941.000000;0.139360
8940.000000;0.139413
8939.000000;0.139463
8938.000000;0.139561
8937.000000;0.139651
8936.000000;0.139645
8935.000000;0.139561
8934.000000;0.139563
8933.000000;0.139819
8932.000000;0.140310
8931.000000;0.140816
8930.000000;0.141111
8929.000000;0.141169
8928.000000;0.141145
8927.000000;0.141201
8926.000000;0.141381
8925.000000;0.141629
8924.000000;0.141847
8923.000000;0.141923
8922.000000;0.141795
8921.000000;0.141547
8920.000000;0.141374
8919.000000;0.141400
8918.000000;0.141570
8917.000000;0.141781
8916.000000;0.142047
8915.000000;0.142460
8914.000000;0.142995
8913.000000;0.143472
8912.000000;0.143728
8911.000000;0.143764
8910.000000;0.143717
8909.000000;0.143715
8908.000000;0.143804
8907.000000;0.143937
8906.000000;0.144019
8905.000000;0.143988
8904.000000;0.143874
8903.000000;0.143784
8902.000000;0.143814
8901.000000;0.143969
8900.000000;0.144171
8899.000000;0.144309
8898.000000;0.144313
8897.000000;0.144202
8896.000000;0.144073
8895.000000;0.144017
8894.000000;0.144053
8893.000000;0.144121
8892.000000;0.144147
8891.000000;0.144100
8890.000000;0.144029
8889.000000;0.144071
8888.000000;0.144357
8887.000000;0.144855
8886.000000;0.145340
8885.000000;0.145581
8884.000000;0.145584
8883.000000;0.145576
8882.000000;0.145763
8881.000000;0.146124
8880.000000;0.146457
8879.000000;0.146558
8878.000000;0.146381
8877.000000;0.146066
8876.000000;0.145832
8875.000000;0.145809
8874.000000;0.145954
8873.000000;0.146144
8872.000000;0.146316
8871.000000;0.146488
8870.000000;0.146680
8869.000000;0.146878
8868.000000;0.147053
8867.000000;0.147151
8866.000000;0.147093
8865.000000;0.146865
8864.000000;0.146605
8863.000000;0.146485
8862.000000;0.146503
8861.000000;0.146512
8860.000000;0.146459
8859.000000;0.146469
8858.000000;0.146616
8857.000000;0.146757
8856.000000;0.146713
8855.000000;0.146528
8854.000000;0.146400
8853.000000;0.146391
8852.000000;0.146367
8851.000000;0.146248
8850.000000;0.146152
8849.000000;0.146246
8848.000000;0.146521
8847.000000;0.146809
8846.000000;0.146946
8845.000000;0.146875
8844.000000;0.146632
8843.000000;0.146318
8842.000000;0.146081
8841.000000;0.146040
8840.000000;0.146206
8839.000000;0.146471
8838.000000;0.146698
8837.000000;0.146801
8836.000000;0.146755
8835.000000;0.146570
8834.000000;0.146289
8833.000000;0.145982
8832.000000;0.145714
8831.000000;0.145518
8830.000000;0.145408
8829.000000;0.145413
8828.000000;0.145569
8827.000000;0.145860
8826.000000;0.146193
8825.000000;0.146442
8824.000000;0.146520
8823.000000;0.146440
8822.000000;0.146318
8821.000000;0.146290
8820.000000;0.146371
8819.000000;0.146400
8818.000000;0.146199
8817.000000;0.145815
8816.000000;0.145535
8815.000000;0.145622
8814.000000;0.146073
8813.000000;0.146665
8812.000000;0.147173
8811.000000;0.147461
8810.000000;0.147438
8809.000000;0.147076
8808.000000;0.146492
8807.000000;0.145925
8806.000000;0.145585
8805.000000;0.145544
8804.000000;0.145761
8803.000000;0.146105
8802.000000;0.146357
8801.000000;0.146307
8800.000000;0.145958
8799.000000;0.145563
8798.000000;0.145380
8797.000000;0.145396
8796.000000;0.145347
8795.000000;0.144996
8794.000000;0.144362
8793.000000;0.143701
8792.000000;0.143306
8791.000000;0.143304
8790.000000;0.143565
8789.000000;0.143794
8788.000000;0.143777
8787.000000;0.143563
8786.000000;0.143399
8785.000000;0.143472
8784.000000;0.143718
8783.000000;0.143905
8782.000000;0.143863
8781.000000;0.143632
8780.000000;0.143391
8779.000000;0.143285
8778.000000;0.143310
8777.000000;0.143341
8776.000000;0.143235
8775.000000;0.142934
8774.000000;0.142519
8773.000000;0.142185
8772.000000;0.142112
8771.000000;0.142282
8770.000000;0.142461
8769.000000;0.142429
8768.000000;0.142238
8767.000000;0.142165
8766.000000;0.142360
8765.000000;0.142619
8764.000000;0.142591
8763.000000;0.142173
8762.000000;0.141622
8761.000000;0.141258
8760.000000;0.141159
8759.000000;0.141173
8758.000000;0.141147
8757.000000;0.141060
8756.000000;0.140959
8755.000000;0.140863
8754.000000;0.140753
8753.000000;0.140602
8752.000000;0.140386
8751.000000;0.140112
8750.000000;0.139867
8749.000000;0.139778
8748.000000;0.139871
8747.000000;0.140004
8746.000000;0.140001
8745.000000;0.139830
8744.000000;0.139605
8743.000000;0.139447
8742.000000;0.139410
8741.000000;0.139530
8740.000000;0.139793
8739.000000;0.140038
8738.000000;0.140002
8737.000000;0.139553
8736.000000;0.138865
8735.000000;0.138259
8734.000000;0.137927
8733.000000;0.137827
8732.000000;0.137812
8731.000000;0.137788
8730.000000;0.137748
8729.000000;0.137738
8728.000000;0.137784
8727.000000;0.137832
8726.000000;0.137771
8725.000000;0.137555
8724.000000;0.137267
8723.000000;0.137033
8722.000000;0.136884
8721.000000;0.136754
8720.000000;0.136573
8719.000000;0.136312
8718.000000;0.135962
8717.000000;0.135550
8716.000000;0.135146
8715.000000;0.134812
8714.000000;0.134525
8713.000000;0.134214
8712.000000;0.133859
8711.000000;0.133526
8710.000000;0.133317
8709.000000;0.133328
8708.000000;0.133596
8707.000000;0.134019
8706.000000;0.134341
8705.000000;0.134336
8704.000000;0.134020
8703.000000;0.133610
8702.000000;0.133286
8701.000000;0.133082
8700.000000;0.132992
8699.000000;0.133045
8698.000000;0.133202
8697.000000;0.133279
8696.000000;0.133093
8695.000000;0.132645
8694.000000;0.132101
8693.000000;0.131613
8692.000000;0.131227
8691.000000;0.130934
8690.000000;0.130737
8689.000000;0.130631
8688.000000;0.130555
8687.000000;0.130409
8686.000000;0.130134
8685.000000;0.129790
8684.000000;0.129505
8683.000000;0.129346
8682.000000;0.129247
8681.000000;0.129109
8680.000000;0.128944
8679.000000;0.128862
8678.000000;0.128912
8677.000000;0.128989
8676.000000;0.128921
8675.000000;0.128608
8674.000000;0.128101
8673.000000;0.127565
8672.000000;0.127183
8671.000000;0.127012
8670.000000;0.126924
8669.000000;0.126731
8668.000000;0.126377
8667.000000;0.125975
8666.000000;0.125651
8665.000000;0.125444
8664.000000;0.125322
8663.000000;0.125227
8662.000000;0.125075
8661.000000;0.124803
8660.000000;0.124465
8659.000000;0.124200
8658.000000;0.124039
8657.000000;0.123846
8656.000000;0.123507
8655.000000;0.123148
8654.000000;0.123010
8653.000000;0.123163
8652.000000;0.123402
8651.000000;0.123477
8650.000000;0.123321
8649.000000;0.123039
8648.000000;0.122739
8647.000000;0.122452
8646.000000;0.122170
8645.000000;0.121904
8644.000000;0.121653
8643.000000;0.121363
8642.000000;0.120973
8641.000000;0.120522
8640.000000;0.120178
8639.000000;0.120074
8638.000000;0.120141
8637.000000;0.120149
8636.000000;0.119930
8635.000000;0.119524
8634.000000;0.119118
8633.000000;0.118880
8632.000000;0.118859
8631.000000;0.118952
8630.000000;0.118934
8629.000000;0.118611
8628.000000;0.118024
8627.000000;0.117463
8626.000000;0.117194
8625.000000;0.117213
8624.000000;0.117290
8623.000000;0.117222
8622.000000;0.116971
8621.000000;0.116615
8620.000000;0.116262
8619.000000;0.116000
8618.000000;0.115818
8617.000000;0.115551
8616.000000;0.115035
8615.000000;0.114348
8614.000000;0.113813
8613.000000;0.113677
8612.000000;0.113846
8611.000000;0.113996
8610.000000;0.113903
8609.000000;0.113582
8608.000000;0.113158
8607.000000;0.112719
8606.000000;0.112337
8605.000000;0.112093
8604.000000;0.112012
8603.000000;0.111995
8602.000000;0.111895
8601.000000;0.111645
8600.000000;0.111300
8599.000000;0.110958
8598.000000;0.110684
8597.000000;0.110476
8596.000000;0.110274
8595.000000;0.109998
8594.000000;0.109638
8593.000000;0.109294
8592.000000;0.109100
8591.000000;0.109068
8590.000000;0.109080
8589.000000;0.109026
8588.000000;0.108899
8587.000000;0.108717
8586.000000;0.108440
8585.000000;0.108027
8584.000000;0.107535
8583.000000;0.107064
8582.000000;0.106613
8581.000000;0.106091
8580.000000;0.105486
8579.000000;0.104941
8578.000000;0.104607
8577.000000;0.104455
8576.000000;0.104305
8575.000000;0.104013
8574.000000;0.103589
8573.000000;0.103147
8572.000000;0.102783
8571.000000;0.102525
8570.000000;0.102346
8569.000000;0.102213
8568.000000;0.102120
8567.000000;0.102094
8566.000000;0.102156
8565.000000;0.102248
8564.000000;0.102214
8563.000000;0.101915
8562.000000;0.101384
8561.000000;0.100857
8560.000000;0.100560
8559.000000;0.100487
8558.000000;0.100388
8557.000000;0.100024
8556.000000;0.099419
8555.000000;0.098836
8554.000000;0.098527
8553.000000;0.098522
8552.000000;0.098631
8551.000000;0.098629
8550.000000;0.098416
8549.000000;0.098051
8548.000000;0.097643
8547.000000;0.097253
8546.000000;0.096871
8545.000000;0.096489
8544.000000;0.096141
8543.000000;0.095890
8542.000000;0.095769
8541.000000;0.095745
8540.000000;0.095727
8539.000000;0.095604
8538.000000;0.095318
8537.000000;0.094920
8536.000000;0.094535
8535.000000;0.094277
8534.000000;0.094160
8533.000000;0.094089
8532.000000;0.093930
8531.000000;0.093617
8530.000000;0.093214
8529.000000;0.092842
8528.000000;0.092550
8527.000000;0.092273
8526.000000;0.091946
8525.000000;0.091601
8524.000000;0.091302
8523.000000;0.091064
8522.000000;0.090895
8521.000000;0.090849
8520.000000;0.090897
8519.000000;0.090809
8518.000000;0.090368
8517.000000;0.089704
8516.000000;0.089213
8515.000000;0.089068
8514.000000;0.088990
8513.000000;0.088633
8512.000000;0.088024
8511.000000;0.087462
8510.000000;0.087092
8509.000000;0.086820
8508.000000;0.086562
8507.000000;0.086358
8506.000000;0.086217
8505.000000;0.086027
8504.000000;0.085704
8503.000000;0.085329
8502.000000;0.085060
8501.000000;0.084991
8500.000000;0.085089
8499.000000;0.085205
8498.000000;0.085152
8497.000000;0.084867
8496.000000;0.084489
8495.000000;0.084192
8494.000000;0.083955
8493.000000;0.083591
8492.000000;0.083010
8491.000000;0.082322
8490.000000;0.081674
8489.000000;0.081121
8488.000000;0.080706
8487.000000;0.080512
8486.000000;0.080548
8485.000000;0.080665
8484.000000;0.080682
8483.000000;0.080548
8482.000000;0.080316
8481.000000;0.080026
8480.000000;0.079684
8479.000000;0.079313
8478.000000;0.078951
8477.000000;0.078631
8476.000000;0.078371
8475.000000;0.078159
8474.000000;0.077928
8473.000000;0.077611
8472.000000;0.077243
8471.000000;0.076923
8470.000000;0.076657
8469.000000;0.076335
8468.000000;0.075916
8467.000000;0.075527
8466.000000;0.075291
8465.000000;0.075136
8464.000000;0.074916
8463.000000;0.074647
8462.000000;0.074476
8461.000000;0.074413
8460.000000;0.074259
8459.000000;0.073845
8458.000000;0.073256
8457.000000;0.072735
8456.000000;0.072428
8455.000000;0.072309
8454.000000;0.072284
8453.000000;0.072298
8452.000000;0.072311
8451.000000;0.072248
8450.000000;0.072026
8449.000000;0.071640
8448.000000;0.071173
8447.000000;0.070719
8446.000000;0.070323
8445.000000;0.069984
8444.000000;0.069693
8443.000000;0.069424
8442.000000;0.069130
8441.000000;0.068806
8440.000000;0.068535
8439.000000;0.068424
8438.000000;0.068466
8437.000000;0.068508
8436.000000;0.068375
8435.000000;0.067992
8434.000000;0.067413
8433.000000;0.066792
8432.000000;0.066331
8431.000000;0.066174
8430.000000;0.066282
8429.000000;0.066448
8428.000000;0.066454
8427.000000;0.066216
8426.000000;0.065780
8425.000000;0.065243
8424.000000;0.064714
8423.000000;0.064289
8422.000000;0.063992
8421.000000;0.063747
8420.000000;0.063472
8419.000000;0.063189
8418.000000;0.062998
8417.000000;0.062937
8416.000000;0.062906
8415.000000;0.062770
8414.000000;0.062494
8413.000000;0.062184
8412.000000;0.061968
8411.000000;0.061875
8410.000000;0.061810
8409.000000;0.061655
8408.000000;0.061379
8407.000000;0.061037
8406.000000;0.060709
8405.000000;0.060441
8404.000000;0.060230
8403.000000;0.060009
8402.000000;0.059672
8401.000000;0.059161
8400.000000;0.058555
8399.000000;0.058035
8398.000000;0.057726
8397.000000;0.057606
8396.000000;0.057557
8395.000000;0.057469
8394.000000;0.057282
8393.000000;0.056987
8392.000000;0.056626
8391.000000;0.056292
8390.000000;0.056073
8389.000000;0.055983
8388.000000;0.055948
8387.000000;0.055847
8386.000000;0.055593
8385.000000;0.055201
8384.000000;0.054777
8383.000000;0.054440
8382.000000;0.054240
8381.000000;0.054168
8380.000000;0.054191
8379.000000;0.054237
8378.000000;0.054170
8377.000000;0.053879
8376.000000;0.053410
8375.000000;0.052959
8374.000000;0.052681
8373.000000;0.052559
8372.000000;0.052466
8371.000000;0.052317
8370.000000;0.052114
8369.000000;0.051888
8368.000000;0.051645
8367.000000;0.051365
8366.000000;0.051023
8365.000000;0.050609
8364.000000;0.050172
8363.000000;0.049823
8362.000000;0.049656
8361.000000;0.049645
8360.000000;0.049654
8359.000000;0.049556
8358.000000;0.049333
8357.000000;0.049048
8356.000000;0.048751
8355.000000;0.048457
8354.000000;0.048197
8353.000000;0.048037
8352.000000;0.047985
8351.000000;0.047906
8350.000000;0.047630
8349.000000;0.047167
8348.000000;0.046751
8347.000000;0.046602
8346.000000;0.046690
8345.000000;0.046792
8344.000000;0.046735
8343.000000;0.046505
8342.000000;0.046163
8341.000000;0.045762
8340.000000;0.045371
8339.000000;0.045068
8338.000000;0.044862
8337.000000;0.044677
8336.000000;0.044464
8335.000000;0.044264
8334.000000;0.044118
8333.000000;0.043986
8332.000000;0.043806
8331.000000;0.043612
8330.000000;0.043507
8329.000000;0.043522
8328.000000;0.043537
8327.000000;0.043385
8326.000000;0.043007
8325.000000;0.042491
8324.000000;0.041979
8323.000000;0.041540
8322.000000;0.041188
8321.000000;0.040960
8320.000000;0.040926
8319.000000;0.041070
8318.000000;0.041235
8317.000000;0.041249
8316.000000;0.041077
8315.000000;0.040806
8314.000000;0.040503
8313.000000;0.040188
8312.000000;0.039912
8311.000000;0.039752
8310.000000;0.039702
8309.000000;0.039644
8308.000000;0.039482
8307.000000;0.039233
8306.000000;0.038956
8305.000000;0.038650
8304.000000;0.038279
8303.000000;0.037863
8302.000000;0.037482
8301.000000;0.037216
8300.000000;0.037099
8299.000000;0.037109
8298.000000;0.037174
8297.000000;0.037207
8296.000000;0.037146
8295.000000;0.036980
8294.000000;0.036732
8293.000000;0.036459
8292.000000;0.036235
8291.000000;0.036090
8290.000000;0.035952
8289.000000;0.035719
8288.000000;0.035400
8287.000000;0.035115
8286.000000;0.034961
8285.000000;0.034913
8284.000000;0.034882
8283.000000;0.034815
8282.000000;0.034705
8281.000000;0.034559
8280.000000;0.034388
8279.000000;0.034184
8278.000000;0.033909
8277.000000;0.033556
8276.000000;0.033219
8275.000000;0.033027
8274.000000;0.032994
8273.000000;0.033014
8272.000000;0.033016
8271.000000;0.033040
8270.000000;0.033123
8269.000000;0.033195
8268.000000;0.033144
8267.000000;0.032918
8266.000000;0.032526
8265.000000;0.032023
8264.000000;0.031551
8263.000000;0.031282
8262.000000;0.031242
8261.000000;0.031254
8260.000000;0.031153
8259.000000;0.030982
8258.000000;0.030901
8257.000000;0.030945
8256.000000;0.030994
8255.000000;0.030938
8254.000000;0.030750
8253.000000;0.030449
8252.000000;0.030093
8251.000000;0.029799
8250.000000;0.029666
8249.000000;0.029638
8248.000000;0.029558
8247.000000;0.029355
8246.000000;0.029107
8245.000000;0.028920
8244.000000;0.028814
8243.000000;0.028763
8242.000000;0.028758
8241.000000;0.028781
8240.000000;0.028775
8239.000000;0.028691
8238.000000;0.028521
8237.000000;0.028286
8236.000000;0.028014
8235.000000;0.027754
8234.000000;0.027551
8233.000000;0.027400
8232.000000;0.027256
8231.000000;0.027095
8230.000000;0.026932
8229.000000;0.026760
8228.000000;0.026519
8227.000000;0.026180
8226.000000;0.025815
8225.000000;0.025559
8224.000000;0.025495
8223.000000;0.025588
8222.000000;0.025718
8221.000000;0.025783
8220.000000;0.025782
8219.000000;0.025784
8218.000000;0.025830
8217.000000;0.025871
8216.000000;0.025839
8215.000000;0.025737
8214.000000;0.025624
8213.000000;0.025521
8212.000000;0.025395
8211.000000;0.025231
8210.000000;0.025060
8209.000000;0.024926
8208.000000;0.024839
8207.000000;0.024774
8206.000000;0.024682
8205.000000;0.024516
8204.000000;0.024265
8203.000000;0.023975
8202.000000;0.023701
8201.000000;0.023457
8200.000000;0.023244
8199.000000;0.023103
8198.000000;0.023064
8197.000000;0.023075
8196.000000;0.023041
8195.000000;0.022959
8194.000000;0.022920
8193.000000;0.022957
8192.000000;0.022959
8191.000000;0.022792
8190.000000;0.022481
8189.000000;0.022210
8188.000000;0.022131
8187.000000;0.022215
8186.000000;0.022271
8185.000000;0.022130
8184.000000;0.021807
8183.000000;0.021480
8182.000000;0.021308
8181.000000;0.021281
8180.000000;0.021284
8179.000000;0.021269
8178.000000;0.021292
8177.000000;0.021391
8176.000000;0.021495
8175.000000;0.021501
8174.000000;0.021383
8173.000000;0.021179
8172.000000;0.020933
8171.000000;0.020689
8170.000000;0.020528
8169.000000;0.020514
8168.000000;0.020607
8167.000000;0.020675
8166.000000;0.020621
8165.000000;0.020468
8164.000000;0.020310
8163.000000;0.020191
8162.000000;0.020058
8161.000000;0.019828
8160.000000;0.019501
8159.000000;0.019192
8158.000000;0.019040
8157.000000;0.019087
8156.000000;0.019247
8155.000000;0.019394
8154.000000;0.019449
8153.000000;0.019393
8152.000000;0.019241
8151.000000;0.019027
8150.000000;0.018799
8149.000000;0.018601
8148.000000;0.018470
8147.000000;0.018429
8146.000000;0.018469
8145.000000;0.018526
8144.000000;0.018509
8143.000000;0.018390
8142.000000;0.018238
8141.000000;0.018143
8140.000000;0.018146
8139.000000;0.018236
8138.000000;0.018382
8137.000000;0.018515
8136.000000;0.018540
8135.000000;0.018429
8134.000000;0.018299
8133.000000;0.018299
8132.000000;0.018435
8131.000000;0.018535
8130.000000;0.018446
8129.000000;0.018205
8128.000000;0.017985
8127.000000;0.017908
8126.000000;0.017945
8125.000000;0.017992
8124.000000;0.017982
8123.000000;0.017913
8122.000000;0.017794
8121.000000;0.017624
8120.000000;0.017423
8119.000000;0.017265
8118.000000;0.017228
8117.000000;0.017283
8116.000000;0.017298
8115.000000;0.017166
8114.000000;0.016940
8113.000000;0.016767
8112.000000;0.016716
8111.000000;0.016729
8110.000000;0.016726
8109.000000;0.016702
8108.000000;0.016683
8107.000000;0.016644
8106.000000;0.016550
8105.000000;0.016428
8104.000000;0.016342
8103.000000;0.016308
8102.000000;0.016289
8101.000000;0.016268
8100.000000;0.016263
8099.000000;0.016280
8098.000000;0.016280
8097.000000;0.016231
8096.000000;0.016155
8095.000000;0.016096
8094.000000;0.016074
8093.000000;0.016076
8092.000000;0.016079
8091.000000;0.016058
8090.000000;0.015996
8089.000000;0.015897
8088.000000;0.015798
8087.000000;0.015746
8086.000000;0.015774
8085.000000;0.015886
8084.000000;0.016035
8083.000000;0.016135
8082.000000;0.016124
8081.000000;0.016045
8080.000000;0.016016
8079.000000;0.016096
8078.000000;0.016210
8077.000000;0.016236
8076.000000;0.016135
8075.000000;0.015957
8074.000000;0.015762
8073.000000;0.015577
8072.000000;0.015432
8071.000000;0.015374
8070.000000;0.015420
8069.000000;0.015502
8068.000000;0.015508
8067.000000;0.015382
8066.000000;0.015184
8065.000000;0.015055
8064.000000;0.015096
8063.000000;0.015274
8062.000000;0.015458
8061.000000;0.015538
8060.000000;0.015509
8059.000000;0.015427
8058.000000;0.015344
8057.000000;0.015292
8056.000000;0.015290
8055.000000;0.015318
8054.000000;0.015303
8053.000000;0.015188
8052.000000;0.015020
8051.000000;0.014922
8050.000000;0.014980
8049.000000;0.015176
8048.000000;0.015410
8047.000000;0.015565
8046.000000;0.015549
8045.000000;0.015338
8044.000000;0.015005
8043.000000;0.014694
8042.000000;0.014519
8041.000000;0.014499
8040.000000;0.014563
8039.000000;0.014620
8038.000000;0.014607
8037.000000;0.014526
8036.000000;0.014444
8035.000000;0.014437
8034.000000;0.014506
8033.000000;0.014565
8032.000000;0.014534
8031.000000;0.014432
8030.000000;0.014353
8029.000000;0.014349
8028.000000;0.014379
8027.000000;0.014373
8026.000000;0.014306
8025.000000;0.014201
8024.000000;0.014071
8023.000000;0.013917
8022.000000;0.013768
8021.000000;0.013693
8020.000000;0.013741
8019.000000;0.013887
8018.000000;0.014056
8017.000000;0.014182
8016.000000;0.014236
8015.000000;0.014218
8014.000000;0.014168
8013.000000;0.014141
8012.000000;0.014163
8011.000000;0.014194
8010.000000;0.014183
8009.000000;0.014141
8008.000000;0.014120
8007.000000;0.014121
8006.000000;0.014088
8005.000000;0.013992
8004.000000;0.013859
8003.000000;0.013715
8002.000000;0.013557
8001.000000;0.013415
8000.000000;0.013383
7999.000000;0.013516
7998.000000;0.013744
7997.000000;0.013940
7996.000000;0.014044
7995.000000;0.014084
7994.000000;0.014088
7993.000000;0.014046
7992.000000;0.013954
7991.000000;0.013830
7990.000000;0.013702
7989.000000;0.013590
7988.000000;0.013514
7987.000000;0.013471
7986.000000;0.013426
7985.000000;0.013353
7984.000000;0.013276
7983.000000;0.013239
7982.000000;0.013250
7981.000000;0.013309
7980.000000;0.013433
7979.000000;0.013612
7978.000000;0.013753
7977.000000;0.013752
7976.000000;0.013618
7975.000000;0.013452
7974.000000;0.013313
7973.000000;0.013170
7972.000000;0.013010
7971.000000;0.012919
7970.000000;0.013010
7969.000000;0.013286
7968.000000;0.013623
7967.000000;0.013873
7966.000000;0.013971
7965.000000;0.013978
7964.000000;0.014002
7963.000000;0.014070
7962.000000;0.014076
7961.000000;0.013906
7960.000000;0.013599
7959.000000;0.013335
7958.000000;0.013239
7957.000000;0.013250
7956.000000;0.013217
7955.000000;0.013081
7954.000000;0.012926
7953.000000;0.012872
7952.000000;0.012952
7951.000000;0.013089
7950.000000;0.013189
7949.000000;0.013239
7948.000000;0.013299
7947.000000;0.013379
7946.000000;0.013374
7945.000000;0.013181
7944.000000;0.012858
7943.000000;0.012612
7942.000000;0.012592
7941.000000;0.012757
7940.000000;0.012962
7939.000000;0.013107
7938.000000;0.013182
7937.000000;0.013211
7936.000000;0.013198
7935.000000;0.013127
7934.000000;0.012988
7933.000000;0.012819
7932.000000;0.012707
7931.000000;0.012718
7930.000000;0.012817
7929.000000;0.012906
7928.000000;0.012938
7927.000000;0.012966
7926.000000;0.013056
7925.000000;0.013187
7924.000000;0.013287
7923.000000;0.013303
7922.000000;0.013241
7921.000000;0.013147
7920.000000;0.013082
7919.000000;0.013082
7918.000000;0.013123
7917.000000;0.013146
7916.000000;0.013132
7915.000000;0.013108
7914.000000;0.013072
7913.000000;0.012988
7912.000000;0.012864
7911.000000;0.012783
7910.000000;0.012797
7909.000000;0.012854
7908.000000;0.012881
7907.000000;0.012890
7906.000000;0.012944
7905.000000;0.013040
7904.000000;0.013103
7903.000000;0.013081
7902.000000;0.012989
7901.000000;0.012854
7900.000000;0.012673
7899.000000;0.012450
7898.000000;0.012246
7897.000000;0.012153
7896.000000;0.012235
7895.000000;0.012478
7894.000000;0.012796
7893.000000;0.013075
7892.000000;0.013224
7891.000000;0.013193
7890.000000;0.012995
7889.000000;0.012734
7888.000000;0.012574
7887.000000;0.012602
7886.000000;0.012733
7885.000000;0.012783
7884.000000;0.012692
7883.000000;0.012574
7882.000000;0.012552
7881.000000;0.012602
7880.000000;0.012632
7879.000000;0.012651
7878.000000;0.012754
7877.000000;0.012961
7876.000000;0.013153
7875.000000;0.013200
7874.000000;0.013087
7873.000000;0.012902
7872.000000;0.012733
7871.000000;0.012609
7870.000000;0.012515
7869.000000;0.012450
7868.000000;0.012447
7867.000000;0.012549
7866.000000;0.012731
7865.000000;0.012901
7864.000000;0.012981
7863.000000;0.013003
7862.000000;0.013058
7861.000000;0.013179
7860.000000;0.013297
7859.000000;0.013316
7858.000000;0.013209
7857.000000;0.013027
7856.000000;0.012852
7855.000000;0.012738
7854.000000;0.012691
7853.000000;0.012699
7852.000000;0.012744
7851.000000;0.012792
7850.000000;0.012771
7849.000000;0.012623
7848.000000;0.012401
7847.000000;0.012261
7846.000000;0.012311
7845.000000;0.012491
7844.000000;0.012646
7843.000000;0.012684
7842.000000;0.012634
7841.000000;0.012573
7840.000000;0.012561
7839.000000;0.012630
7838.000000;0.012763
7837.000000;0.012876
7836.000000;0.012875
7835.000000;0.012762
7834.000000;0.012640
7833.000000;0.012595
7832.000000;0.012615
7831.000000;0.012647
7830.000000;0.012678
7829.000000;0.012720
7828.000000;0.012748
7827.000000;0.012705
7826.000000;0.012567
7825.000000;0.012383
7824.000000;0.012243
7823.000000;0.012226
7822.000000;0.012349
7821.000000;0.012544
7820.000000;0.012695
7819.000000;0.012720
7818.000000;0.012638
7817.000000;0.012529
7816.000000;0.012449
7815.000000;0.012396
7814.000000;0.012358
7813.000000;0.012342
7812.000000;0.012353
7811.000000;0.012368
7810.000000;0.012375
7809.000000;0.012407
7808.000000;0.012494
7807.000000;0.012592
7806.000000;0.012608
7805.000000;0.012520
7804.000000;0.012422
7803.000000;0.012418
7802.000000;0.012501
7801.000000;0.012573
7800.000000;0.012571
7799.000000;0.012527
7798.000000;0.012507
7797.000000;0.012553
7796.000000;0.012657
7795.000000;0.012764
7794.000000;0.012779
7793.000000;0.012645
7792.000000;0.012422
7791.000000;0.012246
7790.000000;0.012194
7789.000000;0.012234
7788.000000;0.012295
7787.000000;0.012354
7786.000000;0.012403
7785.000000;0.012421
7784.000000;0.012421
7783.000000;0.012471
7782.000000;0.012604
7781.000000;0.012736
7780.000000;0.012737
7779.000000;0.012581
7778.000000;0.012376
7777.000000;0.012246
7776.000000;0.012230
7775.000000;0.012300
7774.000000;0.012416
7773.000000;0.012537
7772.000000;0.012606
7771.000000;0.012567
7770.000000;0.012419
7769.000000;0.012237
7768.000000;0.012137
7767.000000;0.012184
7766.000000;0.012333
7765.000000;0.012479
7764.000000;0.012552
7763.000000;0.012567
7762.000000;0.012557
7761.000000;0.012529
7760.000000;0.012483
7759.000000;0.012450
7758.000000;0.012458
7757.000000;0.012497
7756.000000;0.012560
7755.000000;0.012658
7754.000000;0.012773
7753.000000;0.012818
7752.000000;0.012720
7751.000000;0.012534
7750.000000;0.012410
7749.000000;0.012425
7748.000000;0.012512
7747.000000;0.012556
7746.000000;0.012524
7745.000000;0.012481
7744.000000;0.012490
7743.000000;0.012540
7742.000000;0.012546
7741.000000;0.012428
7740.000000;0.012213
7739.000000;0.012036
7738.000000;0.012022
7737.000000;0.012158
7736.000000;0.012300
7735.000000;0.012323
7734.000000;0.012238
7733.000000;0.012162
7732.000000;0.012198
7731.000000;0.012342
7730.000000;0.012486
7729.000000;0.012526
7728.000000;0.012468
7727.000000;0.012429
7726.000000;0.012498
7725.000000;0.012635
7724.000000;0.012711
7723.000000;0.012661
7722.000000;0.012536
7721.000000;0.012433
7720.000000;0.012407
7719.000000;0.012452
7718.000000;0.012531
7717.000000;0.012582
7716.000000;0.012549
7715.000000;0.012427
7714.000000;0.012270
7713.000000;0.012141
7712.000000;0.012070
7711.000000;0.012052
7710.000000;0.012063
7709.000000;0.012085
7708.000000;0.012126
7707.000000;0.012226
7706.000000;0.012405
7705.000000;0.012594
7704.000000;0.012667
7703.000000;0.012562
7702.000000;0.012361
7701.000000;0.012209
7700.000000;0.012186
7699.000000;0.012252
7698.000000;0.012312
7697.000000;0.012302
7696.000000;0.012227
7695.000000;0.012150
7694.000000;0.012133
7693.000000;0.012190
7692.000000;0.012272
7691.000000;0.012319
7690.000000;0.012311
7689.000000;0.012278
7688.000000;0.012265
7687.000000;0.012283
7686.000000;0.012291
7685.000000;0.012234
7684.000000;0.012116
7683.000000;0.012027
7682.000000;0.012066
7681.000000;0.012233
7680.000000;0.012418
7679.000000;0.012512
7678.000000;0.012519
7677.000000;0.012526
7676.000000;0.012592
7675.000000;0.012679
7674.000000;0.012700
7673.000000;0.012606
7672.000000;0.012424
7671.000000;0.012221
7670.000000;0.012058
7669.000000;0.011978
7668.000000;0.011998
7667.000000;0.012098
7666.000000;0.012220
7665.000000;0.012301
7664.000000;0.012326
7663.000000;0.012330
7662.000000;0.012343
7661.000000;0.012344
7660.000000;0.012292
7659.000000;0.012184
7658.000000;0.012058
7657.000000;0.011956
7656.000000;0.011900
7655.000000;0.011884
7654.000000;0.011882
7653.000000;0.011876
7652.000000;0.011877
7651.000000;0.011933
7650.000000;0.012085
7649.000000;0.012323
7648.000000;0.012572
7647.000000;0.012736
7646.000000;0.012756
7645.000000;0.012647
7644.000000;0.012488
7643.000000;0.012365
7642.000000;0.012305
7641.000000;0.012285
7640.000000;0.012291
7639.000000;0.012336
7638.000000;0.012408
7637.000000;0.012439
7636.000000;0.012369
7635.000000;0.012212
7634.000000;0.012038
7633.000000;0.011915
7632.000000;0.011891
7631.000000;0.011994
7630.000000;0.012186
7629.000000;0.012354
7628.000000;0.012390
7627.000000;0.012306
7626.000000;0.012213
7625.000000;0.012199
7624.000000;0.012253
7623.000000;0.012312
7622.000000;0.012336
7621.000000;0.012328
7620.000000;0.012303
7619.000000;0.012283
7618.000000;0.012281
7617.000000;0.012292
7616.000000;0.012304
7615.000000;0.012310
7614.000000;0.012313
7613.000000;0.012316
7612.000000;0.012327
7611.000000;0.012364
7610.000000;0.012427
7609.000000;0.012477
7608.000000;0.012481
7607.000000;0.012454
7606.000000;0.012425
7605.000000;0.012376
7604.000000;0.012260
7603.000000;0.012098
7602.000000;0.011990
7601.000000;0.012019
7600.000000;0.012172
7599.000000;0.012357
7598.000000;0.012475
7597.000000;0.012462
7596.000000;0.012319
7595.000000;0.012132
7594.000000;0.012014
7593.000000;0.012005
7592.000000;0.012046
7591.000000;0.012072
7590.000000;0.012093
7589.000000;0.012155
7588.000000;0.012256
7587.000000;0.012346
7586.000000;0.012394
7585.000000;0.012405
7584.000000;0.012385
7583.000000;0.012326
7582.000000;0.012236
7581.000000;0.012167
7580.000000;0.012168
7579.000000;0.012227
7578.000000;0.012279
7577.000000;0.012265
7576.000000;0.012190
7575.000000;0.012108
7574.000000;0.012065
7573.000000;0.012080
7572.000000;0.012151
7571.000000;0.012261
7570.000000;0.012374
7569.000000;0.012439
7568.000000;0.012441
7567.000000;0.012421
7566.000000;0.012436
7565.000000;0.012490
7564.000000;0.012527
7563.000000;0.012478
7562.000000;0.012327
7561.000000;0.012135
7560.000000;0.012004
7559.000000;0.012002
7558.000000;0.012104
7557.000000;0.012216
7556.000000;0.012275
7555.000000;0.012289
7554.000000;0.012297
7553.000000;0.012300
7552.000000;0.012281
7551.000000;0.012251
7550.000000;0.012238
7549.000000;0.012247
7548.000000;0.012250
7547.000000;0.012226
7546.000000;0.012169
7545.000000;0.012092
7544.000000;0.012018
7543.000000;0.011966
7542.000000;0.011924
7541.000000;0.011862
7540.000000;0.011780
7539.000000;0.011715
7538.000000;0.011684
7537.000000;0.011658
7536.000000;0.011628
7535.000000;0.011649
7534.000000;0.011765
7533.000000;0.011927
7532.000000;0.012039
7531.000000;0.012078
7530.000000;0.012080
7529.000000;0.012062
7528.000000;0.012001
7527.000000;0.011901
7526.000000;0.011804
7525.000000;0.011734
7524.000000;0.011686
7523.000000;0.011666
7522.000000;0.011695
7521.000000;0.011768
7520.000000;0.011859
7519.000000;0.011950
7518.000000;0.012021
7517.000000;0.012027
7516.000000;0.011942
7515.000000;0.011821
7514.000000;0.011757
7513.000000;0.011775
7512.000000;0.011827
7511.000000;0.011874
7510.000000;0.011921
7509.000000;0.011952
7508.000000;0.011926
7507.000000;0.011852
7506.000000;0.011802
7505.000000;0.011819
7504.000000;0.011877
7503.000000;0.011936
7502.000000;0.011982
7501.000000;0.012004
7500.000000;0.011972
7499.000000;0.011890
7498.000000;0.011808
7497.000000;0.011773
7496.000000;0.011783
7495.000000;0.011815
7494.000000;0.011845
7493.000000;0.011836
7492.000000;0.011777
7491.000000;0.011702
7490.000000;0.011767
7489.000000;0.011786
7488.000000;0.011784
7487.000000;0.011757
7486.000000;0.011749
7485.000000;0.011775
7484.000000;0.011770
7483.000000;0.011692
7482.000000;0.011586
7481.000000;0.011529
7480.000000;0.011539
7479.000000;0.011594
7478.000000;0.011682
7477.000000;0.011786
7476.000000;0.011871
7475.000000;0.011914
7474.000000;0.011924
7473.000000;0.011908
7472.000000;0.011855
7471.000000;0.011771
7470.000000;0.011683
7469.000000;0.011590
7468.000000;0.011477
7467.000000;0.011389
7466.000000;0.011417
7465.000000;0.011571
7464.000000;0.011722
7463.000000;0.011735
7462.000000;0.011618
7461.000000;0.011496
7460.000000;0.011473
7459.000000;0.011547
7458.000000;0.011636
7457.000000;0.011658
7456.000000;0.011600
7455.000000;0.011511
7454.000000;0.011437
7453.000000;0.011380
7452.000000;0.011339
7451.000000;0.011355
7450.000000;0.011442
7449.000000;0.011522
7448.000000;0.011500
7447.000000;0.011389
7446.000000;0.011289
7445.000000;0.011243
7444.000000;0.011213
7443.000000;0.011192
7442.000000;0.011241
7441.000000;0.011387
7440.000000;0.011570
7439.000000;0.011733
7438.000000;0.011875
7437.000000;0.011997
7436.000000;0.012056
7435.000000;0.012028
7434.000000;0.011943
7433.000000;0.011831
7432.000000;0.011714
7431.000000;0.011655
7430.000000;0.011721
7429.000000;0.011868
7428.000000;0.011967
7427.000000;0.011953
7426.000000;0.011866
7425.000000;0.011736
7424.000000;0.011579
7423.000000;0.011519
7422.000000;0.011749
7421.000000;0.012284
7420.000000;0.012848
7419.000000;0.013126
7418.000000;0.013116
7417.000000;0.013092
7416.000000;0.013264
7415.000000;0.013566
7414.000000;0.013771
7413.000000;0.013714
7412.000000;0.013416
7411.000000;0.013052
7410.000000;0.012830
7409.000000;0.012860
7408.000000;0.013129
7407.000000;0.013556
7406.000000;0.013974
7405.000000;0.014142
7404.000000;0.013964
7403.000000;0.013700
7402.000000;0.013763
7401.000000;0.014246
7400.000000;0.014784
7399.000000;0.014942
7398.000000;0.014675
7397.000000;0.014332
7396.000000;0.014338
7395.000000;0.014877
7394.000000;0.015675
7393.000000;0.016160
7392.000000;0.016100
7391.000000;0.015901
7390.000000;0.016023
7389.000000;0.016393
7388.000000;0.016722
7387.000000;0.017120
7386.000000;0.017917
7385.000000;0.019005
7384.000000;0.019919
7383.000000;0.020554
7382.000000;0.021200
7381.000000;0.021831
7380.000000;0.022056
7379.000000;0.022033
7378.000000;0.022736
7377.000000;0.024694
7376.000000;0.026788
7375.000000;0.027150
7374.000000;0.025395
7373.000000;0.023325
7372.000000;0.023106
7371.000000;0.025046
7370.000000;0.027382
7369.000000;0.027995
7368.000000;0.026288
7367.000000;0.023692
7366.000000;0.022396
7365.000000;0.023292
7364.000000;0.025225
7363.000000;0.026318
7362.000000;0.025689
7361.000000;0.023795
7360.000000;0.021812
7359.000000;0.021012
7358.000000;0.022218
7357.000000;0.025069
7356.000000;0.027657
7355.000000;0.027839
7354.000000;0.025541
7353.000000;0.023195
7352.000000;0.023301
7351.000000;0.025980
7350.000000;0.029180
7349.000000;0.030633
7348.000000;0.029645
7347.000000;0.027609
7346.000000;0.027059
7345.000000;0.029426
7344.000000;0.033553
7343.000000;0.037041
7342.000000;0.039085
7341.000000;0.040926
7340.000000;0.043245
7339.000000;0.044796
7338.000000;0.044402
7337.000000;0.043030
7336.000000;0.042431
7335.000000;0.042531
7334.000000;0.041518
7333.000000;0.038364
7332.000000;0.034277
7331.000000;0.031414
7330.000000;0.031015
7329.000000;0.032566
7328.000000;0.033920
7327.000000;0.032937
7326.000000;0.030190
7325.000000;0.028991
7324.000000;0.031382
7323.000000;0.035166
7322.000000;0.036441
7321.000000;0.034404
7320.000000;0.031835
7319.000000;0.031240
7318.000000;0.032125
7317.000000;0.032276
7316.000000;0.030404
7315.000000;0.027150
7314.000000;0.024277
7313.000000;0.023167
7312.000000;0.023645
7311.000000;0.024174
7310.000000;0.023824
7309.000000;0.023883
7308.000000;0.026090
7307.000000;0.029486
7306.000000;0.030981
7305.000000;0.029497
7304.000000;0.027682
7303.000000;0.028550
7302.000000;0.031842
7301.000000;0.034619
7300.000000;0.034465
7299.000000;0.031456
7298.000000;0.027887
7297.000000;0.026639
7296.000000;0.029061
7295.000000;0.033312
7294.000000;0.035342
7293.000000;0.032928
7292.000000;0.028523
7291.000000;0.026823
7290.000000;0.029621
7289.000000;0.033680
7288.000000;0.035276
7287.000000;0.032311
7286.000000;0.028535
7285.000000;0.023442
7284.000000;0.011258
7283.000000;0.012217
7282.000000;0.011871
7281.000000;0.012340
7280.000000;0.011854
7279.000000;0.012296
7278.000000;0.015598
7277.000000;0.015442
7276.000000;0.015972
7275.000000;0.016146
7274.000000;0.016316
7273.000000;0.016239
7272.000000;0.016065
7271.000000;0.015924
7270.000000;0.016030
7269.000000;0.016408
7268.000000;0.016773
7267.000000;0.016713
7266.000000;0.016240
7265.000000;0.016040
7264.000000;0.016798
7263.000000;0.018246
7262.000000;0.019219
7261.000000;0.018885
7260.000000;0.017703
7259.000000;0.016850
7258.000000;0.016925
7257.000000;0.017574
7256.000000;0.018235
7255.000000;0.018820
7254.000000;0.019489
7253.000000;0.020067
7252.000000;0.020163
7251.000000;0.019783
7250.000000;0.019454
7249.000000;0.019562
7248.000000;0.019907
7247.000000;0.020219
7246.000000;0.020915
7245.000000;0.023048
7244.000000;0.027002
7243.000000;0.031194
7242.000000;0.033232
7241.000000;0.032793
7240.000000;0.032308
7239.000000;0.034006
7238.000000;0.037097
7237.000000;0.038791
7236.000000;0.037954
7235.000000;0.036763
7234.000000;0.038145
7233.000000;0.042018
7232.000000;0.044992
7231.000000;0.044176
7230.000000;0.040665
7229.000000;0.038362
7228.000000;0.039576
7227.000000;0.042522
7226.000000;0.043262
7225.000000;0.040184
7224.000000;0.035814
7223.000000;0.033720
7222.000000;0.034727
7221.000000;0.036573
7220.000000;0.036428
7219.000000;0.033437
7218.000000;0.029359
7217.000000;0.026897
7216.000000;0.027134
7215.000000;0.028589
7214.000000;0.028925
7213.000000;0.027355
7212.000000;0.025085
7211.000000;0.023670
7210.000000;0.023481
7209.000000;0.023808
7208.000000;0.024012
7207.000000;0.024161
7206.000000;0.024508
7205.000000;0.024907
7204.000000;0.024962
7203.000000;0.024571
7202.000000;0.024185
7201.000000;0.024427
7200.000000;0.025263
7199.000000;0.025778
7198.000000;0.025138
7197.000000;0.023653
7196.000000;0.022410
7195.000000;0.021924
7194.000000;0.021663
7193.000000;0.020951
7192.000000;0.019872
7191.000000;0.018933
7190.000000;0.018232
7189.000000;0.017463
7188.000000;0.016578
7187.000000;0.015963
7186.000000;0.015959
7185.000000;0.016711
7184.000000;0.018386
7183.000000;0.020952
7182.000000;0.023581
7181.000000;0.024978
7180.000000;0.024957
7179.000000;0.025066
7178.000000;0.026870
7177.000000;0.029870
7176.000000;0.031829
7175.000000;0.031092
7174.000000;0.028269
7173.000000;0.025531
7172.000000;0.024559
7171.000000;0.025311
7170.000000;0.026483
7169.000000;0.026722
7168.000000;0.025669
7167.000000;0.024144
7166.000000;0.023337
7165.000000;0.023871
7164.000000;0.025653
7163.000000;0.028358
7162.000000;0.031324
7161.000000;0.033210
7160.000000;0.033048
7159.000000;0.031790
7158.000000;0.031630
7157.000000;0.033286
7156.000000;0.034847
7155.000000;0.033886
7154.000000;0.030304
7153.000000;0.026321
7152.000000;0.023875
7151.000000;0.022840
7150.000000;0.021907
7149.000000;0.020328
7148.000000;0.018505
7147.000000;0.017389
7146.000000;0.017392
7145.000000;0.017941
7144.000000;0.018299
7143.000000;0.018756
7142.000000;0.020407
7141.000000;0.023638
7140.000000;0.027104
7139.000000;0.028746
7138.000000;0.028132
7137.000000;0.027194
7136.000000;0.028017
7135.000000;0.030234
7134.000000;0.031455
7133.000000;0.030130
7132.000000;0.027238
7131.000000;0.024843
7130.000000;0.023756
7129.000000;0.023122
7128.000000;0.021835
7127.000000;0.019757
7126.000000;0.017555
7125.000000;0.015915
7124.000000;0.015121
7123.000000;0.014952
7122.000000;0.014936
7121.000000;0.015029
7120.000000;0.015940
7119.000000;0.018221
7118.000000;0.021032
7117.000000;0.022604
7116.000000;0.022416
7115.000000;0.022128
7114.000000;0.023592
7113.000000;0.026342
7112.000000;0.027946
7111.000000;0.026868
7110.000000;0.024273
7109.000000;0.022566
7108.000000;0.022752
7107.000000;0.023729
7106.000000;0.023761
7105.000000;0.022151
7104.000000;0.019645
7103.000000;0.017643
7102.000000;0.017029
7101.000000;0.017448
7100.000000;0.017807
7099.000000;0.017596
7098.000000;0.017352
7097.000000;0.017863
7096.000000;0.019145
7095.000000;0.020313
7094.000000;0.020553
7093.000000;0.020115
7092.000000;0.019999
7091.000000;0.020661
7090.000000;0.021396
7089.000000;0.021151
7088.000000;0.019784
7087.000000;0.018217
7086.000000;0.017342
7085.000000;0.017121
7084.000000;0.016888
7083.000000;0.016245
7082.000000;0.015363
7081.000000;0.014508
7080.000000;0.013712
7079.000000;0.013001
7078.000000;0.012606
7077.000000;0.012716
7076.000000;0.013156
7075.000000;0.013521
7074.000000;0.013673
7073.000000;0.013935
7072.000000;0.014571
7071.000000;0.015360
7070.000000;0.015941
7069.000000;0.016333
7068.000000;0.016816
7067.000000;0.017398
7066.000000;0.017686
7065.000000;0.017331
7064.000000;0.016450
7063.000000;0.015501
7062.000000;0.014842
7061.000000;0.014462
7060.000000;0.014087
7059.000000;0.013485
7058.000000;0.012675
7057.000000;0.011899
7056.000000;0.011431
7055.000000;0.011304
7054.000000;0.011269
7053.000000;0.011123
7052.000000;0.010949
7051.000000;0.010980
7050.000000;0.011367
7049.000000;0.012012
7048.000000;0.012580
7047.000000;0.012773
7046.000000;0.012667
7045.000000;0.012664
7044.000000;0.013049
7043.000000;0.013615
7042.000000;0.013847
7041.000000;0.013498
7040.000000;0.012845
7039.000000;0.012329
7038.000000;0.012093
7037.000000;0.011948
7036.000000;0.011696
7035.000000;0.011307
7034.000000;0.010848
7033.000000;0.010418
7032.000000;0.010118
7031.000000;0.009995
7030.000000;0.009992
7029.000000;0.010007
7028.000000;0.009965
7027.000000;0.009870
7026.000000;0.009802
7025.000000;0.009866
7024.000000;0.010094
7023.000000;0.010354
7022.000000;0.010436
7021.000000;0.010303
7020.000000;0.010151
7019.000000;0.010156
7018.000000;0.010238
7017.000000;0.010170
7016.000000;0.009874
7015.000000;0.009511
7014.000000;0.009281
7013.000000;0.009227
7012.000000;0.009236
7011.000000;0.009180
7010.000000;0.009007
7009.000000;0.008762
7008.000000;0.008536
7007.000000;0.008387
7006.000000;0.008298
7005.000000;0.008245
7004.000000;0.008258
7003.000000;0.008347
7002.000000;0.008427
7001.000000;0.008403
7000.000000;0.008302
6999.000000;0.008238
6998.000000;0.008261
6997.000000;0.008312
6996.000000;0.008328
6995.000000;0.008315
6994.000000;0.008276
6993.000000;0.008155
6992.000000;0.007909
6991.000000;0.007607
6990.000000;0.007397
6989.000000;0.007382
6988.000000;0.007526
6987.000000;0.007668
6986.000000;0.007676
6985.000000;0.007575
6984.000000;0.007536
6983.000000;0.007708
6982.000000;0.008022
6981.000000;0.008219
6980.000000;0.008131
6979.000000;0.007871
6978.000000;0.007704
6977.000000;0.007732
6976.000000;0.007802
6975.000000;0.007722
6974.000000;0.007512
6973.000000;0.007361
6972.000000;0.007350
6971.000000;0.007338
6970.000000;0.007190
6969.000000;0.006994
6968.000000;0.006906
6967.000000;0.006883
6966.000000;0.006748
6965.000000;0.006473
6964.000000;0.006233
6963.000000;0.006162
6962.000000;0.006186
6961.000000;0.006143
6960.000000;0.006000
6959.000000;0.005849
6958.000000;0.005770
6957.000000;0.005787
6956.000000;0.005876
6955.000000;0.005941
6954.000000;0.005890
6953.000000;0.005764
6952.000000;0.005706
6951.000000;0.005755
6950.000000;0.005803
6949.000000;0.005772
6948.000000;0.005718
6947.000000;0.005681
6946.000000;0.005590
6945.000000;0.005407
6944.000000;0.005236
6943.000000;0.005165
6942.000000;0.005114
6941.000000;0.004980
6940.000000;0.004852
6939.000000;0.004900
6938.000000;0.005082
6937.000000;0.005149
6936.000000;0.004982
6935.000000;0.004748
6934.000000;0.004667
6933.000000;0.004759
6932.000000;0.004867
6931.000000;0.004835
6930.000000;0.004611
6929.000000;0.004283
6928.000000;0.004022
6927.000000;0.003940
6926.000000;0.003975
6925.000000;0.003967
6924.000000;0.003835
6923.000000;0.003634
6922.000000;0.003471
6921.000000;0.003434
6920.000000;0.003594
6919.000000;0.003983
6918.000000;0.004456
6917.000000;0.004707
6916.000000;0.004584
6915.000000;0.004310
6914.000000;0.004248
6913.000000;0.004480
6912.000000;0.004724
6911.000000;0.004645
6910.000000;0.004203
6909.000000;0.003662
6908.000000;0.003312
6907.000000;0.003212
6906.000000;0.003184
6905.000000;0.003019
6904.000000;0.002674
6903.000000;0.002280
6902.000000;0.001988
6901.000000;0.001847
6900.000000;0.001806
6899.000000;0.001823
6898.000000;0.001903
6897.000000;0.002058
6896.000000;0.002286
6895.000000;0.002556
6894.000000;0.002781
6893.000000;0.002866
6892.000000;0.002812
6891.000000;0.002723
6890.000000;0.002704
6889.000000;0.002754
6888.000000;0.002783
6887.000000;0.002709
6886.000000;0.002513
6885.000000;0.002250
6884.000000;0.002020
6883.000000;0.001887
6882.000000;0.001818
6881.000000;0.001711
6880.000000;0.001512
6879.000000;0.001280
6878.000000;0.001104
6877.000000;0.001002
6876.000000;0.000920
6875.000000;0.000821
6874.000000;0.000732
6873.000000;0.000704
6872.000000;0.000737
6871.000000;0.000743
6870.000000;0.000657
6869.000000;0.000531
6868.000000;0.000486
6867.000000;0.000546
6866.000000;0.000586
6865.000000;0.000500
6864.000000;0.000363
6863.000000;0.000336
6862.000000;0.000447
6861.000000;0.000540
6860.000000;0.000454
6859.000000;0.000191
6858.000000;-0.000105
6857.000000;-0.000299
6856.000000;-0.000369
6855.000000;-0.000402
6854.000000;-0.000495
6853.000000;-0.000649
6852.000000;-0.000764
6851.000000;-0.000745
6850.000000;-0.000610
6849.000000;-0.000472
6848.000000;-0.000442
6847.000000;-0.000519
6846.000000;-0.000592
6845.000000;-0.000557
6844.000000;-0.000428
6843.000000;-0.000341
6842.000000;-0.000421
6841.000000;-0.000647
6840.000000;-0.000886
6839.000000;-0.001029
6838.000000;-0.001073
6837.000000;-0.001055
6836.000000;-0.000984
6835.000000;-0.000895
6834.000000;-0.000885
6833.000000;-0.001007
6832.000000;-0.001169
6831.000000;-0.001221
6830.000000;-0.001147
6829.000000;-0.001072
6828.000000;-0.001095
6827.000000;-0.001173
6826.000000;-0.001216
6825.000000;-0.001224
6824.000000;-0.001256
6823.000000;-0.001313
6822.000000;-0.001342
6821.000000;-0.001318
6820.000000;-0.001280
6819.000000;-0.001274
6818.000000;-0.001317
6817.000000;-0.001412
6816.000000;-0.001549
6815.000000;-0.001693
6814.000000;-0.001801
6813.000000;-0.001869
6812.000000;-0.001924
6811.000000;-0.001986
6810.000000;-0.002053
6809.000000;-0.002124
6808.000000;-0.002206
6807.000000;-0.002271
6806.000000;-0.002266
6805.000000;-0.002200
6804.000000;-0.002161
6803.000000;-0.002181
6802.000000;-0.002146
6801.000000;-0.001933
6800.000000;-0.001617
6799.000000;-0.001442
6798.000000;-0.001552
6797.000000;-0.001818
6796.000000;-0.001996
6795.000000;-0.001988
6794.000000;-0.001890
6793.000000;-0.001848
6792.000000;-0.001938
6791.000000;-0.002144
6790.000000;-0.002365
6789.000000;-0.002470
6788.000000;-0.002415
6787.000000;-0.002326
6786.000000;-0.002380
6785.000000;-0.002616
6784.000000;-0.002901
6783.000000;-0.003092
6782.000000;-0.003184
6781.000000;-0.003271
6780.000000;-0.003421
6779.000000;-0.003613
6778.000000;-0.003773
6777.000000;-0.003846
6776.000000;-0.003851
6775.000000;-0.003866
6774.000000;-0.003934
6773.000000;-0.003998
6772.000000;-0.003982
6771.000000;-0.003908
6770.000000;-0.003879
6769.000000;-0.003926
6768.000000;-0.003964
6767.000000;-0.003933
6766.000000;-0.003901
6765.000000;-0.003958
6764.000000;-0.004067
6763.000000;-0.004111
6762.000000;-0.004059
6761.000000;-0.003995
6760.000000;-0.004002
6759.000000;-0.004084
6758.000000;-0.004189
6757.000000;-0.004257
6756.000000;-0.004262
6755.000000;-0.004246
6754.000000;-0.004296
6753.000000;-0.004440
6752.000000;-0.004585
6751.000000;-0.004618
6750.000000;-0.004560
6749.000000;-0.004542
6748.000000;-0.004639
6747.000000;-0.004791
6746.000000;-0.004894
6745.000000;-0.004916
6744.000000;-0.004924
6743.000000;-0.004998
6742.000000;-0.005152
6741.000000;-0.005307
6740.000000;-0.005362
6739.000000;-0.005305
6738.000000;-0.005236
6737.000000;-0.005263
6736.000000;-0.005395
6735.000000;-0.005553
6734.000000;-0.005672
6733.000000;-0.005743
6732.000000;-0.005796
6731.000000;-0.005863
6730.000000;-0.005948
6729.000000;-0.006021
6728.000000;-0.006030
6727.000000;-0.005978
6726.000000;-0.005938
6725.000000;-0.005964
6724.000000;-0.006004
6723.000000;-0.005972
6722.000000;-0.005878
6721.000000;-0.005826
6720.000000;-0.005875
6719.000000;-0.005979
6718.000000;-0.006066
6717.000000;-0.006124
6716.000000;-0.006178
6715.000000;-0.006233
6714.000000;-0.006281
6713.000000;-0.006337
6712.000000;-0.006419
6711.000000;-0.006515
6710.000000;-0.006601
6709.000000;-0.006673
6708.000000;-0.006741
6707.000000;-0.006817
6706.000000;-0.006873
6705.000000;-0.006874
6704.000000;-0.006871
6703.000000;-0.006867
6702.000000;-0.006888
6701.000000;-0.006975
6700.000000;-0.007080
6699.000000;-0.007164
6698.000000;-0.007193
6697.000000;-0.007330
6696.000000;-0.007387
6695.000000;-0.007383
6694.000000;-0.007418
6693.000000;-0.007453
6692.000000;-0.007510
6691.000000;-0.007555
6690.000000;-0.007585
6689.000000;-0.007615
6688.000000;-0.007671
6687.000000;-0.007750
6686.000000;-0.007820
6685.000000;-0.007851
6684.000000;-0.007835
6683.000000;-0.007798
6682.000000;-0.007784
6681.000000;-0.007813
6680.000000;-0.007859
6679.000000;-0.007880
6678.000000;-0.007863
6677.000000;-0.007831
6676.000000;-0.007811
6675.000000;-0.007818
6674.000000;-0.007857
6673.000000;-0.007922
6672.000000;-0.007993
6671.000000;-0.008047
6670.000000;-0.008084
6669.000000;-0.008125
6668.000000;-0.008187
6667.000000;-0.008270
6666.000000;-0.008360
6665.000000;-0.008431
6664.000000;-0.008458
6663.000000;-0.008446
6662.000000;-0.008433
6661.000000;-0.008453
6660.000000;-0.008493
6659.000000;-0.008513
6658.000000;-0.008497
6657.000000;-0.008468
6656.000000;-0.008457
6655.000000;-0.008479
6654.000000;-0.008534
6653.000000;-0.008617
6652.000000;-0.008712
6651.000000;-0.008801
6650.000000;-0.008873
6649.000000;-0.008928
6648.000000;-0.008975
6647.000000;-0.009022
6646.000000;-0.009068
6645.000000;-0.009093
6644.000000;-0.009077
6643.000000;-0.009033
6642.000000;-0.009001
6641.000000;-0.009005
6640.000000;-0.009029
6639.000000;-0.009058
6638.000000;-0.009104
6637.000000;-0.009174
6636.000000;-0.009238
6635.000000;-0.009260
6634.000000;-0.009258
6633.000000;-0.009279
6632.000000;-0.009329
6631.000000;-0.009372
6630.000000;-0.009382
6629.000000;-0.009375
6628.000000;-0.009371
6627.000000;-0.009364
6626.000000;-0.009355
6625.000000;-0.009366
6624.000000;-0.009415
6623.000000;-0.009495
6622.000000;-0.009579
6621.000000;-0.009641
6620.000000;-0.009669
6619.000000;-0.009667
6618.000000;-0.009655
6617.000000;-0.009654
6616.000000;-0.009668
6615.000000;-0.009682
6614.000000;-0.009692
6613.000000;-0.009707
6612.000000;-0.009742
6611.000000;-0.009800
6610.000000;-0.009872
6609.000000;-0.009934
6608.000000;-0.009969
6607.000000;-0.009989
6606.000000;-0.010030
6605.000000;-0.010112
6604.000000;-0.010215
6603.000000;-0.010302
6602.000000;-0.010365
6601.000000;-0.010409
6600.000000;-0.010420
6599.000000;-0.010388
6598.000000;-0.010333
6597.000000;-0.010302
6596.000000;-0.010308
6595.000000;-0.010310
6594.000000;-0.010271
6593.000000;-0.010199
6592.000000;-0.010139
6591.000000;-0.010123
6590.000000;-0.010151
6589.000000;-0.010198
6588.000000;-0.010242
6587.000000;-0.010282
6586.000000;-0.010330
6585.000000;-0.010391
6584.000000;-0.010461
6583.000000;-0.010543
6582.000000;-0.010643
6581.000000;-0.010749
6580.000000;-0.010828
6579.000000;-0.010863
6578.000000;-0.010874
6577.000000;-0.010881
6576.000000;-0.010883
6575.000000;-0.010876
6574.000000;-0.010886
6573.000000;-0.010937
6572.000000;-0.011008
6571.000000;-0.011052
6570.000000;-0.011056
6569.000000;-0.011041
6568.000000;-0.011025
6567.000000;-0.011006
6566.000000;-0.010991
6565.000000;-0.011005
6564.000000;-0.011056
6563.000000;-0.011125
6562.000000;-0.011191
6561.000000;-0.011255
6560.000000;-0.011326
6559.000000;-0.011390
6558.000000;-0.011423
6557.000000;-0.011408
6556.000000;-0.011353
6555.000000;-0.011291
6554.000000;-0.011254
6553.000000;-0.011254
6552.000000;-0.011274
6551.000000;-0.011302
6550.000000;-0.011341
6549.000000;-0.011387
6548.000000;-0.011427
6547.000000;-0.011453
6546.000000;-0.011485
6545.000000;-0.011534
6544.000000;-0.011576
6543.000000;-0.011578
6542.000000;-0.011539
6541.000000;-0.011487
6540.000000;-0.011444
6539.000000;-0.011420
6538.000000;-0.011418
6537.000000;-0.011429
6536.000000;-0.011426
6535.000000;-0.011400
6534.000000;-0.011388
6533.000000;-0.011436
6532.000000;-0.011541
6531.000000;-0.011652
6530.000000;-0.011725
6529.000000;-0.011760
6528.000000;-0.011775
6527.000000;-0.011787
6526.000000;-0.011806
6525.000000;-0.011835
6524.000000;-0.011865
6523.000000;-0.011899
6522.000000;-0.011949
6521.000000;-0.012018
6520.000000;-0.012074
6519.000000;-0.012088
6518.000000;-0.012071
6517.000000;-0.012061
6516.000000;-0.012073
6515.000000;-0.012095
6514.000000;-0.012118
6513.000000;-0.012149
6512.000000;-0.012179
6511.000000;-0.012191
6510.000000;-0.012189
6509.000000;-0.012193
6508.000000;-0.012202
6507.000000;-0.012195
6506.000000;-0.012161
6505.000000;-0.012118
6504.000000;-0.012082
6503.000000;-0.012057
6502.000000;-0.012055
6501.000000;-0.012093
6500.000000;-0.012167
6499.000000;-0.012238
6498.000000;-0.012268
6497.000000;-0.012261
6496.000000;-0.012249
6495.000000;-0.012261
6494.000000;-0.012301
6493.000000;-0.012350
6492.000000;-0.012382
6491.000000;-0.012388
6490.000000;-0.012388
6489.000000;-0.012398
6488.000000;-0.012412
6487.000000;-0.012412
6486.000000;-0.012404
6485.000000;-0.012417
6484.000000;-0.012461
6483.000000;-0.012513
6482.000000;-0.012541
6481.000000;-0.012533
6480.000000;-0.012506
6479.000000;-0.012488
6478.000000;-0.012499
6477.000000;-0.012533
6476.000000;-0.012565
6475.000000;-0.012575
6474.000000;-0.012576
6473.000000;-0.012592
6472.000000;-0.012627
6471.000000;-0.012665
6470.000000;-0.012692
6469.000000;-0.012701
6468.000000;-0.012690
6467.000000;-0.012659
6466.000000;-0.012617
6465.000000;-0.012570
6464.000000;-0.012517
6463.000000;-0.012470
6462.000000;-0.012459
6461.000000;-0.012507
6460.000000;-0.012595
6459.000000;-0.012686
6458.000000;-0.012756
6457.000000;-0.012798
6456.000000;-0.012807
6455.000000;-0.012785
6454.000000;-0.012755
6453.000000;-0.012746
6452.000000;-0.012767
6451.000000;-0.012803
6450.000000;-0.012838
6449.000000;-0.012869
6448.000000;-0.012891
6447.000000;-0.012897
6446.000000;-0.012890
6445.000000;-0.012877
6444.000000;-0.012863
6443.000000;-0.012853
6442.000000;-0.012859
6441.000000;-0.012878
6440.000000;-0.012888
6439.000000;-0.012873
6438.000000;-0.012855
6437.000000;-0.012862
6436.000000;-0.012891
6435.000000;-0.012920
6434.000000;-0.012940
6433.000000;-0.012962
6432.000000;-0.012983
6431.000000;-0.012985
6430.000000;-0.012958
6429.000000;-0.012906
6428.000000;-0.012842
6427.000000;-0.012788
6426.000000;-0.012773
6425.000000;-0.012809
6424.000000;-0.012872
6423.000000;-0.012931
6422.000000;-0.012990
6421.000000;-0.013061
6420.000000;-0.013123
6419.000000;-0.013137
6418.000000;-0.013096
6417.000000;-0.013039
6416.000000;-0.013002
6415.000000;-0.012987
6414.000000;-0.012990
6413.000000;-0.013017
6412.000000;-0.013068
6411.000000;-0.013125
6410.000000;-0.013170
6409.000000;-0.013189
6408.000000;-0.013174
6407.000000;-0.013130
6406.000000;-0.013083
6405.000000;-0.013068
6404.000000;-0.013094
6403.000000;-0.013152
6402.000000;-0.013226
6401.000000;-0.013298
6400.000000;-0.013330
6399.000000;-0.013295
6398.000000;-0.013211
6397.000000;-0.013137
6396.000000;-0.013106
6395.000000;-0.013105
6394.000000;-0.013112
6393.000000;-0.013120
6392.000000;-0.013125
6391.000000;-0.013111
6390.000000;-0.013071
6389.000000;-0.013033
6388.000000;-0.013033
6387.000000;-0.013076
6386.000000;-0.013138
6385.000000;-0.013180
6384.000000;-0.013176
6383.000000;-0.013123
6382.000000;-0.013038
6381.000000;-0.012949
6380.000000;-0.012882
6379.000000;-0.012858
6378.000000;-0.012881
6377.000000;-0.012935
6376.000000;-0.012997
6375.000000;-0.013053
6374.000000;-0.013117
6373.000000;-0.013196
6372.000000;-0.013272
6371.000000;-0.013314
6370.000000;-0.013317
6369.000000;-0.013303
6368.000000;-0.013299
6367.000000;-0.013312
6366.000000;-0.013334
6365.000000;-0.013348
6364.000000;-0.013339
6363.000000;-0.013319
6362.000000;-0.013319
6361.000000;-0.013353
6360.000000;-0.013393
6359.000000;-0.013399
6358.000000;-0.013361
6357.000000;-0.013307
6356.000000;-0.013260
6355.000000;-0.013226
6354.000000;-0.013206
6353.000000;-0.013201
6352.000000;-0.013204
6351.000000;-0.013210
6350.000000;-0.013224
6349.000000;-0.013257
6348.000000;-0.013306
6347.000000;-0.013358
6346.000000;-0.013392
6345.000000;-0.013387
6344.000000;-0.013329
6343.000000;-0.013238
6342.000000;-0.013162
6341.000000;-0.013137
6340.000000;-0.013150
6339.000000;-0.013165
6338.000000;-0.013172
6337.000000;-0.013195
6336.000000;-0.013246
6335.000000;-0.013307
6334.000000;-0.013345
6333.000000;-0.013344
6332.000000;-0.013309
6331.000000;-0.013261
6330.000000;-0.013225
6329.000000;-0.013216
6328.000000;-0.013228
6327.000000;-0.013243
6326.000000;-0.013255
6325.000000;-0.013267
6324.000000;-0.013275
6323.000000;-0.013282
6322.000000;-0.013295
6321.000000;-0.013313
6320.000000;-0.013323
6319.000000;-0.013317
6318.000000;-0.013304
6317.000000;-0.013295
6316.000000;-0.013279
6315.000000;-0.013242
6314.000000;-0.013192
6313.000000;-0.013151
6312.000000;-0.013127
6311.000000;-0.013118
6310.000000;-0.013121
6309.000000;-0.013132
6308.000000;-0.013140
6307.000000;-0.013137
6306.000000;-0.013136
6305.000000;-0.013150
6304.000000;-0.013175
6303.000000;-0.013201
6302.000000;-0.013228
6301.000000;-0.013255
6300.000000;-0.013268
6299.000000;-0.013258
6298.000000;-0.013242
6297.000000;-0.013240
6296.000000;-0.013242
6295.000000;-0.013227
6294.000000;-0.013200
6293.000000;-0.013189
6292.000000;-0.013204
6291.000000;-0.013232
6290.000000;-0.013263
6289.000000;-0.013305
6288.000000;-0.013362
6287.000000;-0.013430
6286.000000;-0.013497
6285.000000;-0.013552
6284.000000;-0.013573
6283.000000;-0.013549
6282.000000;-0.013499
6281.000000;-0.013449
6280.000000;-0.013404
6279.000000;-0.013354
6278.000000;-0.013313
6277.000000;-0.013308
6276.000000;-0.013340
6275.000000;-0.013366
6274.000000;-0.013353
6273.000000;-0.013309
6272.000000;-0.013275
6271.000000;-0.013280
6270.000000;-0.013320
6269.000000;-0.013362
6268.000000;-0.013372
6267.000000;-0.013346
6266.000000;-0.013309
6265.000000;-0.013277
6264.000000;-0.013250
6263.000000;-0.013225
6262.000000;-0.013211
6261.000000;-0.013213
6260.000000;-0.013222
6259.000000;-0.013232
6258.000000;-0.013255
6257.000000;-0.013293
6256.000000;-0.013317
6255.000000;-0.013300
6254.000000;-0.013255
6253.000000;-0.013220
6252.000000;-0.013205
6251.000000;-0.013193
6250.000000;-0.013174
6249.000000;-0.013156
6248.000000;-0.013144
6247.000000;-0.013135
6246.000000;-0.013130
6245.000000;-0.013141
6244.000000;-0.013174
6243.000000;-0.013220
6242.000000;-0.013263
6241.000000;-0.013278
6240.000000;-0.013243
6239.000000;-0.013169
6238.000000;-0.013106
6237.000000;-0.013093
6236.000000;-0.013118
6235.000000;-0.013130
6234.000000;-0.013100
6233.000000;-0.013039
6232.000000;-0.012975
6231.000000;-0.012938
6230.000000;-0.012954
6229.000000;-0.013021
6228.000000;-0.013096
6227.000000;-0.013122
6226.000000;-0.013088
6225.000000;-0.013035
6224.000000;-0.013012
6223.000000;-0.013033
6222.000000;-0.013084
6221.000000;-0.013135
6220.000000;-0.013158
6219.000000;-0.013148
6218.000000;-0.013125
6217.000000;-0.013111
6216.000000;-0.013103
6215.000000;-0.013085
6214.000000;-0.013059
6213.000000;-0.013048
6212.000000;-0.013070
6211.000000;-0.013116
6210.000000;-0.013168
6209.000000;-0.013209
6208.000000;-0.013229
6207.000000;-0.013233
6206.000000;-0.013238
6205.000000;-0.013252
6204.000000;-0.013269
6203.000000;-0.013281
6202.000000;-0.013298
6201.000000;-0.013331
6200.000000;-0.013361
6199.000000;-0.013365
6198.000000;-0.013336
6197.000000;-0.013290
6196.000000;-0.013243
6195.000000;-0.013203
6194.000000;-0.013180
6193.000000;-0.013183
6192.000000;-0.013211
6191.000000;-0.013255
6190.000000;-0.013305
6189.000000;-0.013344
6188.000000;-0.013357
6187.000000;-0.013347
6186.000000;-0.013335
6185.000000;-0.013333
6184.000000;-0.013323
6183.000000;-0.013293
6182.000000;-0.013265
6181.000000;-0.013264
6180.000000;-0.013283
6179.000000;-0.013286
6178.000000;-0.013258
6177.000000;-0.013216
6176.000000;-0.013189
6175.000000;-0.013204
6174.000000;-0.013271
6173.000000;-0.013362
6172.000000;-0.013425
6171.000000;-0.013429
6170.000000;-0.013397
6169.000000;-0.013366
6168.000000;-0.013351
6167.000000;-0.013345
6166.000000;-0.013354
6165.000000;-0.013387
6164.000000;-0.013432
6163.000000;-0.013461
6162.000000;-0.013466
6161.000000;-0.013454
6160.000000;-0.013433
6159.000000;-0.013404
6158.000000;-0.013374
6157.000000;-0.013349
6156.000000;-0.013326
6155.000000;-0.013303
6154.000000;-0.013290
6153.000000;-0.013287
6152.000000;-0.013263
6151.000000;-0.013195
6150.000000;-0.013107
6149.000000;-0.013046
6148.000000;-0.013035
6147.000000;-0.013064
6146.000000;-0.013111
6145.000000;-0.013148
6144.000000;-0.013151
6143.000000;-0.013124
6142.000000;-0.013113
6141.000000;-0.013161
6140.000000;-0.013257
6139.000000;-0.013352
6138.000000;-0.013412
6137.000000;-0.013436
6136.000000;-0.013431
6135.000000;-0.013411
6134.000000;-0.013398
6133.000000;-0.013412
6132.000000;-0.013438
6131.000000;-0.013452
6130.000000;-0.013459
6129.000000;-0.013477
6128.000000;-0.013505
6127.000000;-0.013525
6126.000000;-0.013531
6125.000000;-0.013528
6124.000000;-0.013514
6123.000000;-0.013486
6122.000000;-0.013461
6121.000000;-0.013456
6120.000000;-0.013456
6119.000000;-0.013433
6118.000000;-0.013394
6117.000000;-0.013369
6116.000000;-0.013372
6115.000000;-0.013393
6114.000000;-0.013431
6113.000000;-0.013493
6112.000000;-0.013561
6111.000000;-0.013600
6110.000000;-0.013603
6109.000000;-0.013602
6108.000000;-0.013620
6107.000000;-0.013641
6106.000000;-0.013642
6105.000000;-0.013619
6104.000000;-0.013584
6103.000000;-0.013538
6102.000000;-0.013487
6101.000000;-0.013446
6100.000000;-0.013431
6099.000000;-0.013444
6098.000000;-0.013478
6097.000000;-0.013523
6096.000000;-0.013574
6095.000000;-0.013626
6094.000000;-0.013671
6093.000000;-0.013697
6092.000000;-0.013694
6091.000000;-0.013665
6090.000000;-0.013630
6089.000000;-0.013605
6088.000000;-0.013589
6087.000000;-0.013587
6086.000000;-0.013610
6085.000000;-0.013661
6084.000000;-0.013714
6083.000000;-0.013739
6082.000000;-0.013740
6081.000000;-0.013733
6080.000000;-0.013728
6079.000000;-0.013729
6078.000000;-0.013738
6077.000000;-0.013746
6076.000000;-0.013731
6075.000000;-0.013688
6074.000000;-0.013653
6073.000000;-0.013660
6072.000000;-0.013697
6071.000000;-0.013736
6070.000000;-0.013776
6069.000000;-0.013836
6068.000000;-0.013907
6067.000000;-0.013962
6066.000000;-0.013993
6065.000000;-0.014022
6064.000000;-0.014060
6063.000000;-0.014103
6062.000000;-0.014141
6061.000000;-0.014156
6060.000000;-0.014126
6059.000000;-0.014053
6058.000000;-0.013984
6057.000000;-0.013961
6056.000000;-0.013970
6055.000000;-0.013966
6054.000000;-0.013935
6053.000000;-0.013909
6052.000000;-0.013906
6051.000000;-0.013920
6050.000000;-0.013943
6049.000000;-0.013973
6048.000000;-0.013994
6047.000000;-0.013986
6046.000000;-0.013962
6045.000000;-0.013964
6044.000000;-0.014011
6043.000000;-0.014077
6042.000000;-0.014130
6041.000000;-0.014175
6040.000000;-0.014221
6039.000000;-0.014264
6038.000000;-0.014286
6037.000000;-0.014289
6036.000000;-0.014295
6035.000000;-0.014325
6034.000000;-0.014379
6033.000000;-0.014432
6032.000000;-0.014448
6031.000000;-0.014414
6030.000000;-0.014354
6029.000000;-0.014298
6028.000000;-0.014257
6027.000000;-0.014230
6026.000000;-0.014223
6025.000000;-0.014243
6024.000000;-0.014292
6023.000000;-0.014364
6022.000000;-0.014451
6021.000000;-0.014536
6020.000000;-0.014592
6019.000000;-0.014623
6018.000000;-0.014656
6017.000000;-0.014693
6016.000000;-0.014695
6015.000000;-0.014635
6014.000000;-0.014556
6013.000000;-0.014530
6012.000000;-0.014575
6011.000000;-0.014649
6010.000000;-0.014706
6009.000000;-0.014730
6008.000000;-0.014725
6007.000000;-0.014705
6006.000000;-0.014706
6005.000000;-0.014754
6004.000000;-0.014831
6003.000000;-0.014889
6002.000000;-0.014912
6001.000000;-0.014914
6000.000000;-0.014912
5999.000000;-0.014913
5998.000000;-0.014928
5997.000000;-0.014968
5996.000000;-0.015020
5995.000000;-0.015061
5994.000000;-0.015088
5993.000000;-0.015108
5992.000000;-0.015115
5991.000000;-0.015096
5990.000000;-0.015058
5989.000000;-0.015029
5988.000000;-0.015021
5987.000000;-0.015029
5986.000000;-0.015059
5985.000000;-0.015122
5984.000000;-0.015212
5983.000000;-0.015298
5982.000000;-0.015352
5981.000000;-0.015358
5980.000000;-0.015326
5979.000000;-0.015290
5978.000000;-0.015301
5977.000000;-0.015377
5976.000000;-0.015471
5975.000000;-0.015522
5974.000000;-0.015527
5973.000000;-0.015530
5972.000000;-0.015558
5971.000000;-0.015597
5970.000000;-0.015629
5969.000000;-0.015647
5968.000000;-0.015646
5967.000000;-0.015624
5966.000000;-0.015605
5965.000000;-0.015621
5964.000000;-0.015676
5963.000000;-0.015747
5962.000000;-0.015818
5961.000000;-0.015898
5960.000000;-0.015984
5959.000000;-0.016050
5958.000000;-0.016070
5957.000000;-0.016045
5956.000000;-0.015999
5955.000000;-0.015959
5954.000000;-0.015954
5953.000000;-0.015992
5952.000000;-0.016048
5951.000000;-0.016082
5950.000000;-0.016083
5949.000000;-0.016069
5948.000000;-0.016062
5947.000000;-0.016073
5946.000000;-0.016112
5945.000000;-0.016177
5944.000000;-0.016241
5943.000000;-0.016269
5942.000000;-0.016254
5941.000000;-0.016220
5940.000000;-0.016204
5939.000000;-0.016228
5938.000000;-0.016292
5937.000000;-0.016370
5936.000000;-0.016433
5935.000000;-0.016479
5934.000000;-0.016524
5933.000000;-0.016569
5932.000000;-0.016585
5931.000000;-0.016563
5930.000000;-0.016542
5929.000000;-0.016566
5928.000000;-0.016627
5927.000000;-0.016682
5926.000000;-0.016718
5925.000000;-0.016750
5924.000000;-0.016785
5923.000000;-0.016811
5922.000000;-0.016828
5921.000000;-0.016843
5920.000000;-0.016855
5919.000000;-0.016863
5918.000000;-0.016892
5917.000000;-0.016966
5916.000000;-0.017064
5915.000000;-0.017141
5914.000000;-0.017178
5913.000000;-0.017188
5912.000000;-0.017187
5911.000000;-0.017184
5910.000000;-0.017206
5909.000000;-0.017273
5908.000000;-0.017363
5907.000000;-0.017431
5906.000000;-0.017459
5905.000000;-0.017466
5904.000000;-0.017476
5903.000000;-0.017502
5902.000000;-0.017560
5901.000000;-0.017664
5900.000000;-0.017790
5899.000000;-0.017889
5898.000000;-0.017937
5897.000000;-0.017952
5896.000000;-0.017963
5895.000000;-0.017983
5894.000000;-0.018016
5893.000000;-0.018051
5892.000000;-0.018075
5891.000000;-0.018086
5890.000000;-0.018110
5889.000000;-0.018161
5888.000000;-0.018207
5887.000000;-0.018207
5886.000000;-0.018168
5885.000000;-0.018140
5884.000000;-0.018156
5883.000000;-0.018208
5882.000000;-0.018273
5881.000000;-0.018343
5880.000000;-0.018404
5879.000000;-0.018444
5878.000000;-0.018461
5877.000000;-0.018465
5876.000000;-0.018460
5875.000000;-0.018458
5874.000000;-0.018484
5873.000000;-0.018556
5872.000000;-0.018655
5871.000000;-0.018737
5870.000000;-0.018787
5869.000000;-0.018820
5868.000000;-0.018858
5867.000000;-0.018909
5866.000000;-0.018974
5865.000000;-0.019042
5864.000000;-0.019093
5863.000000;-0.019119
5862.000000;-0.019145
5861.000000;-0.019199
5860.000000;-0.019271
5859.000000;-0.019336
5858.000000;-0.019393
5857.000000;-0.019455
5856.000000;-0.019512
5855.000000;-0.019544
5854.000000;-0.019560
5853.000000;-0.019586
5852.000000;-0.019620
5851.000000;-0.019637
5850.000000;-0.019639
5849.000000;-0.019650
5848.000000;-0.019681
5847.000000;-0.019722
5846.000000;-0.019765
5845.000000;-0.019813
5844.000000;-0.019868
5843.000000;-0.019925
5842.000000;-0.019993
5841.000000;-0.020073
5840.000000;-0.020139
5839.000000;-0.020174
5838.000000;-0.020197
5837.000000;-0.020250
5836.000000;-0.020345
5835.000000;-0.020456
5834.000000;-0.020560
5833.000000;-0.020653
5832.000000;-0.020721
5831.000000;-0.020748
5830.000000;-0.020744
5829.000000;-0.020750
5828.000000;-0.020798
5827.000000;-0.020885
5826.000000;-0.020991
5825.000000;-0.021085
5824.000000;-0.021140
5823.000000;-0.021161
5822.000000;-0.021184
5821.000000;-0.021237
5820.000000;-0.021307
5819.000000;-0.021365
5818.000000;-0.021420
5817.000000;-0.021495
5816.000000;-0.021585
5815.000000;-0.021661
5814.000000;-0.021710
5813.000000;-0.021749
5812.000000;-0.021781
5811.000000;-0.021798
5810.000000;-0.021798
5809.000000;-0.021789
5808.000000;-0.021782
5807.000000;-0.021783
5806.000000;-0.021811
5805.000000;-0.021874
5804.000000;-0.021960
5803.000000;-0.022056
5802.000000;-0.022174
5801.000000;-0.022313
5800.000000;-0.022431
5799.000000;-0.022487
5798.000000;-0.022495
5797.000000;-0.022509
5796.000000;-0.022555
5795.000000;-0.022629
5794.000000;-0.022723
5793.000000;-0.022825
5792.000000;-0.022908
5791.000000;-0.022956
5790.000000;-0.023001
5789.000000;-0.023081
5788.000000;-0.023187
5787.000000;-0.023280
5786.000000;-0.023350
5785.000000;-0.023418
5784.000000;-0.023484
5783.000000;-0.023534
5782.000000;-0.023588
5781.000000;-0.023685
5780.000000;-0.023822
5779.000000;-0.023953
5778.000000;-0.024048
5777.000000;-0.024113
5776.000000;-0.024158
5775.000000;-0.024182
5774.000000;-0.024200
5773.000000;-0.024238
5772.000000;-0.024310
5771.000000;-0.024407
5770.000000;-0.024526
5769.000000;-0.024663
5768.000000;-0.024799
5767.000000;-0.024905
5766.000000;-0.024977
5765.000000;-0.025033
5764.000000;-0.025076
5763.000000;-0.025101
5762.000000;-0.025122
5761.000000;-0.025160
5760.000000;-0.025207
5759.000000;-0.025245
5758.000000;-0.025282
5757.000000;-0.025347
5756.000000;-0.025442
5755.000000;-0.025549
5754.000000;-0.025662
5753.000000;-0.025784
5752.000000;-0.025895
5751.000000;-0.025979
5750.000000;-0.026056
5749.000000;-0.026160
5748.000000;-0.026287
5747.000000;-0.026406
5746.000000;-0.026504
5745.000000;-0.026587
5744.000000;-0.026649
5743.000000;-0.026678
5742.000000;-0.026701
5741.000000;-0.026756
5740.000000;-0.026847
5739.000000;-0.026942
5738.000000;-0.027039
5737.000000;-0.027159
5736.000000;-0.027294
5735.000000;-0.027398
5734.000000;-0.027446
5733.000000;-0.027463
5732.000000;-0.027483
5731.000000;-0.027531
5730.000000;-0.027627
5729.000000;-0.027781
5728.000000;-0.027953
5727.000000;-0.028082
5726.000000;-0.028150
5725.000000;-0.028187
5724.000000;-0.028224
5723.000000;-0.028262
5722.000000;-0.028305
5721.000000;-0.028372
5720.000000;-0.028470
5719.000000;-0.028586
5718.000000;-0.028711
5717.000000;-0.028843
5716.000000;-0.028965
5715.000000;-0.029060
5714.000000;-0.029140
5713.000000;-0.029226
5712.000000;-0.029318
5711.000000;-0.029399
5710.000000;-0.029472
5709.000000;-0.029558
5708.000000;-0.029658
5707.000000;-0.029760
5706.000000;-0.029866
5705.000000;-0.029991
5704.000000;-0.030125
5703.000000;-0.030242
5702.000000;-0.030336
5701.000000;-0.030413
5700.000000;-0.030463
5699.000000;-0.030476
5698.000000;-0.030482
5697.000000;-0.030533
5696.000000;-0.030648
5695.000000;-0.030784
5694.000000;-0.030933
5693.000000;-0.031028
5692.000000;-0.031135
5691.000000;-0.031255
5690.000000;-0.031339
5689.000000;-0.031428
5688.000000;-0.031521
5687.000000;-0.031615
5686.000000;-0.031703
5685.000000;-0.031792
5684.000000;-0.031882
5683.000000;-0.031977
5682.000000;-0.032096
5681.000000;-0.032250
5680.000000;-0.032412
5679.000000;-0.032546
5678.000000;-0.032650
5677.000000;-0.032742
5676.000000;-0.032818
5675.000000;-0.032867
5674.000000;-0.032914
5673.000000;-0.033000
5672.000000;-0.033126
5671.000000;-0.033255
5670.000000;-0.033363
5669.000000;-0.033454
5668.000000;-0.033535
5667.000000;-0.033608
5666.000000;-0.033681
5665.000000;-0.033765
5664.000000;-0.033850
5663.000000;-0.033927
5662.000000;-0.034003
5661.000000;-0.034085
5660.000000;-0.034164
5659.000000;-0.034246
5658.000000;-0.034359
5657.000000;-0.034512
5656.000000;-0.034654
5655.000000;-0.034744
5654.000000;-0.034814
5653.000000;-0.034925
5652.000000;-0.035084
5651.000000;-0.035250
5650.000000;-0.035401
5649.000000;-0.035536
5648.000000;-0.035641
5647.000000;-0.035707
5646.000000;-0.035762
5645.000000;-0.035846
5644.000000;-0.035953
5643.000000;-0.036051
5642.000000;-0.036137
5641.000000;-0.036230
5640.000000;-0.036321
5639.000000;-0.036390
5638.000000;-0.036456
5637.000000;-0.036562
5636.000000;-0.036697
5635.000000;-0.036811
5634.000000;-0.036881
5633.000000;-0.036938
5632.000000;-0.037017
5631.000000;-0.037130
5630.000000;-0.037285
5629.000000;-0.037470
5628.000000;-0.037637
5627.000000;-0.037738
5626.000000;-0.037788
5625.000000;-0.037832
5624.000000;-0.037884
5623.000000;-0.037932
5622.000000;-0.037989
5621.000000;-0.038086
5620.000000;-0.038211
5619.000000;-0.038328
5618.000000;-0.038438
5617.000000;-0.038567
5616.000000;-0.038705
5615.000000;-0.038831
5614.000000;-0.038963
5613.000000;-0.039134
5612.000000;-0.039319
5611.000000;-0.039459
5610.000000;-0.039558
5609.000000;-0.039674
5608.000000;-0.039818
5607.000000;-0.039931
5606.000000;-0.039969
5605.000000;-0.039949
5604.000000;-0.039923
5603.000000;-0.039921
5602.000000;-0.039949
5601.000000;-0.039996
5600.000000;-0.040047
5599.000000;-0.040114
5598.000000;-0.040230
5597.000000;-0.040392
5596.000000;-0.040544
5595.000000;-0.040650
5594.000000;-0.040750
5593.000000;-0.040901
5592.000000;-0.041092
5591.000000;-0.041288
5590.000000;-0.041490
5589.000000;-0.041704
5588.000000;-0.041879
5587.000000;-0.041973
5586.000000;-0.042028
5585.000000;-0.042113
5584.000000;-0.042226
5583.000000;-0.042319
5582.000000;-0.042393
5581.000000;-0.042494
5580.000000;-0.042618
5579.000000;-0.042719
5578.000000;-0.042796
5577.000000;-0.042888
5576.000000;-0.042998
5575.000000;-0.043092
5574.000000;-0.043172
5573.000000;-0.043264
5572.000000;-0.043359
5571.000000;-0.043433
5570.000000;-0.043518
5569.000000;-0.043654
5568.000000;-0.043793
5567.000000;-0.043845
5566.000000;-0.043824
5565.000000;-0.043842
5564.000000;-0.043944
5563.000000;-0.044075
5562.000000;-0.044202
5561.000000;-0.044378
5560.000000;-0.044621
5559.000000;-0.044848
5558.000000;-0.044986
5557.000000;-0.045048
5556.000000;-0.045071
5555.000000;-0.045029
5554.000000;-0.044896
5553.000000;-0.044735
5552.000000;-0.044628
5551.000000;-0.044561
5550.000000;-0.044455
5549.000000;-0.044307
5548.000000;-0.044214
5547.000000;-0.044266
5546.000000;-0.044459
5545.000000;-0.044734
5544.000000;-0.045047
5543.000000;-0.045410
5542.000000;-0.045831
5541.000000;-0.046240
5540.000000;-0.046492
5539.000000;-0.046474
5538.000000;-0.046246
5537.000000;-0.046008
5536.000000;-0.045875
5535.000000;-0.045768
5534.000000;-0.045597
5533.000000;-0.045467
5532.000000;-0.045567
5531.000000;-0.045901
5530.000000;-0.046274
5529.000000;-0.046554
5528.000000;-0.046820
5527.000000;-0.047198
5526.000000;-0.047640
5525.000000;-0.047936
5524.000000;-0.047928
5523.000000;-0.047695
5522.000000;-0.047463
5521.000000;-0.047335
5520.000000;-0.047177
5519.000000;-0.046816
5518.000000;-0.046353
5517.000000;-0.046134
5516.000000;-0.046311
5515.000000;-0.046652
5514.000000;-0.046883
5513.000000;-0.047062
5512.000000;-0.047425
5511.000000;-0.047864
5510.000000;-0.047937
5509.000000;-0.047472
5508.000000;-0.046846
5507.000000;-0.046455
5506.000000;-0.046196
5505.000000;-0.045768
5504.000000;-0.045334
5503.000000;-0.045431
5502.000000;-0.046140
5501.000000;-0.046865
5500.000000;-0.047177
5499.000000;-0.047426
5498.000000;-0.048161
5497.000000;-0.049107
5496.000000;-0.049144
5495.000000;-0.047687
5494.000000;-0.045561
5493.000000;-0.043953
5492.000000;-0.042849
5491.000000;-0.041147
5490.000000;-0.038508
5489.000000;-0.036263
5488.000000;-0.035851
5487.000000;-0.037011
5486.000000;-0.038321
5485.000000;-0.039233
5484.000000;-0.040582
5483.000000;-0.043056
5482.000000;-0.046101
5481.000000;-0.048721
5480.000000;-0.050606
5479.000000;-0.051687
5478.000000;-0.051337
5477.000000;-0.049247
5476.000000;-0.046469
5475.000000;-0.044541
5474.000000;-0.043552
5473.000000;-0.042112
5472.000000;-0.039754
5471.000000;-0.038002
5470.000000;-0.038302
5469.000000;-0.039986
5468.000000;-0.041316
5467.000000;-0.041803
5466.000000;-0.042407
5465.000000;-0.043718
5464.000000;-0.044893
5463.000000;-0.044760
5462.000000;-0.043337
5461.000000;-0.041733
5460.000000;-0.040856
5459.000000;-0.040539
5458.000000;-0.040147
5457.000000;-0.039838
5456.000000;-0.040499
5455.000000;-0.042438
5454.000000;-0.044788
5453.000000;-0.046415
5452.000000;-0.047106
5451.000000;-0.047603
5450.000000;-0.048427
5449.000000;-0.048806
5448.000000;-0.047313
5447.000000;-0.043774
5446.000000;-0.039990
5445.000000;-0.037704
5444.000000;-0.036114
5443.000000;-0.033160
5442.000000;-0.029169
5441.000000;-0.027045
5440.000000;-0.028336
5439.000000;-0.030900
5438.000000;-0.031674
5437.000000;-0.030679
5436.000000;-0.030540
5435.000000;-0.032662
5434.000000;-0.035589
5433.000000;-0.036920
5432.000000;-0.035754
5431.000000;-0.033324
5430.000000;-0.031639
5429.000000;-0.031536
5428.000000;-0.032030
5427.000000;-0.031769
5426.000000;-0.031050
5425.000000;-0.031742
5424.000000;-0.035013
5423.000000;-0.039901
5422.000000;-0.044454
5421.000000;-0.047847
5420.000000;-0.050898
5419.000000;-0.054605
5418.000000;-0.058435
5417.000000;-0.060270
5416.000000;-0.058557
5415.000000;-0.054195
5414.000000;-0.049481
5413.000000;-0.045308
5412.000000;-0.040501
5411.000000;-0.034556
5410.000000;-0.029480
5409.000000;-0.027503
5408.000000;-0.028172
5407.000000;-0.029431
5406.000000;-0.030956
5405.000000;-0.034318
5404.000000;-0.039965
5403.000000;-0.046152
5402.000000;-0.051150
5401.000000;-0.054973
5400.000000;-0.058166
5399.000000;-0.060473
5398.000000;-0.061475
5397.000000;-0.060930
5396.000000;-0.058601
5395.000000;-0.054785
5394.000000;-0.050789
5393.000000;-0.048110
5392.000000;-0.046756
5391.000000;-0.045587
5390.000000;-0.044427
5389.000000;-0.044225
5388.000000;-0.045248
5387.000000;-0.046561
5386.000000;-0.047640
5385.000000;-0.049027
5384.000000;-0.050863
5383.000000;-0.052258
5382.000000;-0.052884
5381.000000;-0.053619
5380.000000;-0.054515
5379.000000;-0.054179
5378.000000;-0.052236
5377.000000;-0.050390
5376.000000;-0.049925
5375.000000;-0.049731
5374.000000;-0.048289
5373.000000;-0.046447
5372.000000;-0.046314
5371.000000;-0.048300
5370.000000;-0.051104
5369.000000;-0.054020
5368.000000;-0.057512
5367.000000;-0.061449
5366.000000;-0.064581
5365.000000;-0.066204
5364.000000;-0.066954
5363.000000;-0.067489
5362.000000;-0.067623
5361.000000;-0.067242
5360.000000;-0.066934
5359.000000;-0.067334
5358.000000;-0.068159
5357.000000;-0.068214
5356.000000;-0.066519
5355.000000;-0.063279
5354.000000;-0.059797
5353.000000;-0.057181
5352.000000;-0.055037
5351.000000;-0.052160
5350.000000;-0.048799
5349.000000;-0.046868
5348.000000;-0.046801
5347.000000;-0.046096
5346.000000;-0.042857
5345.000000;-0.039085
5344.000000;-0.038121
5343.000000;-0.039611
5342.000000;-0.039567
5341.000000;-0.036010
5340.000000;-0.031762
5339.000000;-0.030334
5338.000000;-0.031455
5337.000000;-0.032470
5336.000000;-0.032524
5335.000000;-0.033137
5334.000000;-0.035606
5333.000000;-0.039605
5332.000000;-0.043991
5331.000000;-0.047620
5330.000000;-0.049753
5329.000000;-0.050825
5328.000000;-0.052268
5327.000000;-0.054865
5326.000000;-0.057466
5325.000000;-0.058284
5324.000000;-0.057594
5323.000000;-0.057786
5322.000000;-0.060238
5321.000000;-0.063729
5320.000000;-0.066542
5319.000000;-0.068625
5318.000000;-0.070902
5317.000000;-0.073469
5316.000000;-0.075535
5315.000000;-0.076564
5314.000000;-0.076752
5313.000000;-0.076610
5312.000000;-0.076574
5311.000000;-0.076598
5310.000000;-0.076051
5309.000000;-0.074624
5308.000000;-0.073000
5307.000000;-0.072035
5306.000000;-0.071477
5305.000000;-0.070425
5304.000000;-0.068971
5303.000000;-0.068259
5302.000000;-0.068795
5301.000000;-0.069796
5300.000000;-0.070553
5299.000000;-0.071447
5298.000000;-0.073021
5297.000000;-0.074890
5296.000000;-0.076304
5295.000000;-0.077189
5294.000000;-0.077729
5293.000000;-0.077439
5292.000000;-0.075883
5291.000000;-0.073788
5290.000000;-0.072372
5289.000000;-0.071650
5288.000000;-0.070351
5287.000000;-0.067979
5286.000000;-0.065866
5285.000000;-0.065489
5284.000000;-0.066495
5283.000000;-0.067297
5282.000000;-0.067402
5281.000000;-0.067941
5280.000000;-0.069740
5279.000000;-0.071992
5278.000000;-0.073378
5277.000000;-0.073817
5276.000000;-0.074329
5275.000000;-0.075545
5274.000000;-0.077079
5273.000000;-0.078188
5272.000000;-0.078536
5271.000000;-0.078281
5270.000000;-0.077749
5269.000000;-0.077181
5268.000000;-0.076328
5267.000000;-0.074290
5266.000000;-0.070588
5265.000000;-0.066115
5264.000000;-0.062318
5263.000000;-0.059523
5262.000000;-0.056936
5261.000000;-0.054420
5260.000000;-0.053166
5259.000000;-0.054020
5258.000000;-0.055905
5257.000000;-0.057121
5256.000000;-0.057662
5255.000000;-0.058945
5254.000000;-0.061423
5253.000000;-0.063733
5252.000000;-0.064308
5251.000000;-0.063042
5250.000000;-0.061045
5249.000000;-0.059371
5248.000000;-0.058207
5247.000000;-0.056795
5246.000000;-0.054589
5245.000000;-0.052377
5244.000000;-0.051708
5243.000000;-0.053050
5242.000000;-0.055063
5241.000000;-0.056491
5240.000000;-0.058072
5239.000000;-0.061385
5238.000000;-0.066182
5237.000000;-0.070402
5236.000000;-0.072830
5235.000000;-0.074236
5234.000000;-0.075511
5233.000000;-0.076247
5232.000000;-0.075843
5231.000000;-0.074812
5230.000000;-0.074056
5229.000000;-0.073327
5228.000000;-0.071604
5227.000000;-0.068889
5226.000000;-0.066505
5225.000000;-0.065322
5224.000000;-0.064672
5223.000000;-0.063678
5222.000000;-0.062772
5221.000000;-0.063031
5220.000000;-0.064530
5219.000000;-0.066330
5218.000000;-0.067915
5217.000000;-0.069646
5216.000000;-0.071854
5215.000000;-0.074261
5214.000000;-0.076426
5213.000000;-0.078114
5212.000000;-0.078979
5211.000000;-0.078635
5210.000000;-0.077046
5209.000000;-0.074358
5208.000000;-0.070706
5207.000000;-0.066601
5206.000000;-0.063038
5205.000000;-0.060657
5204.000000;-0.059236
5203.000000;-0.058580
5202.000000;-0.059297
5201.000000;-0.061828
5200.000000;-0.065241
5199.000000;-0.068106
5198.000000;-0.070242
5197.000000;-0.072541
5196.000000;-0.075203
5195.000000;-0.077206
5194.000000;-0.077874
5193.000000;-0.077908
5192.000000;-0.078224
5191.000000;-0.078774
5190.000000;-0.079119
5189.000000;-0.079280
5188.000000;-0.079400
5187.000000;-0.079182
5186.000000;-0.078424
5185.000000;-0.077620
5184.000000;-0.077312
5183.000000;-0.077226
5182.000000;-0.076844
5181.000000;-0.076464
5180.000000;-0.076811
5179.000000;-0.077834
5178.000000;-0.078756
5177.000000;-0.079294
5176.000000;-0.079996
5175.000000;-0.081189
5174.000000;-0.082343
5173.000000;-0.082814
5172.000000;-0.082704
5171.000000;-0.082579
5170.000000;-0.082700
5169.000000;-0.082938
5168.000000;-0.083129
5167.000000;-0.083206
5166.000000;-0.083122
5165.000000;-0.082914
5164.000000;-0.082742
5163.000000;-0.082673
5162.000000;-0.082582
5161.000000;-0.082398
5160.000000;-0.082279
5159.000000;-0.082332
5158.000000;-0.082371
5157.000000;-0.082206
5156.000000;-0.082003
5155.000000;-0.082087
5154.000000;-0.082460
5153.000000;-0.082859
5152.000000;-0.083229
5151.000000;-0.083768
5150.000000;-0.084500
5149.000000;-0.085168
5148.000000;-0.085640
5147.000000;-0.086077
5146.000000;-0.086610
5145.000000;-0.087080
5144.000000;-0.087248
5143.000000;-0.087118
5142.000000;-0.086914
5141.000000;-0.086814
5140.000000;-0.086811
5139.000000;-0.086844
5138.000000;-0.086942
5137.000000;-0.087187
5136.000000;-0.087546
5135.000000;-0.087857
5134.000000;-0.088017
5133.000000;-0.088094
5132.000000;-0.088224
5131.000000;-0.088424
5130.000000;-0.088610
5129.000000;-0.088764
5128.000000;-0.088953
5127.000000;-0.089201
5126.000000;-0.089440
5125.000000;-0.089608
5124.000000;-0.089738
5123.000000;-0.089864
5122.000000;-0.089925
5121.000000;-0.089867
5120.000000;-0.089754
5119.000000;-0.089693
5118.000000;-0.089685
5117.000000;-0.089661
5116.000000;-0.089633
5115.000000;-0.089692
5114.000000;-0.089877
5113.000000;-0.090130
5112.000000;-0.090387
5111.000000;-0.090628
5110.000000;-0.090838
5109.000000;-0.090993
5108.000000;-0.091106
5107.000000;-0.091222
5106.000000;-0.091360
5105.000000;-0.091505
5104.000000;-0.091657
5103.000000;-0.091810
5102.000000;-0.091919
5101.000000;-0.091950
5100.000000;-0.091936
5099.000000;-0.091936
5098.000000;-0.091959
5097.000000;-0.091978
5096.000000;-0.091990
5095.000000;-0.092012
5094.000000;-0.092039
5093.000000;-0.092055
5092.000000;-0.092086
5091.000000;-0.092175
5090.000000;-0.092316
5089.000000;-0.092473
5088.000000;-0.092632
5087.000000;-0.092798
5086.000000;-0.092952
5085.000000;-0.093074
5084.000000;-0.093188
5083.000000;-0.093335
5082.000000;-0.093499
5081.000000;-0.093629
5080.000000;-0.093714
5079.000000;-0.093788
5078.000000;-0.093881
5077.000000;-0.093997
5076.000000;-0.094124
5075.000000;-0.094239
5074.000000;-0.094309
5073.000000;-0.094320
5072.000000;-0.094304
5071.000000;-0.094306
5070.000000;-0.094338
5069.000000;-0.094390
5068.000000;-0.094479
5067.000000;-0.094622
5066.000000;-0.094794
5065.000000;-0.094939
5064.000000;-0.095028
5063.000000;-0.095068
5062.000000;-0.095079
5061.000000;-0.095080
5060.000000;-0.095109
5059.000000;-0.095183
5058.000000;-0.095276
5057.000000;-0.095344
5056.000000;-0.095384
5055.000000;-0.095422
5054.000000;-0.095468
5053.000000;-0.095511
5052.000000;-0.095562
5051.000000;-0.095641
5050.000000;-0.095736
5049.000000;-0.095810
5048.000000;-0.095859
5047.000000;-0.095924
5046.000000;-0.096029
5045.000000;-0.096169
5044.000000;-0.096327
5043.000000;-0.096496
5042.000000;-0.096650
5041.000000;-0.096759
5040.000000;-0.096821
5039.000000;-0.096870
5038.000000;-0.096937
5037.000000;-0.097020
5036.000000;-0.097096
5035.000000;-0.097143
5034.000000;-0.097151
5033.000000;-0.097144
5032.000000;-0.097166
5031.000000;-0.097249
5030.000000;-0.097388
5029.000000;-0.097560
5028.000000;-0.097748
5027.000000;-0.097917
5026.000000;-0.098014
5025.000000;-0.098020
5024.000000;-0.097987
5023.000000;-0.097991
5022.000000;-0.098056
5021.000000;-0.098152
5020.000000;-0.098254
5019.000000;-0.098358
5018.000000;-0.098460
5017.000000;-0.098554
5016.000000;-0.098654
5015.000000;-0.098770
5014.000000;-0.098879
5013.000000;-0.098944
5012.000000;-0.098957
5011.000000;-0.098953
5010.000000;-0.098959
5009.000000;-0.098984
5008.000000;-0.099027
5007.000000;-0.099093
5006.000000;-0.099179
5005.000000;-0.099284
5004.000000;-0.099409
5003.000000;-0.099539
5002.000000;-0.099647
5001.000000;-0.099717
5000.000000;-0.099783
4999.000000;-0.099869
4998.000000;-0.099997
4997.000000;-0.100142
4996.000000;-0.100240
4995.000000;-0.100326
4994.000000;-0.100359
4993.000000;-0.100350
4992.000000;-0.100347
4991.000000;-0.100406
4990.000000;-0.100517
4989.000000;-0.100637
4988.000000;-0.100744
4987.000000;-0.100844
4986.000000;-0.100933
4985.000000;-0.101005
4984.000000;-0.101074
4983.000000;-0.101159
4982.000000;-0.101243
4981.000000;-0.101302
4980.000000;-0.101346
4979.000000;-0.101408
4978.000000;-0.101491
4977.000000;-0.101571
4976.000000;-0.101646
4975.000000;-0.101736
4974.000000;-0.101845
4973.000000;-0.101945
4972.000000;-0.102005
4971.000000;-0.102020
4970.000000;-0.102008
4969.000000;-0.102013
4968.000000;-0.102081
4967.000000;-0.102219
4966.000000;-0.102375
4965.000000;-0.102494
4964.000000;-0.102571
4963.000000;-0.102644
4962.000000;-0.102733
4961.000000;-0.102833
4960.000000;-0.102939
4959.000000;-0.103047
4958.000000;-0.103134
4957.000000;-0.103181
4956.000000;-0.103201
4955.000000;-0.103231
4954.000000;-0.103286
4953.000000;-0.103363
4952.000000;-0.103467
4951.000000;-0.103594
4950.000000;-0.103711
4949.000000;-0.103789
4948.000000;-0.103849
4947.000000;-0.103941
4946.000000;-0.104076
4945.000000;-0.104223
4944.000000;-0.104356
4943.000000;-0.104472
4942.000000;-0.104566
4941.000000;-0.104626
4940.000000;-0.104670
4939.000000;-0.104736
4938.000000;-0.104843
4937.000000;-0.104978
4936.000000;-0.105120
4935.000000;-0.105249
4934.000000;-0.105333
4933.000000;-0.105352
4932.000000;-0.105331
4931.000000;-0.105327
4930.000000;-0.105375
4929.000000;-0.105470
4928.000000;-0.105598
4927.000000;-0.105746
4926.000000;-0.105884
4925.000000;-0.105976
4924.000000;-0.106027
4923.000000;-0.106077
4922.000000;-0.106156
4921.000000;-0.106260
4920.000000;-0.106376
4919.000000;-0.106502
4918.000000;-0.106626
4917.000000;-0.106729
4916.000000;-0.106807
4915.000000;-0.106877
4914.000000;-0.106952
4913.000000;-0.107033
4912.000000;-0.107120
4911.000000;-0.107218
4910.000000;-0.107329
4909.000000;-0.107449
4908.000000;-0.107576
4907.000000;-0.107707
4906.000000;-0.107825
4905.000000;-0.107920
4904.000000;-0.108006
4903.000000;-0.108095
4902.000000;-0.108173
4901.000000;-0.108227
4900.000000;-0.108275
4899.000000;-0.108358
4898.000000;-0.108486
4897.000000;-0.108627
4896.000000;-0.108753
4895.000000;-0.108857
4894.000000;-0.108945
4893.000000;-0.109024
4892.000000;-0.109114
4891.000000;-0.109233
4890.000000;-0.109371
4889.000000;-0.109498
4888.000000;-0.109602
4887.000000;-0.109698
4886.000000;-0.109797
4885.000000;-0.109898
4884.000000;-0.110009
4883.000000;-0.110143
4882.000000;-0.110295
4881.000000;-0.110434
4880.000000;-0.110534
4879.000000;-0.110593
4878.000000;-0.110621
4877.000000;-0.110644
4876.000000;-0.110693
4875.000000;-0.110789
4874.000000;-0.110912
4873.000000;-0.111018
4872.000000;-0.111083
4871.000000;-0.111129
4870.000000;-0.111193
4869.000000;-0.111303
4868.000000;-0.111472
4867.000000;-0.111686
4866.000000;-0.111900
4865.000000;-0.112057
4864.000000;-0.112137
4863.000000;-0.112174
4862.000000;-0.112225
4861.000000;-0.112327
4860.000000;-0.112476
4859.000000;-0.112630
4858.000000;-0.112739
4857.000000;-0.112785
4856.000000;-0.112800
4855.000000;-0.112833
4854.000000;-0.112900
4853.000000;-0.112986
4852.000000;-0.113069
4851.000000;-0.113135
4850.000000;-0.113172
4849.000000;-0.113190
4848.000000;-0.113229
4847.000000;-0.113331
4846.000000;-0.113485
4845.000000;-0.113637
4844.000000;-0.113742
4843.000000;-0.113790
4842.000000;-0.113797
4841.000000;-0.113790
4840.000000;-0.113815
4839.000000;-0.113917
4838.000000;-0.114102
4837.000000;-0.114330
4836.000000;-0.114541
4835.000000;-0.114696
4834.000000;-0.114784
4833.000000;-0.114832
4832.000000;-0.114886
4831.000000;-0.114984
4830.000000;-0.115120
4829.000000;-0.115261
4828.000000;-0.115378
4827.000000;-0.115457
4826.000000;-0.115498
4825.000000;-0.115521
4824.000000;-0.115569
4823.000000;-0.115674
4822.000000;-0.115829
4821.000000;-0.115994
4820.000000;-0.116136
4819.000000;-0.116234
4818.000000;-0.116274
4817.000000;-0.116274
4816.000000;-0.116293
4815.000000;-0.116389
4814.000000;-0.116546
4813.000000;-0.116684
4812.000000;-0.116736
4811.000000;-0.116717
4810.000000;-0.116694
4809.000000;-0.116729
4808.000000;-0.116848
4807.000000;-0.117034
4806.000000;-0.117228
4805.000000;-0.117363
4804.000000;-0.117409
4803.000000;-0.117394
4802.000000;-0.117379
4801.000000;-0.117410
4800.000000;-0.117505
4799.000000;-0.117648
4798.000000;-0.117807
4797.000000;-0.117963
4796.000000;-0.118105
4795.000000;-0.118230
4794.000000;-0.118336
4793.000000;-0.118441
4792.000000;-0.118589
4791.000000;-0.118797
4790.000000;-0.119021
4789.000000;-0.119179
4788.000000;-0.119224
4787.000000;-0.119186
4786.000000;-0.119138
4785.000000;-0.119139
4784.000000;-0.119198
4783.000000;-0.119283
4782.000000;-0.119346
4781.000000;-0.119358
4780.000000;-0.119323
4779.000000;-0.119269
4778.000000;-0.119234
4777.000000;-0.119256
4776.000000;-0.119356
4775.000000;-0.119511
4774.000000;-0.119658
4773.000000;-0.119749
4772.000000;-0.119789
4771.000000;-0.119817
4770.000000;-0.119864
4769.000000;-0.119943
4768.000000;-0.120057
4767.000000;-0.120186
4766.000000;-0.120291
4765.000000;-0.120340
4764.000000;-0.120345
4763.000000;-0.120347
4762.000000;-0.120380
4761.000000;-0.120464
4760.000000;-0.120610
4759.000000;-0.120804
4758.000000;-0.121001
4757.000000;-0.121148
4756.000000;-0.121229
4755.000000;-0.121270
4754.000000;-0.121307
4753.000000;-0.121364
4752.000000;-0.121445
4751.000000;-0.121536
4750.000000;-0.121611
4749.000000;-0.121654
4748.000000;-0.121683
4747.000000;-0.121728
4746.000000;-0.121809
4745.000000;-0.121927
4744.000000;-0.122055
4743.000000;-0.122152
4742.000000;-0.122178
4741.000000;-0.122141
4740.000000;-0.122101
4739.000000;-0.122116
4738.000000;-0.122192
4737.000000;-0.122294
4736.000000;-0.122404
4735.000000;-0.122514
4734.000000;-0.122607
4733.000000;-0.122669
4732.000000;-0.122718
4731.000000;-0.122791
4730.000000;-0.122895
4729.000000;-0.122999
4728.000000;-0.123083
4727.000000;-0.123160
4726.000000;-0.123251
4725.000000;-0.123360
4724.000000;-0.123480
4723.000000;-0.123600
4722.000000;-0.123706
4721.000000;-0.123779
4720.000000;-0.123806
4719.000000;-0.123786
4718.000000;-0.123735
4717.000000;-0.123691
4716.000000;-0.123700
4715.000000;-0.123783
4714.000000;-0.123912
4713.000000;-0.124042
4712.000000;-0.124148
4711.000000;-0.124223
4710.000000;-0.124263
4709.000000;-0.124267
4708.000000;-0.124256
4707.000000;-0.124265
4706.000000;-0.124306
4705.000000;-0.124360
4704.000000;-0.124401
4703.000000;-0.124411
4702.000000;-0.124394
4701.000000;-0.124382
4700.000000;-0.124424
4699.000000;-0.124543
4698.000000;-0.124708
4697.000000;-0.124872
4696.000000;-0.125013
4695.000000;-0.125141
4694.000000;-0.125251
4693.000000;-0.125322
4692.000000;-0.125342
4691.000000;-0.125328
4690.000000;-0.125311
4689.000000;-0.125316
4688.000000;-0.125349
4687.000000;-0.125391
4686.000000;-0.125406
4685.000000;-0.125382
4684.000000;-0.125353
4683.000000;-0.125359
4682.000000;-0.125392
4681.000000;-0.125414
4680.000000;-0.125402
4679.000000;-0.125369
4678.000000;-0.125335
4677.000000;-0.125317
4676.000000;-0.125334
4675.000000;-0.125399
4674.000000;-0.125489
4673.000000;-0.125558
4672.000000;-0.125571
4671.000000;-0.125540
4670.000000;-0.125504
4669.000000;-0.125512
4668.000000;-0.125587
4667.000000;-0.125708
4666.000000;-0.125817
4665.000000;-0.125864
4664.000000;-0.125854
4663.000000;-0.125831
4662.000000;-0.125833
4661.000000;-0.125865
4660.000000;-0.125910
4659.000000;-0.125930
4658.000000;-0.125887
4657.000000;-0.125773
4656.000000;-0.125629
4655.000000;-0.125513
4654.000000;-0.125453
4653.000000;-0.125454
4652.000000;-0.125509
4651.000000;-0.125592
4650.000000;-0.125647
4649.000000;-0.125630
4648.000000;-0.125556
4647.000000;-0.125479
4646.000000;-0.125429
4645.000000;-0.125407
4644.000000;-0.125412
4643.000000;-0.125438
4642.000000;-0.125450
4641.000000;-0.125405
4640.000000;-0.125308
4639.000000;-0.125213
4638.000000;-0.125147
4637.000000;-0.125089
4636.000000;-0.125022
4635.000000;-0.124976
4634.000000;-0.124977
4633.000000;-0.125006
4632.000000;-0.125019
4631.000000;-0.125012
4630.000000;-0.125018
4629.000000;-0.125057
4628.000000;-0.125104
4627.000000;-0.125111
4626.000000;-0.125048
4625.000000;-0.124919
4624.000000;-0.124771
4623.000000;-0.124660
4622.000000;-0.124619
4621.000000;-0.124637
4620.000000;-0.124672
4619.000000;-0.124666
4618.000000;-0.124581
4617.000000;-0.124427
4616.000000;-0.124265
4615.000000;-0.124142
4614.000000;-0.124053
4613.000000;-0.123953
4612.000000;-0.123821
4611.000000;-0.123672
4610.000000;-0.123512
4609.000000;-0.123321
4608.000000;-0.123098
4607.000000;-0.122889
4606.000000;-0.122763
4605.000000;-0.122741
4604.000000;-0.122781
4603.000000;-0.122807
4602.000000;-0.122760
4601.000000;-0.122632
4600.000000;-0.122461
4599.000000;-0.122303
4598.000000;-0.122181
4597.000000;-0.122077
4596.000000;-0.121963
4595.000000;-0.121825
4594.000000;-0.121672
4593.000000;-0.121522
4592.000000;-0.121398
4591.000000;-0.121308
4590.000000;-0.121242
4589.000000;-0.121165
4588.000000;-0.121048
4587.000000;-0.120871
4586.000000;-0.120628
4585.000000;-0.120333
4584.000000;-0.120021
4583.000000;-0.119739
4582.000000;-0.119508
4581.000000;-0.119312
4580.000000;-0.119117
4579.000000;-0.118894
4578.000000;-0.118626
4577.000000;-0.118315
4576.000000;-0.117982
4575.000000;-0.117651
4574.000000;-0.117332
4573.000000;-0.117017
4572.000000;-0.116691
4571.000000;-0.116346
4570.000000;-0.115981
4569.000000;-0.115597
4568.000000;-0.115202
4567.000000;-0.114816
4566.000000;-0.114455
4565.000000;-0.114124
4564.000000;-0.113812
4563.000000;-0.113496
4562.000000;-0.113155
4561.000000;-0.112786
4560.000000;-0.112389
4559.000000;-0.111951
4558.000000;-0.111451
4557.000000;-0.110890
4556.000000;-0.110303
4555.000000;-0.109734
4554.000000;-0.109200
4553.000000;-0.108699
4552.000000;-0.108226
4551.000000;-0.107762
4550.000000;-0.107267
4549.000000;-0.106700
4548.000000;-0.106070
4547.000000;-0.105436
4546.000000;-0.104851
4545.000000;-0.104319
4544.000000;-0.103804
4543.000000;-0.103268
4542.000000;-0.102697
4541.000000;-0.102098
4540.000000;-0.101491
4539.000000;-0.100895
4538.000000;-0.100321
4537.000000;-0.099775
4536.000000;-0.099260
4535.000000;-0.098769
4534.000000;-0.098288
4533.000000;-0.097811
4532.000000;-0.097339
4531.000000;-0.096876
4530.000000;-0.096424
4529.000000;-0.096005
4528.000000;-0.095644
4527.000000;-0.095335
4526.000000;-0.095022
4525.000000;-0.094653
4524.000000;-0.094234
4523.000000;-0.093819
4522.000000;-0.093454
4521.000000;-0.093153
4520.000000;-0.092899
4519.000000;-0.092663
4518.000000;-0.092413
4517.000000;-0.092140
4516.000000;-0.091865
4515.000000;-0.091624
4514.000000;-0.091428
4513.000000;-0.091254
4512.000000;-0.091065
4511.000000;-0.090821
4510.000000;-0.090505
4509.000000;-0.090148
4508.000000;-0.089828
4507.000000;-0.089613
4506.000000;-0.089512
4505.000000;-0.089471
4504.000000;-0.089417
4503.000000;-0.089290
4502.000000;-0.089067
4501.000000;-0.088764
4500.000000;-0.088438
4499.000000;-0.088140
4498.000000;-0.087873
4497.000000;-0.087597
4496.000000;-0.087285
4495.000000;-0.086944
4494.000000;-0.086599
4493.000000;-0.086279
4492.000000;-0.086006
4491.000000;-0.085780
4490.000000;-0.085566
4489.000000;-0.085311
4488.000000;-0.084987
4487.000000;-0.084601
4486.000000;-0.084187
4485.000000;-0.083786
4484.000000;-0.083435
4483.000000;-0.083144
4482.000000;-0.082882
4481.000000;-0.082598
4480.000000;-0.082256
4479.000000;-0.081851
4478.000000;-0.081399
4477.000000;-0.080937
4476.000000;-0.080509
4475.000000;-0.080143
4474.000000;-0.079820
4473.000000;-0.079497
4472.000000;-0.079137
4471.000000;-0.078737
4470.000000;-0.078319
4469.000000;-0.077912
4468.000000;-0.077531
4467.000000;-0.077156
4466.000000;-0.076744
4465.000000;-0.076265
4464.000000;-0.075722
4463.000000;-0.075138
4462.000000;-0.074540
4461.000000;-0.073969
4460.000000;-0.073467
4459.000000;-0.073027
4458.000000;-0.072584
4457.000000;-0.072066
4456.000000;-0.071459
4455.000000;-0.070812
4454.000000;-0.070191
4453.000000;-0.069650
4452.000000;-0.069211
4451.000000;-0.068851
4450.000000;-0.068500
4449.000000;-0.068097
4448.000000;-0.067630
4447.000000;-0.067115
4446.000000;-0.066560
4445.000000;-0.065974
4444.000000;-0.065384
4443.000000;-0.064811
4442.000000;-0.064244
4441.000000;-0.063666
4440.000000;-0.063090
4439.000000;-0.062543
4438.000000;-0.062024
4437.000000;-0.061520
4436.000000;-0.061035
4435.000000;-0.060579
4434.000000;-0.060119
4433.000000;-0.059598
4432.000000;-0.058996
4431.000000;-0.058346
4430.000000;-0.057689
4429.000000;-0.057053
4428.000000;-0.056458
4427.000000;-0.055913
4426.000000;-0.055385
4425.000000;-0.054819
4424.000000;-0.054189
4423.000000;-0.053504
4422.000000;-0.052777
4421.000000;-0.052024
4420.000000;-0.051291
4419.000000;-0.050619
4418.000000;-0.049984
4417.000000;-0.049312
4416.000000;-0.048568
4415.000000;-0.047802
4414.000000;-0.047085
4413.000000;-0.046436
4412.000000;-0.045822
4411.000000;-0.045192
4410.000000;-0.044488
4409.000000;-0.043675
4408.000000;-0.042785
4407.000000;-0.041916
4406.000000;-0.041142
4405.000000;-0.040453
4404.000000;-0.039785
4403.000000;-0.039100
4402.000000;-0.038398
4401.000000;-0.037679
4400.000000;-0.036935
4399.000000;-0.036173
4398.000000;-0.035417
4397.000000;-0.034681
4396.000000;-0.033940
4395.000000;-0.033145
4394.000000;-0.032267
4393.000000;-0.031319
4392.000000;-0.030359
4391.000000;-0.029447
4390.000000;-0.028600
4389.000000;-0.027782
4388.000000;-0.026939
4387.000000;-0.026039
4386.000000;-0.025078
4385.000000;-0.024076
4384.000000;-0.023064
4383.000000;-0.022075
4382.000000;-0.021119
4381.000000;-0.020180
4380.000000;-0.019236
4379.000000;-0.018271
4378.000000;-0.017277
4377.000000;-0.016246
4376.000000;-0.015178
4375.000000;-0.014097
4374.000000;-0.013043
4373.000000;-0.012040
4372.000000;-0.011056
4371.000000;-0.010019
4370.000000;-0.008866
4369.000000;-0.007607
4368.000000;-0.006321
4367.000000;-0.005097
4366.000000;-0.003979
4365.000000;-0.002950
4364.000000;-0.001944
4363.000000;-0.000879
4362.000000;0.000296
4361.000000;0.001559
4360.000000;0.002821
4359.000000;0.004014
4358.000000;0.005148
4357.000000;0.006297
4356.000000;0.007532
4355.000000;0.008870
4354.000000;0.010275
4353.000000;0.011680
4352.000000;0.013035
4351.000000;0.014339
4350.000000;0.015629
4349.000000;0.016932
4348.000000;0.018243
4347.000000;0.019575
4346.000000;0.020979
4345.000000;0.022487
4344.000000;0.024048
4343.000000;0.025554
4342.000000;0.026944
4341.000000;0.028254
4340.000000;0.029565
4339.000000;0.030928
4338.000000;0.032329
4337.000000;0.033728
4336.000000;0.035115
4335.000000;0.036523
4334.000000;0.038000
4333.000000;0.039557
4332.000000;0.041166
4331.000000;0.042820
4330.000000;0.044531
4329.000000;0.046273
4328.000000;0.047948
4327.000000;0.049463
4326.000000;0.050828
4325.000000;0.052141
4324.000000;0.053506
4323.000000;0.054977
4322.000000;0.056570
4321.000000;0.058259
4320.000000;0.059974
4319.000000;0.061639
4318.000000;0.063221
4317.000000;0.064748
4316.000000;0.066277
4315.000000;0.067880
4314.000000;0.069607
4313.000000;0.071426
4312.000000;0.073209
4311.000000;0.074836
4310.000000;0.076323
4309.000000;0.077814
4308.000000;0.079441
4307.000000;0.081224
4306.000000;0.083086
4305.000000;0.084949
4304.000000;0.086766
4303.000000;0.088527
4302.000000;0.090257
4301.000000;0.091997
4300.000000;0.093780
4299.000000;0.095616
4298.000000;0.097511
4297.000000;0.099470
4296.000000;0.101474
4295.000000;0.103463
4294.000000;0.105379
4293.000000;0.107218
4292.000000;0.109030
4291.000000;0.110864
4290.000000;0.112725
4289.000000;0.114589
4288.000000;0.116461
4287.000000;0.118386
4286.000000;0.120392
4285.000000;0.122447
4284.000000;0.124489
4283.000000;0.126517
4282.000000;0.128578
4281.000000;0.130678
4280.000000;0.132747
4279.000000;0.134719
4278.000000;0.136629
4277.000000;0.138586
4276.000000;0.140680
4275.000000;0.142911
4274.000000;0.145205
4273.000000;0.147457
4272.000000;0.149583
4271.000000;0.151578
4270.000000;0.153527
4269.000000;0.155558
4268.000000;0.157753
4267.000000;0.160099
4266.000000;0.162493
4265.000000;0.164821
4264.000000;0.167056
4263.000000;0.169274
4262.000000;0.171560
4261.000000;0.173895
4260.000000;0.176206
4259.000000;0.178484
4258.000000;0.180790
4257.000000;0.183132
4256.000000;0.185423
4255.000000;0.187608
4254.000000;0.189752
4253.000000;0.191952
4252.000000;0.194216
4251.000000;0.196496
4250.000000;0.198783
4249.000000;0.201103
4248.000000;0.203454
4247.000000;0.205822
4246.000000;0.208236
4245.000000;0.210759
4244.000000;0.213417
4243.000000;0.216159
4242.000000;0.218884
4241.000000;0.221482
4240.000000;0.223900
4239.000000;0.226198
4238.000000;0.228529
4237.000000;0.231014
4236.000000;0.233664
4235.000000;0.236420
4234.000000;0.239206
4233.000000;0.241933
4232.000000;0.244508
4231.000000;0.246936
4230.000000;0.249365
4229.000000;0.251966
4228.000000;0.254783
4227.000000;0.257735
4226.000000;0.260733
4225.000000;0.263732
4224.000000;0.266713
4223.000000;0.269673
4222.000000;0.272640
4221.000000;0.275640
4220.000000;0.278667
4219.000000;0.281708
4218.000000;0.284761
4217.000000;0.287793
4216.000000;0.290724
4215.000000;0.293502
4214.000000;0.296186
4213.000000;0.298892
4212.000000;0.301705
4211.000000;0.304651
4210.000000;0.307729
4209.000000;0.310920
4208.000000;0.314205
4207.000000;0.317590
4206.000000;0.321072
4205.000000;0.324571
4204.000000;0.327952
4203.000000;0.331160
4202.000000;0.334269
4201.000000;0.337373
4200.000000;0.340521
4199.000000;0.343789
4198.000000;0.347295
4197.000000;0.351061
4196.000000;0.354934
4195.000000;0.358749
4194.000000;0.362490
4193.000000;0.366197
4192.000000;0.369841
4191.000000;0.373408
4190.000000;0.377044
4189.000000;0.380918
4188.000000;0.384963
4187.000000;0.388895
4186.000000;0.392523
4185.000000;0.395934
4184.000000;0.399382
4183.000000;0.403056
4182.000000;0.406974
4181.000000;0.410989
4180.000000;0.414890
4179.000000;0.418560
4178.000000;0.422045
4177.000000;0.425490
4176.000000;0.429051
4175.000000;0.432887
4174.000000;0.437085
4173.000000;0.441517
4172.000000;0.445868
4171.000000;0.449927
4170.000000;0.453787
4169.000000;0.457664
4168.000000;0.461633
4167.000000;0.465659
4166.000000;0.469795
4165.000000;0.474146
4164.000000;0.478653
4163.000000;0.483104
4162.000000;0.487355
4161.000000;0.491438
4160.000000;0.495466
4159.000000;0.499551
4158.000000;0.503792
4157.000000;0.508212
4156.000000;0.512705
4155.000000;0.517153
4154.000000;0.521563
4153.000000;0.526017
4152.000000;0.530504
4151.000000;0.534942
4150.000000;0.539330
4149.000000;0.543767
4148.000000;0.548314
4147.000000;0.552909
4146.000000;0.557398
4145.000000;0.561635
4144.000000;0.565645
4143.000000;0.569767
4142.000000;0.574463
4141.000000;0.579790
4140.000000;0.585139
4139.000000;0.589720
4138.000000;0.593331
4137.000000;0.596519
4136.000000;0.600033
4135.000000;0.604241
4134.000000;0.608981
4133.000000;0.613770
4132.000000;0.618166
4131.000000;0.622104
4130.000000;0.625896
4129.000000;0.629859
4128.000000;0.634036
4127.000000;0.638343
4126.000000;0.642820
4125.000000;0.647532
4124.000000;0.652338
4123.000000;0.657009
4122.000000;0.661511
4121.000000;0.665972
4120.000000;0.670400
4119.000000;0.674684
4118.000000;0.678839
4117.000000;0.683021
4116.000000;0.687297
4115.000000;0.691586
4114.000000;0.695793
4113.000000;0.699813
4112.000000;0.703443
4111.000000;0.706582
4110.000000;0.709577
4109.000000;0.713108
4108.000000;0.717589
4107.000000;0.722756
4106.000000;0.727878
4105.000000;0.732263
4104.000000;0.735629
4103.000000;0.738202
4102.000000;0.740566
4101.000000;0.743320
4100.000000;0.746786
4099.000000;0.750983
4098.000000;0.755727
4097.000000;0.760626
4096.000000;0.765106
4095.000000;0.768721
4094.000000;0.771488
4093.000000;0.773832
4092.000000;0.776213
4091.000000;0.778912
4090.000000;0.782061
4089.000000;0.785652
4088.000000;0.789457
4087.000000;0.793113
4086.000000;0.796373
4085.000000;0.799241
4084.000000;0.801923
4083.000000;0.804648
4082.000000;0.807463
4081.000000;0.810107
4080.000000;0.812173
4079.000000;0.813548
4078.000000;0.814619
4077.000000;0.815930
4076.000000;0.817689
4075.000000;0.819764
4074.000000;0.822018
4073.000000;0.824361
4072.000000;0.826491
4071.000000;0.827958
4070.000000;0.828690
4069.000000;0.829254
4068.000000;0.830355
4067.000000;0.832117
4066.000000;0.834054
4065.000000;0.835664
4064.000000;0.836818
4063.000000;0.837538
4062.000000;0.837719
4061.000000;0.837344
4060.000000;0.836771
4059.000000;0.836501
4058.000000;0.836662
4057.000000;0.837005
4056.000000;0.837386
4055.000000;0.837938
4054.000000;0.838655
4053.000000;0.839139
4052.000000;0.839031
4051.000000;0.838527
4050.000000;0.838167
4049.000000;0.838215
4048.000000;0.838436
4047.000000;0.838409
4046.000000;0.837834
4045.000000;0.836592
4044.000000;0.834770
4043.000000;0.832687
4042.000000;0.830709
4041.000000;0.828949
4040.000000;0.827215
4039.000000;0.825303
4038.000000;0.823315
4037.000000;0.821614
4036.000000;0.820432
4035.000000;0.819496
4034.000000;0.818148
4033.000000;0.815946
4032.000000;0.813141
4031.000000;0.810410
4030.000000;0.808144
4029.000000;0.806154
4028.000000;0.804060
4027.000000;0.801746
4026.000000;0.799355
4025.000000;0.797016
4024.000000;0.794697
4023.000000;0.792231
4022.000000;0.789415
4021.000000;0.786177
4020.000000;0.782659
4019.000000;0.779129
4018.000000;0.775843
4017.000000;0.773025
4016.000000;0.770804
4015.000000;0.768939
4014.000000;0.766716
4013.000000;0.763493
4012.000000;0.759404
4011.000000;0.755305
4010.000000;0.751960
4009.000000;0.749451
4008.000000;0.747300
4007.000000;0.744873
4006.000000;0.741696
4005.000000;0.737749
4004.000000;0.733553
4003.000000;0.729730
4002.000000;0.726450
4001.000000;0.723438
4000.000000;0.720434
3999.000000;0.717403
3998.000000;0.714312
3997.000000;0.711085
3996.000000;0.707841
3995.000000;0.704837
3994.000000;0.702086
3993.000000;0.699327
3992.000000;0.696422
3991.000000;0.693442
3990.000000;0.690269
3989.000000;0.686551
3988.000000;0.682329
3987.000000;0.678290
3986.000000;0.675006
3985.000000;0.672173
3984.000000;0.669033
3983.000000;0.665382
3982.000000;0.661725
3981.000000;0.658447
3980.000000;0.655286
3979.000000;0.651751
3978.000000;0.647777
3977.000000;0.643768
3976.000000;0.640144
3975.000000;0.636992
3974.000000;0.634064
3973.000000;0.631015
3972.000000;0.627667
3971.000000;0.624103
3970.000000;0.620561
3969.000000;0.617215
3968.000000;0.614047
3967.000000;0.610866
3966.000000;0.607433
3965.000000;0.603650
3964.000000;0.599675
3963.000000;0.595858
3962.000000;0.592492
3961.000000;0.589565
3960.000000;0.586735
3959.000000;0.583563
3958.000000;0.579831
3957.000000;0.575714
3956.000000;0.571643
3955.000000;0.567935
3954.000000;0.564543
3953.000000;0.561187
3952.000000;0.557680
3951.000000;0.554043
3950.000000;0.550397
3949.000000;0.546895
3948.000000;0.543746
3947.000000;0.541045
3946.000000;0.538466
3945.000000;0.535352
3944.000000;0.531355
3943.000000;0.526904
3942.000000;0.522819
3941.000000;0.519475
3940.000000;0.516558
3939.000000;0.513600
3938.000000;0.510459
3937.000000;0.507106
3936.000000;0.503221
3935.000000;0.498434
3934.000000;0.492997
3933.000000;0.487870
3932.000000;0.483940
3931.000000;0.481251
3930.000000;0.479053
3929.000000;0.476459
3928.000000;0.473027
3927.000000;0.468928
3926.000000;0.464769
3925.000000;0.461133
3924.000000;0.458039
3923.000000;0.454908
3922.000000;0.451189
3921.000000;0.446957
3920.000000;0.442722
3919.000000;0.438818
3918.000000;0.435236
3917.000000;0.431921
3916.000000;0.428833
3915.000000;0.425723
3914.000000;0.422271
3913.000000;0.418575
3912.000000;0.415164
3911.000000;0.412339
3910.000000;0.409768
3909.000000;0.406878
3908.000000;0.403384
3907.000000;0.399296
3906.000000;0.394743
3905.000000;0.390038
3904.000000;0.385659
3903.000000;0.381868
3902.000000;0.378528
3901.000000;0.375485
3900.000000;0.372891
3899.000000;0.370867
3898.000000;0.369079
3897.000000;0.366996
3896.000000;0.364453
3895.000000;0.361615
3894.000000;0.358524
3893.000000;0.355138
3892.000000;0.351780
3891.000000;0.349044
3890.000000;0.347063
3889.000000;0.345209
3888.000000;0.342751
3887.000000;0.339663
3886.000000;0.336568
3885.000000;0.333983
3884.000000;0.331793
3883.000000;0.329454
3882.000000;0.326623
3881.000000;0.323555
3880.000000;0.320845
3879.000000;0.318720
3878.000000;0.316701
3877.000000;0.314158
3876.000000;0.311103
3875.000000;0.308130
3874.000000;0.305595
3873.000000;0.303208
3872.000000;0.300623
3871.000000;0.298023
3870.000000;0.295818
3869.000000;0.293974
3868.000000;0.291978
3867.000000;0.289479
3866.000000;0.286744
3865.000000;0.284374
3864.000000;0.282653
3863.000000;0.281246
3862.000000;0.279553
3861.000000;0.277302
3860.000000;0.274745
3859.000000;0.272297
3858.000000;0.270046
3857.000000;0.267660
3856.000000;0.264813
3855.000000;0.261641
3854.000000;0.258687
3853.000000;0.256403
3852.000000;0.254786
3851.000000;0.253512
3850.000000;0.252252
3849.000000;0.250757
3848.000000;0.248911
3847.000000;0.246754
3846.000000;0.244428
3845.000000;0.242131
3844.000000;0.239940
3843.000000;0.237688
3842.000000;0.235192
3841.000000;0.232546
3840.000000;0.230053
3839.000000;0.227866
3838.000000;0.225856
3837.000000;0.223832
3836.000000;0.221706
3835.000000;0.219458
3834.000000;0.217115
3833.000000;0.214839
3832.000000;0.212827
3831.000000;0.211016
3830.000000;0.209069
3829.000000;0.206774
3828.000000;0.204348
3827.000000;0.202200
3826.000000;0.200465
3825.000000;0.198870
3824.000000;0.196990
3823.000000;0.194574
3822.000000;0.191749
3821.000000;0.188960
3820.000000;0.186591
3819.000000;0.184588
3818.000000;0.182573
3817.000000;0.180333
3816.000000;0.178085
3815.000000;0.176064
3814.000000;0.174086
3813.000000;0.171864
3812.000000;0.169539
3811.000000;0.167439
3810.000000;0.165483
3809.000000;0.163243
3808.000000;0.160585
3807.000000;0.157865
3806.000000;0.155403
3805.000000;0.153134
3804.000000;0.150901
3803.000000;0.148740
3802.000000;0.146669
3801.000000;0.144408
3800.000000;0.141636
3799.000000;0.138475
3798.000000;0.135464
3797.000000;0.133045
3796.000000;0.131196
3795.000000;0.129512
3794.000000;0.127564
3793.000000;0.125246
3792.000000;0.122805
3791.000000;0.120559
3790.000000;0.118555
3789.000000;0.116465
3788.000000;0.113905
3787.000000;0.110901
3786.000000;0.107990
3785.000000;0.105783
3784.000000;0.104390
3783.000000;0.103310
3782.000000;0.101904
3781.000000;0.099917
3780.000000;0.097525
3779.000000;0.094991
3778.000000;0.092433
3777.000000;0.089869
3776.000000;0.087282
3775.000000;0.084606
3774.000000;0.081786
3773.000000;0.078918
3772.000000;0.076192
3771.000000;0.073689
3770.000000;0.071284
3769.000000;0.068820
3768.000000;0.066283
3767.000000;0.063754
3766.000000;0.061284
3765.000000;0.058864
3764.000000;0.056464
3763.000000;0.054053
3762.000000;0.051648
3761.000000;0.049356
3760.000000;0.047216
3759.000000;0.045037
3758.000000;0.042542
3757.000000;0.039686
3756.000000;0.036686
3755.000000;0.033692
3754.000000;0.030648
3753.000000;0.027512
3752.000000;0.024422
3751.000000;0.021534
3750.000000;0.018829
3749.000000;0.016176
3748.000000;0.013508
3747.000000;0.010830
3746.000000;0.008202
3745.000000;0.005689
3744.000000;0.003198
3743.000000;0.000491
3742.000000;-0.002518
3741.000000;-0.005568
3740.000000;-0.008324
3739.000000;-0.010859
3738.000000;-0.013554
3737.000000;-0.016457
3736.000000;-0.019139
3735.000000;-0.021324
3734.000000;-0.023329
3733.000000;-0.025681
3732.000000;-0.028536
3731.000000;-0.031665
3730.000000;-0.034809
3729.000000;-0.037854
3728.000000;-0.040803
3727.000000;-0.043752
3726.000000;-0.046851
3725.000000;-0.050110
3724.000000;-0.053291
3723.000000;-0.056146
3722.000000;-0.058673
3721.000000;-0.061041
3720.000000;-0.063376
3719.000000;-0.065798
3718.000000;-0.068517
3717.000000;-0.071650
3716.000000;-0.074978
3715.000000;-0.078088
3714.000000;-0.080806
3713.000000;-0.083359
3712.000000;-0.086159
3711.000000;-0.089490
3710.000000;-0.093290
3709.000000;-0.097144
3708.000000;-0.100586
3707.000000;-0.103557
3706.000000;-0.106452
3705.000000;-0.109669
3704.000000;-0.113153
3703.000000;-0.116483
3702.000000;-0.119370
3701.000000;-0.121909
3700.000000;-0.124408
3699.000000;-0.127137
3698.000000;-0.130248
3697.000000;-0.133730
3696.000000;-0.137365
3695.000000;-0.140857
3694.000000;-0.144093
3693.000000;-0.147198
3692.000000;-0.150354
3691.000000;-0.153598
3690.000000;-0.156824
3689.000000;-0.159961
3688.000000;-0.163090
3687.000000;-0.166359
3686.000000;-0.169759
3685.000000;-0.173064
3684.000000;-0.176082
3683.000000;-0.178969
3682.000000;-0.182063
3681.000000;-0.185377
3680.000000;-0.188609
3679.000000;-0.191625
3678.000000;-0.194656
3677.000000;-0.197943
3676.000000;-0.201476
3675.000000;-0.205168
3674.000000;-0.209011
3673.000000;-0.212890
3672.000000;-0.216564
3671.000000;-0.219981
3670.000000;-0.223377
3669.000000;-0.226957
3668.000000;-0.230563
3667.000000;-0.233850
3666.000000;-0.236794
3665.000000;-0.239734
3664.000000;-0.242946
3663.000000;-0.246500
3662.000000;-0.250331
3661.000000;-0.254188
3660.000000;-0.257664
3659.000000;-0.260585
3658.000000;-0.263319
3657.000000;-0.266493
3656.000000;-0.270372
3655.000000;-0.274671
3654.000000;-0.278915
3653.000000;-0.282792
3652.000000;-0.286235
3651.000000;-0.289447
3650.000000;-0.292831
3649.000000;-0.296633
3648.000000;-0.300580
3647.000000;-0.304146
3646.000000;-0.307220
3645.000000;-0.310216
3644.000000;-0.313425
3643.000000;-0.316653
3642.000000;-0.319645
3641.000000;-0.322534
3640.000000;-0.325740
3639.000000;-0.329524
3638.000000;-0.333792
3637.000000;-0.338256
3636.000000;-0.342631
3635.000000;-0.346683
3634.000000;-0.350234
3633.000000;-0.353294
3632.000000;-0.356183
3631.000000;-0.359366
3630.000000;-0.363043
3629.000000;-0.366948
3628.000000;-0.370623
3627.000000;-0.373845
3626.000000;-0.376707
3625.000000;-0.379441
3624.000000;-0.382269
3623.000000;-0.385390
3622.000000;-0.388904
3621.000000;-0.392611
3620.000000;-0.396155
3619.000000;-0.399537
3618.000000;-0.403121
3617.000000;-0.407039
3616.000000;-0.410899
3615.000000;-0.414302
3614.000000;-0.417324
3613.000000;-0.420268
3612.000000;-0.423175
3611.000000;-0.425866
3610.000000;-0.428312
3609.000000;-0.430660
3608.000000;-0.433009
3607.000000;-0.435436
3606.000000;-0.438160
3605.000000;-0.441360
3604.000000;-0.444874
3603.000000;-0.448305
3602.000000;-0.451367
3601.000000;-0.453955
3600.000000;-0.455999
3599.000000;-0.457583
3598.000000;-0.459117
3597.000000;-0.461045
3596.000000;-0.463350
3595.000000;-0.465658
3594.000000;-0.467818
3593.000000;-0.470021
3592.000000;-0.472282
3591.000000;-0.474202
3590.000000;-0.475438
3589.000000;-0.476185
3588.000000;-0.477016
3587.000000;-0.478373
3586.000000;-0.480299
3585.000000;-0.482487
3584.000000;-0.484490
3583.000000;-0.485982
3582.000000;-0.486986
3581.000000;-0.487857
3580.000000;-0.488946
3579.000000;-0.490312
3578.000000;-0.491801
3577.000000;-0.493251
3576.000000;-0.494522
3575.000000;-0.495455
3574.000000;-0.495985
3573.000000;-0.496223
3572.000000;-0.496354
3571.000000;-0.496497
3570.000000;-0.496704
3569.000000;-0.497044
3568.000000;-0.497531
3567.000000;-0.497978
3566.000000;-0.498008
3565.000000;-0.497343
3564.000000;-0.496165
3563.000000;-0.495145
3562.000000;-0.494908
3561.000000;-0.495374
3560.000000;-0.495732
3559.000000;-0.495205
3558.000000;-0.493884
3557.000000;-0.492667
3556.000000;-0.492284
3555.000000;-0.492511
3554.000000;-0.492443
3553.000000;-0.491423
3552.000000;-0.489544
3551.000000;-0.487372
3550.000000;-0.485427
3549.000000;-0.483996
3548.000000;-0.483155
3547.000000;-0.482701
3546.000000;-0.482115
3545.000000;-0.480877
3544.000000;-0.478992
3543.000000;-0.477023
3542.000000;-0.475467
3541.000000;-0.474197
3540.000000;-0.472735
3539.000000;-0.470919
3538.000000;-0.469008
3537.000000;-0.467175
3536.000000;-0.465265
3535.000000;-0.463173
3534.000000;-0.461143
3533.000000;-0.459445
3532.000000;-0.457964
3531.000000;-0.456350
3530.000000;-0.454448
3529.000000;-0.452340
3528.000000;-0.450051
3527.000000;-0.447458
3526.000000;-0.444516
3525.000000;-0.441429
3524.000000;-0.438574
3523.000000;-0.436320
3522.000000;-0.434801
3521.000000;-0.433762
3520.000000;-0.432677
3519.000000;-0.431153
3518.000000;-0.429193
3517.000000;-0.427048
3516.000000;-0.424907
3515.000000;-0.422777
3514.000000;-0.420486
3513.000000;-0.417756
3512.000000;-0.414494
3511.000000;-0.411147
3510.000000;-0.408511
3509.000000;-0.406920
3508.000000;-0.405823
3507.000000;-0.404410
3506.000000;-0.402448
3505.000000;-0.400193
3504.000000;-0.397763
3503.000000;-0.395077
3502.000000;-0.392333
3501.000000;-0.390010
3500.000000;-0.388231
3499.000000;-0.386494
3498.000000;-0.384260
3497.000000;-0.381578
3496.000000;-0.378975
3495.000000;-0.376903
3494.000000;-0.375401
3493.000000;-0.374097
3492.000000;-0.372434
3491.000000;-0.370051
3490.000000;-0.367057
3489.000000;-0.363849
3488.000000;-0.360674
3487.000000;-0.357550
3486.000000;-0.354608
3485.000000;-0.352161
3484.000000;-0.350255
3483.000000;-0.348427
3482.000000;-0.346152
3481.000000;-0.343444
3480.000000;-0.340809
3479.000000;-0.338664
3478.000000;-0.336950
3477.000000;-0.335287
3476.000000;-0.333376
3475.000000;-0.331266
3474.000000;-0.329257
3473.000000;-0.327522
3472.000000;-0.325809
3471.000000;-0.323633
3470.000000;-0.320831
3469.000000;-0.317805
3468.000000;-0.315147
3467.000000;-0.313053
3466.000000;-0.311230
3465.000000;-0.309304
3464.000000;-0.307202
3463.000000;-0.305106
3462.000000;-0.303146
3461.000000;-0.301252
3460.000000;-0.299297
3459.000000;-0.297264
3458.000000;-0.295208
3457.000000;-0.293128
3456.000000;-0.291024
3455.000000;-0.289042
3454.000000;-0.287372
3453.000000;-0.285929
3452.000000;-0.284330
3451.000000;-0.282316
3450.000000;-0.280018
3449.000000;-0.277690
3448.000000;-0.275380
3447.000000;-0.273070
3446.000000;-0.270967
3445.000000;-0.269300
3444.000000;-0.267895
3443.000000;-0.266254
3442.000000;-0.264106
3441.000000;-0.261667
3440.000000;-0.259332
3439.000000;-0.257320
3438.000000;-0.255637
3437.000000;-0.254177
3436.000000;-0.252787
3435.000000;-0.251394
3434.000000;-0.250066
3433.000000;-0.248750
3432.000000;-0.247024
3431.000000;-0.244466
3430.000000;-0.241349
3429.000000;-0.238652
3428.000000;-0.237147
3427.000000;-0.236629
3426.000000;-0.236202
3425.000000;-0.235154
3424.000000;-0.233389
3423.000000;-0.231226
3422.000000;-0.229052
3421.000000;-0.227120
3420.000000;-0.225494
3419.000000;-0.224090
3418.000000;-0.222794
3417.000000;-0.221503
3416.000000;-0.220081
3415.000000;-0.218404
3414.000000;-0.216508
3413.000000;-0.214612
3412.000000;-0.212916
3411.000000;-0.211434
3410.000000;-0.210030
3409.000000;-0.208544
3408.000000;-0.206884
3407.000000;-0.205107
3406.000000;-0.203444
3405.000000;-0.202082
3404.000000;-0.200893
3403.000000;-0.199530
3402.000000;-0.197846
3401.000000;-0.196085
3400.000000;-0.194596
3399.000000;-0.193465
3398.000000;-0.192493
3397.000000;-0.191397
3396.000000;-0.189955
3395.000000;-0.188081
3394.000000;-0.185898
3393.000000;-0.183692
3392.000000;-0.181752
3391.000000;-0.180246
3390.000000;-0.179217
3389.000000;-0.178534
3388.000000;-0.177867
3387.000000;-0.176856
3386.000000;-0.175406
3385.000000;-0.173726
3384.000000;-0.172101
3383.000000;-0.170736
3382.000000;-0.169767
3381.000000;-0.169172
3380.000000;-0.168597
3379.000000;-0.167529
3378.000000;-0.165796
3377.000000;-0.163763
3376.000000;-0.161936
3375.000000;-0.160518
3374.000000;-0.159421
3373.000000;-0.158511
3372.000000;-0.157661
3371.000000;-0.156724
3370.000000;-0.155649
3369.000000;-0.154506
3368.000000;-0.153245
3367.000000;-0.151576
3366.000000;-0.149307
3365.000000;-0.146737
3364.000000;-0.144524
3363.000000;-0.143146
3362.000000;-0.142573
3361.000000;-0.142370
3360.000000;-0.141970
3359.000000;-0.140976
3358.000000;-0.139456
3357.000000;-0.137897
3356.000000;-0.136729
3355.000000;-0.135919
3354.000000;-0.135172
3353.000000;-0.134399
3352.000000;-0.133744
3351.000000;-0.133165
3350.000000;-0.132332
3349.000000;-0.131045
3348.000000;-0.129510
3347.000000;-0.128051
3346.000000;-0.126723
3345.000000;-0.125401
3344.000000;-0.124137
3343.000000;-0.123155
3342.000000;-0.122475
3341.000000;-0.121748
3340.000000;-0.120596
3339.000000;-0.119047
3338.000000;-0.117499
3337.000000;-0.116318
3336.000000;-0.115585
3335.000000;-0.115210
3334.000000;-0.115081
3333.000000;-0.114988
3332.000000;-0.114547
3331.000000;-0.113468
3330.000000;-0.111935
3329.000000;-0.110500
3328.000000;-0.109508
3327.000000;-0.108743
3326.000000;-0.107765
3325.000000;-0.106498
3324.000000;-0.105301
3323.000000;-0.104466
3322.000000;-0.103831
3321.000000;-0.102961
3320.000000;-0.101624
3319.000000;-0.100018
3318.000000;-0.098592
3317.000000;-0.097709
3316.000000;-0.097426
3315.000000;-0.097460
3314.000000;-0.097324
3313.000000;-0.096589
3312.000000;-0.095211
3311.000000;-0.093581
3310.000000;-0.092175
3309.000000;-0.091108
3308.000000;-0.090141
3307.000000;-0.089119
3306.000000;-0.088181
3305.000000;-0.087478
3304.000000;-0.086867
3303.000000;-0.086121
3302.000000;-0.085268
3301.000000;-0.084484
3300.000000;-0.083765
3299.000000;-0.082987
3298.000000;-0.082252
3297.000000;-0.081800
3296.000000;-0.081552
3295.000000;-0.081083
3294.000000;-0.080204
3293.000000;-0.079257
3292.000000;-0.078634
3291.000000;-0.078256
3290.000000;-0.077760
3289.000000;-0.076991
3288.000000;-0.076056
3287.000000;-0.075030
3286.000000;-0.073903
3285.000000;-0.072732
3284.000000;-0.071594
3283.000000;-0.070459
3282.000000;-0.069353
3281.000000;-0.068532
3280.000000;-0.068201
3279.000000;-0.068104
3278.000000;-0.067712
3277.000000;-0.066856
3276.000000;-0.065900
3275.000000;-0.065234
3274.000000;-0.064838
3273.000000;-0.064438
3272.000000;-0.063829
3271.000000;-0.062907
3270.000000;-0.061616
3269.000000;-0.060074
3268.000000;-0.058636
3267.000000;-0.057618
3266.000000;-0.056984
3265.000000;-0.056435
3264.000000;-0.055755
3263.000000;-0.054970
3262.000000;-0.054230
3261.000000;-0.053649
3260.000000;-0.053253
3259.000000;-0.052965
3258.000000;-0.052631
3257.000000;-0.052092
3256.000000;-0.051288
3255.000000;-0.050282
3254.000000;-0.049241
3253.000000;-0.048353
3252.000000;-0.047689
3251.000000;-0.047131
3250.000000;-0.046518
3249.000000;-0.045863
3248.000000;-0.045309
3247.000000;-0.044873
3246.000000;-0.044382
3245.000000;-0.043718
3244.000000;-0.042984
3243.000000;-0.042335
3242.000000;-0.041799
3241.000000;-0.041354
3240.000000;-0.041025
3239.000000;-0.040739
3238.000000;-0.040240
3237.000000;-0.039379
3236.000000;-0.038370
3235.000000;-0.037535
3234.000000;-0.036850
3233.000000;-0.036029
3232.000000;-0.035061
3231.000000;-0.034354
3230.000000;-0.034226
3229.000000;-0.034487
3228.000000;-0.034674
3227.000000;-0.034531
3226.000000;-0.034121
3225.000000;-0.033572
3224.000000;-0.032890
3223.000000;-0.032005
3222.000000;-0.030908
3221.000000;-0.029773
3220.000000;-0.028902
3219.000000;-0.028442
3218.000000;-0.028136
3217.000000;-0.027544
3216.000000;-0.026585
3215.000000;-0.025680
3214.000000;-0.025238
3213.000000;-0.025199
3212.000000;-0.025207
3211.000000;-0.025022
3210.000000;-0.024557
3209.000000;-0.023710
3208.000000;-0.022514
3207.000000;-0.021366
3206.000000;-0.020749
3205.000000;-0.020644
3204.000000;-0.020489
3203.000000;-0.019835
3202.000000;-0.018827
3201.000000;-0.017951
3200.000000;-0.017485
3199.000000;-0.017287
3198.000000;-0.017001
3197.000000;-0.016323
3196.000000;-0.015206
3195.000000;-0.013951
3194.000000;-0.013047
3193.000000;-0.012826
3192.000000;-0.013243
3191.000000;-0.013971
3190.000000;-0.014595
3189.000000;-0.014747
3188.000000;-0.014243
3187.000000;-0.013203
3186.000000;-0.011967
3185.000000;-0.010813
3184.000000;-0.009802
3183.000000;-0.008912
3182.000000;-0.008193
3181.000000;-0.007739
3180.000000;-0.007570
3179.000000;-0.007587
3178.000000;-0.007562
3177.000000;-0.007228
3176.000000;-0.006533
3175.000000;-0.005782
3174.000000;-0.005312
3173.000000;-0.005000
3172.000000;-0.004359
3171.000000;-0.003232
3170.000000;-0.002090
3169.000000;-0.001440
3168.000000;-0.001169
3167.000000;-0.000776
3166.000000;-0.000070
3165.000000;0.000674
3164.000000;0.001188
3163.000000;0.001479
3162.000000;0.001645
3161.000000;0.001718
3160.000000;0.001792
3159.000000;0.002036
3158.000000;0.002484
3157.000000;0.002967
3156.000000;0.003384
3155.000000;0.003870
3154.000000;0.004556
3153.000000;0.005299
3152.000000;0.005793
3151.000000;0.005905
3150.000000;0.005803
3149.000000;0.005788
3148.000000;0.006071
3147.000000;0.006682
3146.000000;0.007497
3145.000000;0.008341
3144.000000;0.009102
3143.000000;0.009757
3142.000000;0.010318
3141.000000;0.010792
3140.000000;0.011191
3139.000000;0.011518
3138.000000;0.011752
3137.000000;0.011901
3136.000000;0.012075
3135.000000;0.012417
3134.000000;0.012931
3133.000000;0.013434
3132.000000;0.013732
3131.000000;0.013802
3130.000000;0.013763
3129.000000;0.013723
3128.000000;0.013756
3127.000000;0.013991
3126.000000;0.014587
3125.000000;0.015568
3124.000000;0.016706
3123.000000;0.017655
3122.000000;0.018216
3121.000000;0.018474
3120.000000;0.018645
3119.000000;0.018858
3118.000000;0.019117
3117.000000;0.019456
3116.000000;0.020015
3115.000000;0.020892
3114.000000;0.021927
3113.000000;0.022740
3112.000000;0.023044
3111.000000;0.022918
3110.000000;0.022735
3109.000000;0.022822
3108.000000;0.023206
3107.000000;0.023697
3106.000000;0.024199
3105.000000;0.024829
3104.000000;0.025709
3103.000000;0.026681
3102.000000;0.027373
3101.000000;0.027588
3100.000000;0.027532
3099.000000;0.027606
3098.000000;0.028003
3097.000000;0.028578
3096.000000;0.029095
3095.000000;0.029500
3094.000000;0.029911
3093.000000;0.030403
3092.000000;0.030928
3091.000000;0.031451
3090.000000;0.032028
3089.000000;0.032611
3088.000000;0.032925
3087.000000;0.032747
3086.000000;0.032333
3085.000000;0.032294
3084.000000;0.032907
3083.000000;0.033739
3082.000000;0.034158
3081.000000;0.034086
3080.000000;0.034011
3079.000000;0.034345
3078.000000;0.035042
3077.000000;0.035827
3076.000000;0.036514
3075.000000;0.037045
3074.000000;0.037437
3073.000000;0.037783
3072.000000;0.038163
3071.000000;0.038507
3070.000000;0.038747
3069.000000;0.039063
3068.000000;0.039727
3067.000000;0.040661
3066.000000;0.041437
3065.000000;0.041804
3064.000000;0.041939
3063.000000;0.042053
3062.000000;0.042115
3061.000000;0.042183
3060.000000;0.042609
3059.000000;0.043569
3058.000000;0.044625
3057.000000;0.045207
3056.000000;0.045353
3055.000000;0.045548
3054.000000;0.045949
3053.000000;0.046258
3052.000000;0.046373
3051.000000;0.046650
3050.000000;0.047358
3049.000000;0.048243
3048.000000;0.048869
3047.000000;0.049137
3046.000000;0.049283
3045.000000;0.049567
3044.000000;0.050122
3043.000000;0.050916
3042.000000;0.051675
3041.000000;0.052009
3040.000000;0.051830
3039.000000;0.051496
3038.000000;0.051379
3037.000000;0.051429
3036.000000;0.051392
3035.000000;0.051337
3034.000000;0.051690
3033.000000;0.052713
3032.000000;0.054152
3031.000000;0.055477
3030.000000;0.056354
3029.000000;0.056855
3028.000000;0.057251
3027.000000;0.057672
3026.000000;0.057969
3025.000000;0.057933
3024.000000;0.057609
3023.000000;0.057319
3022.000000;0.057370
3021.000000;0.057816
3020.000000;0.058545
3019.000000;0.059428
3018.000000;0.060290
3017.000000;0.060847
3016.000000;0.060910
3015.000000;0.060636
3014.000000;0.060440
3013.000000;0.060613
3012.000000;0.061121
3011.000000;0.061763
3010.000000;0.062398
3009.000000;0.062974
3008.000000;0.063466
3007.000000;0.063889
3006.000000;0.064307
3005.000000;0.064736
3004.000000;0.065079
3003.000000;0.065248
3002.000000;0.065337
3001.000000;0.065602
3000.000000;0.066235
2999.000000;0.067180
2998.000000;0.068155
2997.000000;0.068865
2996.000000;0.069238
2995.000000;0.069500
2994.000000;0.069976
2993.000000;0.070771
2992.000000;0.071658
2991.000000;0.072327
2990.000000;0.072706
2989.000000;0.072959
2988.000000;0.073234
2987.000000;0.073504
2986.000000;0.073666
2985.000000;0.073652
2984.000000;0.073437
2983.000000;0.073089
2982.000000;0.072880
2981.000000;0.073196
2980.000000;0.074188
2979.000000;0.075542
2978.000000;0.076721
2977.000000;0.077443
2976.000000;0.077856
2975.000000;0.078283
2974.000000;0.078893
2973.000000;0.079568
2972.000000;0.080027
2971.000000;0.080081
2970.000000;0.079872
2969.000000;0.079809
2968.000000;0.080203
2967.000000;0.080976
2966.000000;0.081775
2965.000000;0.082292
2964.000000;0.082393
2963.000000;0.082093
2962.000000;0.081631
2961.000000;0.081479
2960.000000;0.082016
2959.000000;0.083120
2958.000000;0.084263
2957.000000;0.085027
2956.000000;0.085374
2955.000000;0.085446
2954.000000;0.085372
2953.000000;0.085343
2952.000000;0.085593
2951.000000;0.086130
2950.000000;0.086663
2949.000000;0.086985
2948.000000;0.087282
2947.000000;0.087875
2946.000000;0.088773
2945.000000;0.089643
2944.000000;0.090171
2943.000000;0.090307
2942.000000;0.090232
2941.000000;0.090195
2940.000000;0.090338
2939.000000;0.090601
2938.000000;0.090832
2937.000000;0.091029
2936.000000;0.091365
2935.000000;0.091929
2934.000000;0.092616
2933.000000;0.093337
2932.000000;0.094133
2931.000000;0.094964
2930.000000;0.095598
2929.000000;0.095914
2928.000000;0.096117
2927.000000;0.096439
2926.000000;0.096777
2925.000000;0.096919
2924.000000;0.097014
2923.000000;0.097481
2922.000000;0.098449
2921.000000;0.099548
2920.000000;0.100287
2919.000000;0.100468
2918.000000;0.100210
2917.000000;0.099797
2916.000000;0.099592
2915.000000;0.099903
2914.000000;0.100777
2913.000000;0.101936
2912.000000;0.102969
2911.000000;0.103610
2910.000000;0.103919
2909.000000;0.104238
2908.000000;0.104833
2907.000000;0.105532
2906.000000;0.105889
2905.000000;0.105829
2904.000000;0.105880
2903.000000;0.106509
2902.000000;0.107438
2901.000000;0.108002
2900.000000;0.108053
2899.000000;0.108084
2898.000000;0.108464
2897.000000;0.109028
2896.000000;0.109526
2895.000000;0.110051
2894.000000;0.110806
2893.000000;0.111722
2892.000000;0.112553
2891.000000;0.113170
2890.000000;0.113586
2889.000000;0.113867
2888.000000;0.114173
2887.000000;0.114712
2886.000000;0.115474
2885.000000;0.116180
2884.000000;0.116647
2883.000000;0.117031
2882.000000;0.117546
2881.000000;0.118111
2880.000000;0.118531
2879.000000;0.118867
2878.000000;0.119349
2877.000000;0.119973
2876.000000;0.120450
2875.000000;0.120600
2874.000000;0.120601
2873.000000;0.120776
2872.000000;0.121252
2871.000000;0.121879
2870.000000;0.122390
2869.000000;0.122650
2868.000000;0.122766
2867.000000;0.122974
2866.000000;0.123375
2865.000000;0.123842
2864.000000;0.124240
2863.000000;0.124634
2862.000000;0.125197
2861.000000;0.125928
2860.000000;0.126594
2859.000000;0.126951
2858.000000;0.126990
2857.000000;0.126950
2856.000000;0.127116
2855.000000;0.127582
2854.000000;0.128183
2853.000000;0.128706
2852.000000;0.129173
2851.000000;0.129820
2850.000000;0.130772
2849.000000;0.131838
2848.000000;0.132688
2847.000000;0.133184
2846.000000;0.133446
2845.000000;0.133686
2844.000000;0.134034
2843.000000;0.134492
2842.000000;0.134969
2841.000000;0.135403
2840.000000;0.135879
2839.000000;0.136567
2838.000000;0.137489
2837.000000;0.138417
2836.000000;0.139068
2835.000000;0.139368
2834.000000;0.139460
2833.000000;0.139525
2832.000000;0.139653
2831.000000;0.139848
2830.000000;0.140075
2829.000000;0.140353
2828.000000;0.140807
2827.000000;0.141564
2826.000000;0.142551
2825.000000;0.143453
2824.000000;0.143951
2823.000000;0.143984
2822.000000;0.143791
2821.000000;0.143763
2820.000000;0.144241
2819.000000;0.145250
2818.000000;0.146389
2817.000000;0.147143
2816.000000;0.147383
2815.000000;0.147441
2814.000000;0.147657
2813.000000;0.148051
2812.000000;0.148546
2811.000000;0.149254
2810.000000;0.150290
2809.000000;0.151455
2808.000000;0.152357
2807.000000;0.152805
2806.000000;0.152924
2805.000000;0.152961
2804.000000;0.153175
2803.000000;0.153801
2802.000000;0.154824
2801.000000;0.155811
2800.000000;0.156266
2799.000000;0.156224
2798.000000;0.156263
2797.000000;0.156838
2796.000000;0.157795
2795.000000;0.158607
2794.000000;0.158930
2793.000000;0.158824
2792.000000;0.158597
2791.000000;0.158577
2790.000000;0.158956
2789.000000;0.159700
2788.000000;0.160591
2787.000000;0.161385
2786.000000;0.161926
2785.000000;0.162208
2784.000000;0.162404
2783.000000;0.162804
2782.000000;0.163554
2781.000000;0.164478
2780.000000;0.165273
2779.000000;0.165862
2778.000000;0.166366
2777.000000;0.166799
2776.000000;0.167043
2775.000000;0.167155
2774.000000;0.167420
2773.000000;0.167963
2772.000000;0.168594
2771.000000;0.169166
2770.000000;0.169856
2769.000000;0.170819
2768.000000;0.171793
2767.000000;0.172361
2766.000000;0.172543
2765.000000;0.172786
2764.000000;0.173363
2763.000000;0.174063
2762.000000;0.174562
2761.000000;0.174864
2760.000000;0.175248
2759.000000;0.175894
2758.000000;0.176719
2757.000000;0.177495
2756.000000;0.178041
2755.000000;0.178337
2754.000000;0.178515
2753.000000;0.178729
2752.000000;0.178985
2751.000000;0.179170
2750.000000;0.179257
2749.000000;0.179410
2748.000000;0.179841
2747.000000;0.180590
2746.000000;0.181501
2745.000000;0.182380
2744.000000;0.183117
2743.000000;0.183686
2742.000000;0.184103
2741.000000;0.184405
2740.000000;0.184667
2739.000000;0.184998
2738.000000;0.185481
2737.000000;0.186111
2736.000000;0.186789
2735.000000;0.187421
2734.000000;0.188022
2733.000000;0.188648
2732.000000;0.189236
2731.000000;0.189604
2730.000000;0.189692
2729.000000;0.189732
2728.000000;0.190094
2727.000000;0.190923
2726.000000;0.192021
2725.000000;0.193053
2724.000000;0.193814
2723.000000;0.194253
2722.000000;0.194381
2721.000000;0.194259
2720.000000;0.194071
2719.000000;0.194062
2718.000000;0.194369
2717.000000;0.194978
2716.000000;0.195870
2715.000000;0.197093
2714.000000;0.198597
2713.000000;0.200039
2712.000000;0.200922
2711.000000;0.201036
2710.000000;0.200674
2709.000000;0.200357
2708.000000;0.200354
2707.000000;0.200547
2706.000000;0.200727
2705.000000;0.200905
2704.000000;0.201247
2703.000000;0.201790
2702.000000;0.202351
2701.000000;0.202758
2700.000000;0.203111
2699.000000;0.203706
2698.000000;0.204729
2697.000000;0.206068
2696.000000;0.207421
2695.000000;0.208531
2694.000000;0.209296
2693.000000;0.209744
2692.000000;0.209981
2691.000000;0.210155
2690.000000;0.210379
2689.000000;0.210660
2688.000000;0.210907
2687.000000;0.211048
2686.000000;0.211127
2685.000000;0.211319
2684.000000;0.211856
2683.000000;0.212907
2682.000000;0.214423
2681.000000;0.216065
2680.000000;0.217339
2679.000000;0.217910
2678.000000;0.217854
2677.000000;0.217596
2676.000000;0.217578
2675.000000;0.217956
2674.000000;0.218594
2673.000000;0.219276
2672.000000;0.219888
2671.000000;0.220388
2670.000000;0.220699
2669.000000;0.220759
2668.000000;0.220701
2667.000000;0.220874
2666.000000;0.221560
2665.000000;0.222669
2664.000000;0.223752
2663.000000;0.224352
2662.000000;0.224360
2661.000000;0.224071
2660.000000;0.223923
2659.000000;0.224174
2658.000000;0.224755
2657.000000;0.225375
2656.000000;0.225797
2655.000000;0.226019
2654.000000;0.226246
2653.000000;0.226724
2652.000000;0.227566
2651.000000;0.228683
2650.000000;0.229815
2649.000000;0.230719
2648.000000;0.231377
2647.000000;0.232003
2646.000000;0.232782
2645.000000;0.233619
2644.000000;0.234256
2643.000000;0.234595
2642.000000;0.234806
2641.000000;0.235054
2640.000000;0.235260
2639.000000;0.235260
2638.000000;0.235158
2637.000000;0.235354
2636.000000;0.236139
2635.000000;0.237343
2634.000000;0.238454
2633.000000;0.239088
2632.000000;0.239268
2631.000000;0.239291
2630.000000;0.239392
2629.000000;0.239602
2628.000000;0.239862
2627.000000;0.240190
2626.000000;0.240704
2625.000000;0.241503
2624.000000;0.242521
2623.000000;0.243533
2622.000000;0.244339
2621.000000;0.244994
2620.000000;0.245766
2619.000000;0.246812
2618.000000;0.247939
2617.000000;0.248777
2616.000000;0.249170
2615.000000;0.249270
2614.000000;0.249272
2613.000000;0.249207
2612.000000;0.249060
2611.000000;0.248967
2610.000000;0.249153
2609.000000;0.249698
2608.000000;0.250453
2607.000000;0.251207
2606.000000;0.251910
2605.000000;0.252705
2604.000000;0.253723
2603.000000;0.254804
2602.000000;0.255506
2601.000000;0.255529
2600.000000;0.255120
2599.000000;0.254898
2598.000000;0.255237
2597.000000;0.255955
2596.000000;0.256673
2595.000000;0.257277
2594.000000;0.257891
2593.000000;0.258582
2592.000000;0.259325
2591.000000;0.260182
2590.000000;0.261228
2589.000000;0.262280
2588.000000;0.262902
2587.000000;0.262801
2586.000000;0.262167
2585.000000;0.261569
2584.000000;0.261570
2583.000000;0.262360
2582.000000;0.263608
2581.000000;0.264676
2580.000000;0.265150
2579.000000;0.265196
2578.000000;0.265312
2577.000000;0.265772
2576.000000;0.266448
2575.000000;0.267133
2574.000000;0.267832
2573.000000;0.268628
2572.000000;0.269453
2571.000000;0.270132
2570.000000;0.270598
2569.000000;0.270959
2568.000000;0.271390
2567.000000;0.272047
2566.000000;0.273035
2565.000000;0.274335
2564.000000;0.275685
2563.000000;0.276583
2562.000000;0.276565
2561.000000;0.275640
2560.000000;0.274477
2559.000000;0.273970
2558.000000;0.274483
2557.000000;0.275562
2556.000000;0.276466
2555.000000;0.276902
2554.000000;0.277154
2553.000000;0.277595
2552.000000;0.278335
2551.000000;0.279284
2550.000000;0.280286
2549.000000;0.281123
2548.000000;0.281601
2547.000000;0.281764
2546.000000;0.281924
2545.000000;0.282368
2544.000000;0.283111
2543.000000;0.283956
2542.000000;0.284694
2541.000000;0.285251
2540.000000;0.285754
2539.000000;0.286451
2538.000000;0.287449
2537.000000;0.288503
2536.000000;0.289212
2535.000000;0.289425
2534.000000;0.289320
2533.000000;0.289135
2532.000000;0.289037
2531.000000;0.289248
2530.000000;0.289967
2529.000000;0.291059
2528.000000;0.292086
2527.000000;0.292801
2526.000000;0.293400
2525.000000;0.294120
2524.000000;0.294809
2523.000000;0.295155
2522.000000;0.295197
2521.000000;0.295354
2520.000000;0.295955
2519.000000;0.296906
2518.000000;0.297759
2517.000000;0.298061
2516.000000;0.297748
2515.000000;0.297317
2514.000000;0.297453
2513.000000;0.298359
2512.000000;0.299583
2511.000000;0.300580
2510.000000;0.301274
2509.000000;0.301906
2508.000000;0.302558
2507.000000;0.303103
2506.000000;0.303469
2505.000000;0.303649
2504.000000;0.303562
2503.000000;0.303234
2502.000000;0.303048
2501.000000;0.303476
2500.000000;0.304527
2499.000000;0.305728
2498.000000;0.306681
2497.000000;0.307406
2496.000000;0.308070
2495.000000;0.308671
2494.000000;0.309114
2493.000000;0.309415
2492.000000;0.309687
2491.000000;0.310033
2490.000000;0.310519
2489.000000;0.311102
2488.000000;0.311535
2487.000000;0.311537
2486.000000;0.311180
2485.000000;0.310983
2484.000000;0.311460
2483.000000;0.312609
2482.000000;0.313906
2481.000000;0.314758
2480.000000;0.314943
2479.000000;0.314691
2478.000000;0.314464
2477.000000;0.314641
2476.000000;0.315337
2475.000000;0.316423
2474.000000;0.317667
2473.000000;0.318832
2472.000000;0.319728
2471.000000;0.320284
2470.000000;0.320572
2469.000000;0.320699
2468.000000;0.320708
2467.000000;0.320627
2466.000000;0.320575
2465.000000;0.320757
2464.000000;0.321351
2463.000000;0.322408
2462.000000;0.323791
2461.000000;0.325157
2460.000000;0.326130
2459.000000;0.326631
2458.000000;0.326952
2457.000000;0.327398
2456.000000;0.327939
2455.000000;0.328376
2454.000000;0.328713
2453.000000;0.329139
2452.000000;0.329695
2451.000000;0.330234
2450.000000;0.330721
2449.000000;0.331333
2448.000000;0.332158
2447.000000;0.332970
2446.000000;0.333434
2445.000000;0.333422
2444.000000;0.333087
2443.000000;0.332696
2442.000000;0.332494
2441.000000;0.332610
2440.000000;0.333042
2439.000000;0.333760
2438.000000;0.334796
2437.000000;0.336147
2436.000000;0.337587
2435.000000;0.338720
2434.000000;0.339269
2433.000000;0.339250
2432.000000;0.338893
2431.000000;0.338494
2430.000000;0.338332
2429.000000;0.338573
2428.000000;0.339182
2427.000000;0.339978
2426.000000;0.340800
2425.000000;0.341596
2424.000000;0.342379
2423.000000;0.343173
2422.000000;0.343933
2421.000000;0.344500
2420.000000;0.344731
2419.000000;0.344750
2418.000000;0.344925
2417.000000;0.345436
2416.000000;0.346044
2415.000000;0.346489
2414.000000;0.346932
2413.000000;0.347681
2412.000000;0.348623
2411.000000;0.349321
2410.000000;0.349663
2409.000000;0.350012
2408.000000;0.350650
2407.000000;0.351443
2406.000000;0.352172
2405.000000;0.352814
2404.000000;0.353351
2403.000000;0.353617
2402.000000;0.353570
2401.000000;0.353434
2400.000000;0.353414
2399.000000;0.353517
2398.000000;0.353825
2397.000000;0.354598
2396.000000;0.355845
2395.000000;0.357085
2394.000000;0.357873
2393.000000;0.358361
2392.000000;0.358974
2391.000000;0.359709
2390.000000;0.360143
2389.000000;0.360080
2388.000000;0.359794
2387.000000;0.359654
2386.000000;0.359810
2385.000000;0.360270
2384.000000;0.360991
2383.000000;0.361803
2382.000000;0.362490
2381.000000;0.363007
2380.000000;0.363496
2379.000000;0.364051
2378.000000;0.364644
2377.000000;0.365267
2376.000000;0.365941
2375.000000;0.366552
2374.000000;0.366916
2373.000000;0.367066
2372.000000;0.367312
2371.000000;0.367879
2370.000000;0.368593
2369.000000;0.369068
2368.000000;0.369151
2367.000000;0.369112
2366.000000;0.369411
2365.000000;0.370256
2364.000000;0.371353
2363.000000;0.372131
2362.000000;0.372351
2361.000000;0.372375
2360.000000;0.372706
2359.000000;0.373498
2358.000000;0.374491
2357.000000;0.375335
2356.000000;0.375894
2355.000000;0.376114
2354.000000;0.376099
2353.000000;0.376146
2352.000000;0.376490
2351.000000;0.377073
2350.000000;0.377613
2349.000000;0.378103
2348.000000;0.378730
2347.000000;0.379556
2346.000000;0.380439
2345.000000;0.381077
2344.000000;0.381463
2343.000000;0.381799
2342.000000;0.382283
2341.000000;0.382870
2340.000000;0.383405
2339.000000;0.383983
2338.000000;0.384644
2337.000000;0.385321
2336.000000;0.385830
2335.000000;0.386123
2334.000000;0.386342
2333.000000;0.386758
2332.000000;0.387444
2331.000000;0.388208
2330.000000;0.388690
2329.000000;0.388868
2328.000000;0.389053
2327.000000;0.389636
2326.000000;0.390710
2325.000000;0.391805
2324.000000;0.392425
2323.000000;0.392410
2322.000000;0.392202
2321.000000;0.392339
2320.000000;0.392933
2319.000000;0.393766
2318.000000;0.394562
2317.000000;0.395308
2316.000000;0.395961
2315.000000;0.396467
2314.000000;0.396827
2313.000000;0.397242
2312.000000;0.397835
2311.000000;0.398488
2310.000000;0.398971
2309.000000;0.399207
2308.000000;0.399248
2307.000000;0.399122
2306.000000;0.398906
2305.000000;0.398846
2304.000000;0.399210
2303.000000;0.399987
2302.000000;0.400871
2301.000000;0.401581
2300.000000;0.402085
2299.000000;0.402553
2298.000000;0.403145
2297.000000;0.403881
2296.000000;0.404614
2295.000000;0.405150
2294.000000;0.405447
2293.000000;0.405653
2292.000000;0.405921
2291.000000;0.406232
2290.000000;0.406537
2289.000000;0.406929
2288.000000;0.407555
2287.000000;0.408361
2286.000000;0.409130
2285.000000;0.409726
2284.000000;0.410178
2283.000000;0.410516
2282.000000;0.410731
2281.000000;0.410908
2280.000000;0.411224
2279.000000;0.411748
2278.000000;0.412359
2277.000000;0.412907
2276.000000;0.413313
2275.000000;0.413504
2274.000000;0.413407
2273.000000;0.413121
2272.000000;0.412934
2271.000000;0.413047
2270.000000;0.413380
2269.000000;0.413784
2268.000000;0.414362
2267.000000;0.415381
2266.000000;0.416865
2265.000000;0.418413
2264.000000;0.419523
2263.000000;0.420079
2262.000000;0.420450
2261.000000;0.421101
2260.000000;0.422131
2259.000000;0.423205
2258.000000;0.423923
2257.000000;0.424199
2256.000000;0.424279
2255.000000;0.424444
2254.000000;0.424742
2253.000000;0.424964
2252.000000;0.424832
2251.000000;0.424261
2250.000000;0.423526
2249.000000;0.423135
2248.000000;0.423437
2247.000000;0.424369
2246.000000;0.425620
2245.000000;0.426958
2244.000000;0.428268
2243.000000;0.429370
2242.000000;0.430029
2241.000000;0.430216
2240.000000;0.430195
2239.000000;0.430303
2238.000000;0.430744
2237.000000;0.431591
2236.000000;0.432785
2235.000000;0.434025
2234.000000;0.434849
2233.000000;0.434992
2232.000000;0.434660
2231.000000;0.434382
2230.000000;0.434647
2229.000000;0.435648
2228.000000;0.437196
2227.000000;0.438730
2226.000000;0.439598
2225.000000;0.439541
2224.000000;0.438929
2223.000000;0.438413
2222.000000;0.438368
2221.000000;0.438729
2220.000000;0.439252
2219.000000;0.439786
2218.000000;0.440323
2217.000000;0.440921
2216.000000;0.441627
2215.000000;0.442402
2214.000000;0.443138
2213.000000;0.443783
2212.000000;0.444406
2211.000000;0.445073
2210.000000;0.445711
2209.000000;0.446195
2208.000000;0.446512
2207.000000;0.446741
2206.000000;0.446907
2205.000000;0.446999
2204.000000;0.447119
2203.000000;0.447439
2202.000000;0.447985
2201.000000;0.448578
2200.000000;0.449043
2199.000000;0.449391
2198.000000;0.449746
2197.000000;0.450224
2196.000000;0.450920
2195.000000;0.451881
2194.000000;0.452960
2193.000000;0.453794
2192.000000;0.454113
2191.000000;0.454069
2190.000000;0.454105
2189.000000;0.454481
2188.000000;0.455017
2187.000000;0.455352
2186.000000;0.455395
2185.000000;0.455451
2184.000000;0.455907
2183.000000;0.456817
2182.000000;0.457819
2181.000000;0.458474
2180.000000;0.458726
2179.000000;0.458952
2178.000000;0.459501
2177.000000;0.460261
2176.000000;0.460795
2175.000000;0.460918
2174.000000;0.460933
2173.000000;0.461221
2172.000000;0.461763
2171.000000;0.462255
2170.000000;0.462579
2169.000000;0.462942
2168.000000;0.463517
2167.000000;0.464189
2166.000000;0.464762
2165.000000;0.465262
2164.000000;0.465834
2163.000000;0.466461
2162.000000;0.466966
2161.000000;0.467302
2160.000000;0.467678
2159.000000;0.468330
2158.000000;0.469275
2157.000000;0.470340
2156.000000;0.471320
2155.000000;0.472045
2154.000000;0.472396
2153.000000;0.472398
2152.000000;0.472335
2151.000000;0.472642
2150.000000;0.473521
2149.000000;0.474636
2148.000000;0.475290
2147.000000;0.475065
2146.000000;0.474284
2145.000000;0.473735
2144.000000;0.473892
2143.000000;0.474500
2142.000000;0.475008
2141.000000;0.475278
2140.000000;0.475719
2139.000000;0.476721
2138.000000;0.478194
2137.000000;0.479684
2136.000000;0.480794
2135.000000;0.481396
2134.000000;0.481598
2133.000000;0.481650
2132.000000;0.481826
2131.000000;0.482221
2130.000000;0.482667
2129.000000;0.482944
2128.000000;0.483073
2127.000000;0.483314
2126.000000;0.483902
2125.000000;0.484831
2124.000000;0.485872
2123.000000;0.486717
2122.000000;0.487146
2121.000000;0.487212
2120.000000;0.487264
2119.000000;0.487673
2118.000000;0.488474
2117.000000;0.489357
2116.000000;0.490015
2115.000000;0.490403
2114.000000;0.490652
2113.000000;0.490877
2112.000000;0.491162
2111.000000;0.491634
2110.000000;0.492394
2109.000000;0.493390
2108.000000;0.494431
2107.000000;0.495313
2106.000000;0.495916
2105.000000;0.496231
2104.000000;0.496366
2103.000000;0.496484
2102.000000;0.496668
2101.000000;0.496866
2100.000000;0.497051
2099.000000;0.497373
2098.000000;0.498044
2097.000000;0.499036
2096.000000;0.500006
2095.000000;0.500592
2094.000000;0.500766
2093.000000;0.500848
2092.000000;0.501186
2091.000000;0.501818
2090.000000;0.502465
2089.000000;0.502872
2088.000000;0.503125
2087.000000;0.503556
2086.000000;0.504315
2085.000000;0.505148
2084.000000;0.505684
2083.000000;0.505855
2082.000000;0.505923
2081.000000;0.506161
2080.000000;0.506670
2079.000000;0.507437
2078.000000;0.508336
2077.000000;0.509080
2076.000000;0.509394
2075.000000;0.509360
2074.000000;0.509405
2073.000000;0.509825
2072.000000;0.510491
2071.000000;0.511157
2070.000000;0.511840
2069.000000;0.512694
2068.000000;0.513627
2067.000000;0.514325
2066.000000;0.514630
2065.000000;0.514669
2064.000000;0.514612
2063.000000;0.514541
2062.000000;0.514581
2061.000000;0.514947
2060.000000;0.515711
2059.000000;0.516658
2058.000000;0.517460
2057.000000;0.517923
2056.000000;0.518059
2055.000000;0.518076
2054.000000;0.518373
2053.000000;0.519325
2052.000000;0.520878
2051.000000;0.522427
2050.000000;0.523289
2049.000000;0.523315
2048.000000;0.522974
2047.000000;0.522875
2046.000000;0.523283
2045.000000;0.524056
2044.000000;0.524871
2043.000000;0.525491
2042.000000;0.525889
2041.000000;0.526170
2040.000000;0.526394
2039.000000;0.526532
2038.000000;0.526582
2037.000000;0.526673
2036.000000;0.526956
2035.000000;0.527463
2034.000000;0.528122
2033.000000;0.528872
2032.000000;0.529686
2031.000000;0.530503
2030.000000;0.531239
2029.000000;0.531847
2028.000000;0.532337
2027.000000;0.532720
2026.000000;0.533022
2025.000000;0.533312
2024.000000;0.533682
2023.000000;0.534185
2022.000000;0.534820
2021.000000;0.535538
2020.000000;0.536248
2019.000000;0.536865
2018.000000;0.537421
2017.000000;0.538038
2016.000000;0.538710
2015.000000;0.539215
2014.000000;0.539359
2013.000000;0.539285
2012.000000;0.539360
2011.000000;0.539763
2010.000000;0.540322
2009.000000;0.540814
2008.000000;0.541258
2007.000000;0.541832
2006.000000;0.542591
2005.000000;0.543405
2004.000000;0.544124
2003.000000;0.544695
2002.000000;0.545136
2001.000000;0.545463
2000.000000;0.545706
1999.000000;0.545940
1998.000000;0.546268
1997.000000;0.546764
1996.000000;0.547406
1995.000000;0.548069
1994.000000;0.548606
1993.000000;0.548957
1992.000000;0.549206
1991.000000;0.549529
1990.000000;0.550064
1989.000000;0.550803
1988.000000;0.551567
1987.000000;0.552105
1986.000000;0.552279
1985.000000;0.552163
1984.000000;0.551986
1983.000000;0.552012
1982.000000;0.552462
1981.000000;0.553444
1980.000000;0.554837
1979.000000;0.556281
1978.000000;0.557391
1977.000000;0.558020
1976.000000;0.558294
1975.000000;0.558428
1974.000000;0.558617
1973.000000;0.559047
1972.000000;0.559836
1971.000000;0.560846
1970.000000;0.561677
1969.000000;0.562001
1968.000000;0.561931
1967.000000;0.561937
1966.000000;0.562366
1965.000000;0.563119
1964.000000;0.563863
1963.000000;0.564467
1962.000000;0.565100
1961.000000;0.565879
1960.000000;0.566599
1959.000000;0.566955
1958.000000;0.566974
1957.000000;0.567020
1956.000000;0.567336
1955.000000;0.567789
1954.000000;0.568167
1953.000000;0.568546
1952.000000;0.569185
1951.000000;0.570128
1950.000000;0.571152
1949.000000;0.572068
1948.000000;0.572855
1947.000000;0.573492
1946.000000;0.573877
1945.000000;0.574036
1944.000000;0.574192
1943.000000;0.574510
1942.000000;0.574880
1941.000000;0.575108
1940.000000;0.575223
1939.000000;0.575429
1938.000000;0.575822
1937.000000;0.576291
1936.000000;0.576719
1935.000000;0.577139
1934.000000;0.577659
1933.000000;0.578332
1932.000000;0.579093
1931.000000;0.579797
1930.000000;0.580284
1929.000000;0.580480
1928.000000;0.580440
1927.000000;0.580325
1926.000000;0.580371
1925.000000;0.580839
1924.000000;0.581847
1923.000000;0.583178
1922.000000;0.584352
1921.000000;0.585020
1920.000000;0.585264
1919.000000;0.585453
1918.000000;0.585858
1917.000000;0.586504
1916.000000;0.587287
1915.000000;0.588071
1914.000000;0.588729
1913.000000;0.589216
1912.000000;0.589613
1911.000000;0.590021
1910.000000;0.590443
1909.000000;0.590840
1908.000000;0.591230
1907.000000;0.591629
1906.000000;0.591988
1905.000000;0.592332
1904.000000;0.592869
1903.000000;0.593759
1902.000000;0.594817
1901.000000;0.595658
1900.000000;0.596152
1899.000000;0.596509
1898.000000;0.596889
1897.000000;0.597196
1896.000000;0.597376
1895.000000;0.597655
1894.000000;0.598262
1893.000000;0.599052
1892.000000;0.599635
1891.000000;0.599827
1890.000000;0.599830
1889.000000;0.599991
1888.000000;0.600504
1887.000000;0.601313
1886.000000;0.602195
1885.000000;0.602918
1884.000000;0.603400
1883.000000;0.603698
1882.000000;0.603834
1881.000000;0.603747
1880.000000;0.603482
1879.000000;0.603302
1878.000000;0.603473
1877.000000;0.604028
1876.000000;0.604856
1875.000000;0.605897
1874.000000;0.607064
1873.000000;0.608093
1872.000000;0.608727
1871.000000;0.609067
1870.000000;0.609495
1869.000000;0.610185
1868.000000;0.610910
1867.000000;0.611410
1866.000000;0.611750
1865.000000;0.612167
1864.000000;0.612677
1863.000000;0.613064
1862.000000;0.613214
1861.000000;0.613270
1860.000000;0.613430
1859.000000;0.613789
1858.000000;0.614396
1857.000000;0.615281
1856.000000;0.616347
1855.000000;0.617337
1854.000000;0.618032
1853.000000;0.618465
1852.000000;0.618854
1851.000000;0.619370
1850.000000;0.620044
1849.000000;0.620842
1848.000000;0.621726
1847.000000;0.622573
1846.000000;0.623167
1845.000000;0.623380
1844.000000;0.623330
1843.000000;0.623285
1842.000000;0.623403
1841.000000;0.623640
1840.000000;0.623919
1839.000000;0.624278
1838.000000;0.624754
1837.000000;0.625244
1836.000000;0.625641
1835.000000;0.626074
1834.000000;0.626821
1833.000000;0.627970
1832.000000;0.629267
1831.000000;0.630385
1830.000000;0.631250
1829.000000;0.631998
1828.000000;0.632673
1827.000000;0.633125
1826.000000;0.633260
1825.000000;0.633229
1824.000000;0.633334
1823.000000;0.633758
1822.000000;0.634397
1821.000000;0.634997
1820.000000;0.635397
1819.000000;0.635655
1818.000000;0.635952
1817.000000;0.636419
1816.000000;0.637022
1815.000000;0.637595
1814.000000;0.638002
1813.000000;0.638286
1812.000000;0.638633
1811.000000;0.639176
1810.000000;0.639875
1809.000000;0.640609
1808.000000;0.641291
1807.000000;0.641863
1806.000000;0.642270
1805.000000;0.642616
1804.000000;0.643232
1803.000000;0.644366
1802.000000;0.645805
1801.000000;0.646981
1800.000000;0.647512
1799.000000;0.647496
1798.000000;0.647255
1797.000000;0.646988
1796.000000;0.646789
1795.000000;0.646793
1794.000000;0.647113
1793.000000;0.647726
1792.000000;0.648566
1791.000000;0.649634
1790.000000;0.650823
1789.000000;0.651795
1788.000000;0.652268
1787.000000;0.652365
1786.000000;0.652476
1785.000000;0.652814
1784.000000;0.653276
1783.000000;0.653725
1782.000000;0.654163
1781.000000;0.654593
1780.000000;0.654964
1779.000000;0.655322
1778.000000;0.655820
1777.000000;0.656481
1776.000000;0.657138
1775.000000;0.657713
1774.000000;0.658374
1773.000000;0.659250
1772.000000;0.660166
1771.000000;0.660826
1770.000000;0.661125
1769.000000;0.661176
1768.000000;0.661170
1767.000000;0.661290
1766.000000;0.661744
1765.000000;0.662645
1764.000000;0.663833
1763.000000;0.664950
1762.000000;0.665709
1761.000000;0.666065
1760.000000;0.666193
1759.000000;0.666357
1758.000000;0.666726
1757.000000;0.667239
1756.000000;0.667698
1755.000000;0.668023
1754.000000;0.668370
1753.000000;0.668927
1752.000000;0.669732
1751.000000;0.670728
1750.000000;0.671852
1749.000000;0.672954
1748.000000;0.673760
1747.000000;0.674121
1746.000000;0.674248
1745.000000;0.674476
1744.000000;0.674864
1743.000000;0.675192
1742.000000;0.675319
1741.000000;0.675357
1740.000000;0.675511
1739.000000;0.675900
1738.000000;0.676567
1737.000000;0.677511
1736.000000;0.678622
1735.000000;0.679702
1734.000000;0.680557
1733.000000;0.681129
1732.000000;0.681520
1731.000000;0.681853
1730.000000;0.682215
1729.000000;0.682623
1728.000000;0.682973
1727.000000;0.683149
1726.000000;0.683280
1725.000000;0.683679
1724.000000;0.684482
1723.000000;0.685459
1722.000000;0.686251
1721.000000;0.686706
1720.000000;0.686921
1719.000000;0.687035
1718.000000;0.687116
1717.000000;0.687260
1716.000000;0.687636
1715.000000;0.688354
1714.000000;0.689368
1713.000000;0.690425
1712.000000;0.691221
1711.000000;0.691670
1710.000000;0.691934
1709.000000;0.692213
1708.000000;0.692549
1707.000000;0.692844
1706.000000;0.693002
1705.000000;0.693006
1704.000000;0.692926
1703.000000;0.692952
1702.000000;0.693316
1701.000000;0.694040
1700.000000;0.694843
1699.000000;0.695618
1698.000000;0.696647
1697.000000;0.697954
1696.000000;0.699129
1695.000000;0.699784
1694.000000;0.699910
1693.000000;0.699940
1692.000000;0.700237
1691.000000;0.700821
1690.000000;0.701591
1689.000000;0.702351
1688.000000;0.702879
1687.000000;0.703207
1686.000000;0.703732
1685.000000;0.704759
1684.000000;0.705956
1683.000000;0.706649
1682.000000;0.706583
1681.000000;0.706318
1680.000000;0.706548
1679.000000;0.707288
1678.000000;0.708135
1677.000000;0.708825
1676.000000;0.709380
1675.000000;0.709865
1674.000000;0.710292
1673.000000;0.710718
1672.000000;0.711156
1671.000000;0.711513
1670.000000;0.711794
1669.000000;0.712233
1668.000000;0.713058
1667.000000;0.714162
1666.000000;0.715143
1665.000000;0.715716
1664.000000;0.716030
1663.000000;0.716460
1662.000000;0.717181
1661.000000;0.718061
1660.000000;0.718872
1659.000000;0.719486
1658.000000;0.719890
1657.000000;0.720151
1656.000000;0.720406
1655.000000;0.720797
1654.000000;0.721325
1653.000000;0.721851
1652.000000;0.722299
1651.000000;0.722791
1650.000000;0.723572
1649.000000;0.724538
1648.000000;0.725526
1647.000000;0.726580
1646.000000;0.727477
1645.000000;0.727831
1644.000000;0.727607
1643.000000;0.727259
1642.000000;0.727260
1641.000000;0.727804
1640.000000;0.728663
1639.000000;0.729369
1638.000000;0.729689
1637.000000;0.729839
1636.000000;0.730190
1635.000000;0.730852
1634.000000;0.731600
1633.000000;0.732230
1632.000000;0.732707
1631.000000;0.733012
1630.000000;0.733209
1629.000000;0.733389
1628.000000;0.733587
1627.000000;0.733822
1626.000000;0.734122
1625.000000;0.734529
1624.000000;0.735084
1623.000000;0.735811
1622.000000;0.736705
1621.000000;0.737719
1620.000000;0.738747
1619.000000;0.739621
1618.000000;0.740170
1617.000000;0.740359
1616.000000;0.740376
1615.000000;0.740520
1614.000000;0.740963
1613.000000;0.741610
1612.000000;0.742270
1611.000000;0.742935
1610.000000;0.743760
1609.000000;0.744778
1608.000000;0.745754
1607.000000;0.746352
1606.000000;0.746455
1605.000000;0.746311
1604.000000;0.746392
1603.000000;0.747069
1602.000000;0.748304
1601.000000;0.749661
1600.000000;0.750702
1599.000000;0.751373
1598.000000;0.751895
1597.000000;0.752355
1596.000000;0.752594
1595.000000;0.752549
1594.000000;0.752472
1593.000000;0.752661
1592.000000;0.753120
1591.000000;0.753659
1590.000000;0.754251
1589.000000;0.755063
1588.000000;0.756132
1587.000000;0.757213
1586.000000;0.758015
1585.000000;0.758469
1584.000000;0.758714
1583.000000;0.758906
1582.000000;0.759117
1581.000000;0.759353
1580.000000;0.759609
1579.000000;0.759967
1578.000000;0.760600
1577.000000;0.761603
1576.000000;0.762772
1575.000000;0.763684
1574.000000;0.764069
1573.000000;0.764030
1572.000000;0.763804
1571.000000;0.763563
1570.000000;0.763461
1569.000000;0.763686
1568.000000;0.764359
1567.000000;0.765407
1566.000000;0.766636
1565.000000;0.767817
1564.000000;0.768745
1563.000000;0.769285
1562.000000;0.769503
1561.000000;0.769674
1560.000000;0.770031
1559.000000;0.770480
1558.000000;0.771028
1557.000000;0.771528
1556.000000;0.772003
1555.000000;0.772642
1554.000000;0.773180
1553.000000;0.773619
1552.000000;0.774289
1551.000000;0.775392
1550.000000;0.776683
1549.000000;0.777719
1548.000000;0.778306
1547.000000;0.778566
1546.000000;0.778657
1545.000000;0.778636
1544.000000;0.778657
1543.000000;0.778951
1542.000000;0.779531
1541.000000;0.780163
1540.000000;0.780667
1539.000000;0.781060
1538.000000;0.781388
1537.000000;0.781822
1536.000000;0.782407
1535.000000;0.782969
1534.000000;0.783434
1533.000000;0.783756
1532.000000;0.783976
1531.000000;0.784361
1530.000000;0.785216
1529.000000;0.786461
1528.000000;0.787600
1527.000000;0.788225
1526.000000;0.788394
1525.000000;0.788488
1524.000000;0.788830
1523.000000;0.789449
1522.000000;0.790128
1521.000000;0.790631
1520.000000;0.790889
1519.000000;0.791091
1518.000000;0.791514
1517.000000;0.792162
1516.000000;0.792798
1515.000000;0.793239
1514.000000;0.793584
1513.000000;0.794094
1512.000000;0.794854
1511.000000;0.795756
1510.000000;0.796701
1509.000000;0.797630
1508.000000;0.798455
1507.000000;0.799091
1506.000000;0.799574
1505.000000;0.799949
1504.000000;0.800541
1503.000000;0.801365
1502.000000;0.801826
1501.000000;0.801800
1500.000000;0.801706
1499.000000;0.801913
1498.000000;0.802468
1497.000000;0.803188
1496.000000;0.803888
1495.000000;0.804467
1494.000000;0.804913
1493.000000;0.805291
1492.000000;0.805707
1491.000000;0.806194
1490.000000;0.806610
1489.000000;0.806771
1488.000000;0.806727
1487.000000;0.806863
1486.000000;0.807536
1485.000000;0.808592
1484.000000;0.809480
1483.000000;0.809902
1482.000000;0.810151
1481.000000;0.810719
1480.000000;0.811703
1479.000000;0.812741
1478.000000;0.813478
1477.000000;0.813916
1476.000000;0.814273
1475.000000;0.814630
1474.000000;0.814866
1473.000000;0.814925
1472.000000;0.815007
1471.000000;0.815384
1470.000000;0.816130
1469.000000;0.817067
1468.000000;0.817922
1467.000000;0.818577
1466.000000;0.819097
1465.000000;0.819613
1464.000000;0.820272
1463.000000;0.821144
1462.000000;0.822084
1461.000000;0.822762
1460.000000;0.823005
1459.000000;0.823075
1458.000000;0.823390
1457.000000;0.824036
1456.000000;0.824716
1455.000000;0.825238
1454.000000;0.825758
1453.000000;0.826334
1452.000000;0.826863
1451.000000;0.827334
1450.000000;0.827819
1449.000000;0.828406
1448.000000;0.829103
1447.000000;0.829851
1446.000000;0.830551
1445.000000;0.831064
1444.000000;0.831286
1443.000000;0.831338
1442.000000;0.831561
1441.000000;0.832192
1440.000000;0.833077
1439.000000;0.833814
1438.000000;0.834153
1437.000000;0.834183
1436.000000;0.834205
1435.000000;0.834486
1434.000000;0.835050
1433.000000;0.835666
1432.000000;0.836103
1431.000000;0.836369
1430.000000;0.836676
1429.000000;0.837199
1428.000000;0.837889
1427.000000;0.838536
1426.000000;0.838998
1425.000000;0.839289
1424.000000;0.839544
1423.000000;0.839913
1422.000000;0.840449
1421.000000;0.841063
1420.000000;0.841643
1419.000000;0.842247
1418.000000;0.843115
1417.000000;0.844285
1416.000000;0.845389
1415.000000;0.846039
1414.000000;0.846277
1413.000000;0.846508
1412.000000;0.847029
1411.000000;0.847779
1410.000000;0.848545
1409.000000;0.849205
1408.000000;0.849712
1407.000000;0.850022
1406.000000;0.850196
1405.000000;0.850464
1404.000000;0.851041
1403.000000;0.851913
1402.000000;0.852855
1401.000000;0.853606
1400.000000;0.853990
1399.000000;0.853987
1398.000000;0.853779
1397.000000;0.853678
1396.000000;0.853925
1395.000000;0.854517
1394.000000;0.855245
1393.000000;0.855923
1392.000000;0.856556
1391.000000;0.857256
1390.000000;0.858040
1389.000000;0.858736
1388.000000;0.859100
1387.000000;0.859085
1386.000000;0.859002
1385.000000;0.859288
1384.000000;0.860098
1383.000000;0.861180
1382.000000;0.862145
1381.000000;0.862820
1380.000000;0.863288
1379.000000;0.863716
1378.000000;0.864225
1377.000000;0.864848
1376.000000;0.865503
1375.000000;0.866042
1374.000000;0.866402
1373.000000;0.866718
1372.000000;0.867203
1371.000000;0.867920
1370.000000;0.868687
1369.000000;0.869253
1368.000000;0.869567
1367.000000;0.869787
1366.000000;0.870085
1365.000000;0.870516
1364.000000;0.871061
1363.000000;0.871732
1362.000000;0.872531
1361.000000;0.873346
1360.000000;0.873986
1359.000000;0.874356
1358.000000;0.874517
1357.000000;0.874620
1356.000000;0.874809
1355.000000;0.875206
1354.000000;0.875874
1353.000000;0.876730
1352.000000;0.877521
1351.000000;0.878032
1350.000000;0.878289
1349.000000;0.878505
1348.000000;0.878843
1347.000000;0.879335
1346.000000;0.879972
1345.000000;0.880693
1344.000000;0.881306
1343.000000;0.881608
1342.000000;0.881703
1341.000000;0.882045
1340.000000;0.882992
1339.000000;0.884364
1338.000000;0.885545
1337.000000;0.886009
1336.000000;0.885700
1335.000000;0.884987
1334.000000;0.884460
1333.000000;0.884671
1332.000000;0.885766
1331.000000;0.887240
1330.000000;0.888277
1329.000000;0.888536
1328.000000;0.888524
1327.000000;0.889012
1326.000000;0.890127
1325.000000;0.891229
1324.000000;0.891687
1323.000000;0.891553
1322.000000;0.891355
1321.000000;0.891413
1320.000000;0.891615
1319.000000;0.891792
1318.000000;0.892001
1317.000000;0.892344
1316.000000;0.892749
1315.000000;0.893137
1314.000000;0.893674
1313.000000;0.894660
1312.000000;0.896173
1311.000000;0.897959
1310.000000;0.899640
1309.000000;0.900932
1308.000000;0.901711
1307.000000;0.902046
1306.000000;0.902201
1305.000000;0.902466
1304.000000;0.902903
1303.000000;0.903332
1302.000000;0.903593
1301.000000;0.903765
1300.000000;0.904038
1299.000000;0.904466
1298.000000;0.904931
1297.000000;0.905332
1296.000000;0.905710
1295.000000;0.906155
1294.000000;0.906648
1293.000000;0.907074
1292.000000;0.907424
1291.000000;0.907885
1290.000000;0.908621
1289.000000;0.909482
1288.000000;0.910075
1287.000000;0.910199
1286.000000;0.910102
1285.000000;0.910173
1284.000000;0.910484
1283.000000;0.910818
1282.000000;0.911099
1281.000000;0.911558
1280.000000;0.912393
1279.000000;0.913486
1278.000000;0.914556
1277.000000;0.915466
1276.000000;0.916226
1275.000000;0.916799
1274.000000;0.917093
1273.000000;0.917159
1272.000000;0.917256
1271.000000;0.917648
1270.000000;0.918379
1269.000000;0.919229
1268.000000;0.919878
1267.000000;0.920122
1266.000000;0.920027
1265.000000;0.919913
1264.000000;0.920157
1263.000000;0.920944
1262.000000;0.922130
1261.000000;0.923326
1260.000000;0.924166
1259.000000;0.924586
1258.000000;0.924846
1257.000000;0.925206
1256.000000;0.925616
1255.000000;0.925834
1254.000000;0.925841
1253.000000;0.925979
1252.000000;0.926576
1251.000000;0.927535
1250.000000;0.928429
1249.000000;0.928958
1248.000000;0.929213
1247.000000;0.929500
1246.000000;0.930035
1245.000000;0.930832
1244.000000;0.931774
1243.000000;0.932687
1242.000000;0.933397
1241.000000;0.933798
1240.000000;0.933947
1239.000000;0.934080
1238.000000;0.934460
1237.000000;0.935120
1236.000000;0.935779
1235.000000;0.936093
1234.000000;0.936032
1233.000000;0.935949
1232.000000;0.936224
1231.000000;0.936916
1230.000000;0.937811
1229.000000;0.938702
1228.000000;0.939511
1227.000000;0.940175
1226.000000;0.940605
1225.000000;0.940812
1224.000000;0.940969
1223.000000;0.941257
1222.000000;0.941676
1221.000000;0.942063
1220.000000;0.942305
1219.000000;0.942490
1218.000000;0.942826
1217.000000;0.943444
1216.000000;0.944270
1215.000000;0.945090
1214.000000;0.945699
1213.000000;0.945998
1212.000000;0.946004
1211.000000;0.945850
1210.000000;0.945783
1209.000000;0.946090
1208.000000;0.946915
1207.000000;0.948105
1206.000000;0.949258
1205.000000;0.949965
1204.000000;0.950098
1203.000000;0.949936
1202.000000;0.949966
1201.000000;0.950514
1200.000000;0.951466
